Data from Apollo_Calib_20240827__AbsoluteIrradiance__27__23-36-02-612.txt Node

Date: Tue Aug 27 23:36:02 BST 2024
User: biology
Spectrometer: FLMT08252
Trigger mode: 0
Integration Time (sec): 5.000000E-1
Scans to average: 5
Electric dark correction enabled: true
Nonlinearity correction enabled: false
Boxcar width: 0
XAxis mode: Wavelengths
Number of Pixels in Spectrum: 3648
>>>>>Begin Spectral Data<<<<<
179.588	-0
179.809	-0
180.03	-0
180.251	-0
180.473	-0
180.694	0
180.915	0
181.136	-0
181.357	0
181.578	0
181.799	-0
182.02	-0
182.241	0
182.462	-0
182.683	0
182.904	-0
183.125	0
183.346	0
183.567	0
183.788	0
184.009	0
184.23	0
184.451	0
184.672	0
184.892	0
185.113	0
185.334	0
185.555	0
185.776	0
185.996	0
186.217	0
186.438	0
186.659	0
186.879	0
187.1	0
187.321	0
187.541	0
187.762	0
187.983	0
188.203	0
188.424	0
188.644	0
188.865	0
189.086	0
189.306	0
189.527	0
189.747	0
189.968	0
190.188	0
190.409	0
190.629	0
190.849	0
191.07	0
191.29	0
191.511	0
191.731	0
191.951	0
192.172	0
192.392	0
192.612	0
192.833	0
193.053	0
193.273	0
193.493	0
193.714	0
193.934	0
194.154	0
194.374	0
194.594	0
194.815	0
195.035	0
195.255	0
195.475	0
195.695	0
195.915	0
196.135	0
196.355	0
196.575	0
196.795	0
197.015	0
197.235	0
197.455	0
197.675	0
197.895	0
198.115	0
198.335	0
198.555	0
198.775	0
198.995	0
199.214	0
199.434	0
199.654	0
199.874	0
200.094	3.29
200.313	2.49
200.533	2.34
200.753	1.85
200.973	3.49
201.192	2.99
201.412	1.4
201.632	1.73
201.851	3.49
202.071	1.54
202.291	2
202.51	1.45
202.73	2.41
202.95	1.82
203.169	1.73
203.389	1.84
203.608	2.07
203.828	1.38
204.047	1.72
204.267	2.15
204.486	2.04
204.706	1.83
204.925	1.8
205.145	1.43
205.364	2.02
205.583	2.67
205.803	1.39
206.022	1.19
206.242	1.54
206.461	1.25
206.68	1.3
206.9	1.58
207.119	2.3
207.338	1.99
207.557	1.28
207.777	1.33
207.996	1.18
208.215	1.88
208.434	1.3
208.654	0.91
208.873	1.28
209.092	2.15
209.311	1.32
209.53	1.06
209.749	1.07
209.968	1.07
210.187	1.01
210.407	0.81
210.626	1.18
210.845	1.39
211.064	1.16
211.283	0.83
211.502	1.66
211.721	1.11
211.94	0.96
212.159	1.28
212.377	1.34
212.596	1.33
212.815	1.21
213.034	1.31
213.253	1.27
213.472	1.37
213.691	0.97
213.91	0.76
214.128	0.89
214.347	1.4
214.566	0.74
214.785	0.61
215.003	1.21
215.222	1.05
215.441	0.94
215.66	0.56
215.878	0.85
216.097	1.12
216.316	0.72
216.534	0.75
216.753	0.98
216.972	0.78
217.19	0.76
217.409	0.57
217.627	0.57
217.846	0.81
218.064	0.87
218.283	0.67
218.501	1.29
218.72	1.03
218.938	0.69
219.157	0.59
219.375	1.17
219.594	0.87
219.812	0.49
220.031	0.68
220.249	1.34
220.467	0.97
220.686	0.75
220.904	0.55
221.122	0.68
221.341	1.21
221.559	0.77
221.777	0.57
221.995	0.9
222.214	0.98
222.432	0.59
222.65	0.77
222.868	0.75
223.086	0.75
223.305	0.79
223.523	0.66
223.741	1.15
223.959	0.74
224.177	0.4
224.395	0.57
224.613	0.75
224.831	0.87
225.049	0.41
225.267	0.74
225.485	0.86
225.703	0.76
225.921	0.74
226.139	0.63
226.357	0.86
226.575	0.67
226.793	0.62
227.011	1.39
227.229	0.73
227.447	0.75
227.665	0.45
227.883	0.46
228.1	0.7
228.318	0.85
228.536	0.42
228.754	0.47
228.972	0.82
229.189	0.81
229.407	0.43
229.625	0.63
229.843	0.74
230.06	0.75
230.278	0.5
230.496	0.48
230.713	0.68
230.931	0.68
231.149	0.44
231.366	0.41
231.584	0.52
231.801	1.02
232.019	0.59
232.236	0.38
232.454	0.49
232.671	0.72
232.889	0.56
233.106	0.42
233.324	0.56
233.541	0.49
233.759	0.48
233.976	0.37
234.194	0.51
234.411	0.46
234.628	0.43
234.846	0.49
235.063	0.54
235.28	0.45
235.498	0.48
235.715	0.36
235.932	0.73
236.149	0.5
236.367	0.46
236.584	0.6
236.801	0.46
237.018	0.58
237.236	0.55
237.453	0.34
237.67	0.62
237.887	0.56
238.104	0.49
238.321	0.38
238.538	0.45
238.755	0.66
238.973	0.37
239.19	0.48
239.407	0.57
239.624	0.58
239.841	0.41
240.058	0.44
240.275	0.52
240.492	0.38
240.709	0.42
240.925	0.44
241.142	0.51
241.359	0.33
241.576	0.34
241.793	0.47
242.01	0.44
242.227	0.6
242.444	0.58
242.66	0.68
242.877	0.5
243.094	0.48
243.311	0.49
243.527	0.44
243.744	0.49
243.961	0.44
244.178	0.37
244.394	0.43
244.611	0.61
244.828	0.64
245.044	0.38
245.261	0.47
245.477	0.48
245.694	0.56
245.911	0.38
246.127	0.48
246.344	0.57
246.56	0.54
246.777	0.38
246.993	0.41
247.21	0.41
247.426	0.54
247.643	0.42
247.859	0.3
248.076	0.5
248.292	0.64
248.508	0.36
248.725	0.46
248.941	0.5
249.157	0.58
249.374	0.34
249.59	0.37
249.806	0.37
250.023	0.5
250.239	0.41
250.455	0.38
250.671	0.46
250.888	0.49
251.104	0.46
251.32	0.39
251.536	0.43
251.752	0.45
251.969	0.51
252.185	0.42
252.401	0.61
252.617	0.42
252.833	0.3
253.049	0.36
253.265	0.38
253.481	0.4
253.697	0.35
253.913	0.27
254.129	0.42
254.345	0.42
254.561	0.32
254.777	0.39
254.993	0.41
255.209	0.4
255.425	0.33
255.641	0.35
255.857	0.52
256.073	0.35
256.288	0.31
256.504	0.37
256.72	0.41
256.936	0.53
257.152	0.39
257.367	0.36
257.583	0.36
257.799	0.46
258.015	0.29
258.23	0.32
258.446	0.51
258.662	0.37
258.877	0.31
259.093	0.29
259.309	0.4
259.524	0.5
259.74	0.29
259.955	0.27
260.171	0.36
260.387	0.35
260.602	0.47
260.818	0.43
261.033	0.28
261.249	0.31
261.464	0.35
261.68	0.18
261.895	0.39
262.11	0.46
262.326	0.31
262.541	0.29
262.757	0.42
262.972	0.42
263.187	0.35
263.403	0.43
263.618	0.41
263.833	0.35
264.049	0.27
264.264	0.35
264.479	0.45
264.694	0.46
264.91	0.22
265.125	0.23
265.34	0.38
265.555	0.55
265.77	0.37
265.986	0.34
266.201	0.38
266.416	0.44
266.631	0.33
266.846	0.31
267.061	0.43
267.276	0.39
267.491	0.22
267.706	0.41
267.921	0.38
268.136	0.4
268.351	0.32
268.566	0.23
268.781	0.52
268.996	0.42
269.211	0.32
269.426	0.28
269.641	0.29
269.856	0.44
270.071	0.27
270.285	0.34
270.5	0.43
270.715	0.45
270.93	0.35
271.145	0.36
271.359	0.34
271.574	0.31
271.789	0.36
272.004	0.35
272.218	0.28
272.433	0.39
272.648	0.29
272.862	0.34
273.077	0.35
273.292	0.32
273.506	0.28
273.721	0.36
273.936	0.41
274.15	0.38
274.365	0.28
274.579	0.37
274.794	0.36
275.008	0.35
275.223	0.23
275.437	0.38
275.652	0.49
275.866	0.37
276.081	0.26
276.295	0.4
276.509	0.3
276.724	0.33
276.938	0.3
277.153	0.35
277.367	0.4
277.581	0.26
277.796	0.3
278.01	0.23
278.224	0.37
278.438	0.44
278.653	0.26
278.867	0.33
279.081	0.36
279.295	0.29
279.51	0.34
279.724	0.22
279.938	0.35
280.152	0.34
280.366	0.23
280.58	0.3
280.794	0.37
281.008	0.37
281.222	0.34
281.437	0.46
281.651	0.35
281.865	0.37
282.079	0.22
282.293	0.17
282.507	0.26
282.721	0.28
282.935	0.34
283.148	0.22
283.362	0.26
283.576	0.24
283.79	0.29
284.004	0.26
284.218	0.36
284.432	0.26
284.646	0.26
284.859	0.26
285.073	0.29
285.287	0.3
285.501	0.31
285.714	0.31
285.928	0.28
286.142	0.26
286.356	0.2
286.569	0.23
286.783	0.32
286.997	0.33
287.21	0.31
287.424	0.32
287.637	0.24
287.851	0.21
288.065	0.35
288.278	0.28
288.492	0.31
288.705	0.27
288.919	0.33
289.132	0.24
289.346	0.36
289.559	0.23
289.773	0.21
289.986	0.31
290.2	0.28
290.413	0.34
290.626	0.19
290.84	0.22
291.053	0.34
291.267	0.34
291.48	0.29
291.693	0.31
291.906	0.21
292.12	0.25
292.333	0.24
292.546	0.28
292.76	0.36
292.973	0.31
293.186	0.31
293.399	0.28
293.612	0.31
293.826	0.24
294.039	0.23
294.252	0.27
294.465	0.27
294.678	0.33
294.891	0.32
295.104	0.25
295.317	0.23
295.53	0.31
295.743	0.27
295.956	0.24
296.169	0.33
296.382	0.34
296.595	0.26
296.808	0.26
297.021	0.35
297.234	0.31
297.447	0.3
297.66	0.28
297.873	0.32
298.086	0.26
298.299	0.2
298.511	0.22
298.724	0.31
298.937	0.2
299.15	0.27
299.363	0.27
299.575	0.27
299.788	0.26
300.001	0.24
300.213	0.25
300.426	0.27
300.639	0.22
300.852	0.23
301.064	0.24
301.277	0.32
301.489	0.3
301.702	0.26
301.915	0.23
302.127	0.23
302.34	0.32
302.552	0.27
302.765	0.22
302.977	0.3
303.19	0.25
303.402	0.23
303.615	0.22
303.827	0.21
304.04	0.22
304.252	0.27
304.464	0.22
304.677	0.38
304.889	0.24
305.102	0.23
305.314	0.23
305.526	0.27
305.739	0.3
305.951	0.2
306.163	0.25
306.375	0.3
306.588	0.21
306.8	0.23
307.012	0.23
307.224	0.29
307.436	0.39
307.649	0.17
307.861	0.27
308.073	0.27
308.285	0.24
308.497	0.22
308.709	0.22
308.921	0.24
309.133	0.29
309.346	0.25
309.558	0.25
309.77	0.26
309.982	0.31
310.194	0.29
310.406	0.24
310.617	0.27
310.829	0.28
311.041	0.29
311.253	0.24
311.465	0.22
311.677	0.23
311.889	0.26
312.101	0.21
312.313	0.28
312.524	0.31
312.736	0.22
312.948	0.24
313.16	0.33
313.372	0.32
313.583	0.28
313.795	0.27
314.007	0.23
314.218	0.3
314.43	0.23
314.642	0.22
314.853	0.18
315.065	0.27
315.277	0.22
315.488	0.28
315.7	0.28
315.912	0.27
316.123	0.27
316.335	0.24
316.546	0.31
316.758	0.25
316.969	0.24
317.181	0.26
317.392	0.25
317.604	0.29
317.815	0.2
318.026	0.21
318.238	0.18
318.449	0.31
318.661	0.21
318.872	0.23
319.083	0.2
319.295	0.3
319.506	0.26
319.717	0.27
319.929	0.23
320.14	0.24
320.351	0.25
320.562	0.21
320.774	0.29
320.985	0.27
321.196	0.23
321.407	0.22
321.618	0.31
321.829	0.28
322.041	0.28
322.252	0.26
322.463	0.29
322.674	0.25
322.885	0.2
323.096	0.24
323.307	0.26
323.518	0.27
323.729	0.21
323.94	0.24
324.151	0.18
324.362	0.26
324.573	0.29
324.784	0.25
324.995	0.31
325.206	0.26
325.417	0.22
325.628	0.2
325.838	0.22
326.049	0.24
326.26	0.29
326.471	0.22
326.682	0.29
326.892	0.23
327.103	0.18
327.314	0.2
327.525	0.29
327.735	0.27
327.946	0.24
328.157	0.2
328.368	0.26
328.578	0.24
328.789	0.25
328.999	0.22
329.21	0.26
329.421	0.25
329.631	0.22
329.842	0.22
330.052	0.3
330.263	0.3
330.473	0.29
330.684	0.23
330.894	0.25
331.105	0.31
331.315	0.29
331.526	0.17
331.736	0.31
331.947	0.24
332.157	0.26
332.367	0.23
332.578	0.22
332.788	0.29
332.999	0.29
333.209	0.24
333.419	0.21
333.629	0.26
333.84	0.29
334.05	0.23
334.26	0.35
334.47	0.28
334.681	0.29
334.891	0.22
335.101	0.31
335.311	0.33
335.521	0.29
335.732	0.19
335.942	0.3
336.152	0.23
336.362	0.25
336.572	0.24
336.782	0.25
336.992	0.2
337.202	0.26
337.412	0.22
337.622	0.26
337.832	0.23
338.042	0.29
338.252	0.21
338.462	0.23
338.672	0.24
338.882	0.21
339.092	0.23
339.302	0.35
339.511	0.32
339.721	0.21
339.931	0.18
340.141	0.3
340.351	0.31
340.561	0.31
340.77	0.23
340.98	0.27
341.19	0.26
341.4	0.22
341.609	0.19
341.819	0.22
342.029	0.21
342.238	0.25
342.448	0.21
342.658	0.24
342.867	0.25
343.077	0.26
343.286	0.23
343.496	0.25
343.706	0.29
343.915	0.2
344.125	0.23
344.334	0.29
344.544	0.2
344.753	0.2
344.963	0.24
345.172	0.21
345.381	0.2
345.591	0.19
345.8	0.27
346.01	0.31
346.219	0.28
346.428	0.09
346.638	0.21
346.847	0.25
347.056	0.31
347.266	0.21
347.475	0.27
347.684	0.3
347.893	0.25
348.103	0.28
348.312	0.27
348.521	0.19
348.73	0.25
348.94	0.25
349.149	0.2
349.358	0.24
349.567	0.24
349.776	0.17
349.985	0.24
350.194	0.28
350.403	0.27
350.612	0.19
350.821	0.21
351.03	0.22
351.239	0.18
351.448	0.25
351.657	0.17
351.866	0.31
352.075	0.18
352.284	0.28
352.493	0.18
352.702	0.28
352.911	0.27
353.12	0.2
353.329	0.23
353.538	0.25
353.746	0.27
353.955	0.21
354.164	0.25
354.373	0.26
354.582	0.25
354.79	0.28
354.999	0.25
355.208	0.22
355.416	0.31
355.625	0.19
355.834	0.23
356.042	0.27
356.251	0.23
356.46	0.23
356.668	0.23
356.877	0.31
357.085	0.26
357.294	0.19
357.503	0.23
357.711	0.2
357.92	0.42
358.128	0.26
358.337	0.23
358.545	0.27
358.754	0.21
358.962	0.26
359.17	0.22
359.379	0.24
359.587	0.23
359.796	0.26
360.004	0.29
360.212	0.29
360.421	0.28
360.629	0.25
360.837	0.22
361.046	0.23
361.254	0.37
361.462	0.24
361.67	0.24
361.879	0.25
362.087	0.33
362.295	0.24
362.503	0.23
362.711	0.22
362.92	0.25
363.128	0.21
363.336	0.23
363.544	0.22
363.752	0.22
363.96	0.2
364.168	0.23
364.376	0.26
364.584	0.25
364.792	0.28
365	0.27
365.208	0.26
365.416	0.3
365.624	0.29
365.832	0.22
366.04	0.26
366.248	0.25
366.456	0.25
366.664	0.27
366.872	0.23
367.079	0.23
367.287	0.26
367.495	0.26
367.703	0.23
367.911	0.24
368.118	0.24
368.326	0.24
368.534	0.19
368.742	0.31
368.949	0.19
369.157	0.21
369.365	0.32
369.572	0.28
369.78	0.17
369.988	0.26
370.195	0.27
370.403	0.28
370.61	0.19
370.818	0.25
371.026	0.33
371.233	0.19
371.441	0.24
371.648	0.22
371.856	0.25
372.063	0.25
372.271	0.22
372.478	0.22
372.685	0.22
372.893	0.3
373.1	0.25
373.308	0.29
373.515	0.33
373.722	0.3
373.93	0.26
374.137	0.3
374.344	0.32
374.552	0.32
374.759	0.26
374.966	0.3
375.173	0.24
375.381	0.3
375.588	0.28
375.795	0.21
376.002	0.2
376.209	0.21
376.417	0.26
376.624	0.29
376.831	0.28
377.038	0.24
377.245	0.16
377.452	0.26
377.659	0.21
377.866	0.24
378.073	0.26
378.28	0.25
378.487	0.3
378.694	0.27
378.901	0.24
379.108	0.23
379.315	0.32
379.522	0.3
379.729	0.28
379.936	0.25
380.143	0.29
380.35	0.24
380.557	0.26
380.763	0.29
380.97	0.24
381.177	0.28
381.384	0.27
381.591	0.26
381.797	0.3
382.004	0.26
382.211	0.28
382.418	0.25
382.624	0.26
382.831	0.3
383.038	0.28
383.244	0.3
383.451	0.3
383.658	0.25
383.864	0.28
384.071	0.22
384.277	0.32
384.484	0.29
384.69	0.33
384.897	0.19
385.103	0.3
385.31	0.26
385.516	0.25
385.723	0.26
385.929	0.25
386.136	0.22
386.342	0.25
386.549	0.26
386.755	0.34
386.961	0.3
387.168	0.28
387.374	0.3
387.58	0.34
387.787	0.32
387.993	0.32
388.199	0.27
388.406	0.25
388.612	0.21
388.818	0.28
389.024	0.27
389.231	0.28
389.437	0.37
389.643	0.33
389.849	0.29
390.055	0.3
390.261	0.27
390.467	0.28
390.674	0.3
390.88	0.26
391.086	0.34
391.292	0.28
391.498	0.3
391.704	0.32
391.91	0.26
392.116	0.25
392.322	0.21
392.528	0.32
392.734	0.28
392.94	0.28
393.146	0.25
393.352	0.29
393.557	0.28
393.763	0.27
393.969	0.32
394.175	0.26
394.381	0.3
394.587	0.23
394.792	0.32
394.998	0.36
395.204	0.34
395.41	0.31
395.615	0.32
395.821	0.38
396.027	0.31
396.233	0.29
396.438	0.33
396.644	0.42
396.85	0.36
397.055	0.28
397.261	0.33
397.466	0.43
397.672	0.35
397.878	0.38
398.083	0.34
398.289	0.29
398.494	0.4
398.7	0.38
398.905	0.26
399.111	0.4
399.316	0.27
399.522	0.33
399.727	0.33
399.932	0.36
400.138	0.36
400.343	0.41
400.549	0.35
400.754	0.35
400.959	0.38
401.165	0.36
401.37	0.42
401.575	0.47
401.78	0.39
401.986	0.34
402.191	0.35
402.396	0.39
402.601	0.46
402.807	0.44
403.012	0.41
403.217	0.45
403.422	0.38
403.627	0.43
403.832	0.4
404.037	0.46
404.243	0.4
404.448	0.37
404.653	0.43
404.858	0.45
405.063	0.44
405.268	0.37
405.473	0.41
405.678	0.46
405.883	0.6
406.088	0.5
406.293	0.4
406.498	0.38
406.703	0.5
406.907	0.49
407.112	0.43
407.317	0.51
407.522	0.58
407.727	0.46
407.932	0.52
408.136	0.61
408.341	0.55
408.546	0.56
408.751	0.54
408.956	0.6
409.16	0.61
409.365	0.62
409.57	0.58
409.774	0.64
409.979	0.7
410.184	0.67
410.388	0.62
410.593	0.74
410.798	0.73
411.002	0.73
411.207	0.82
411.411	0.83
411.616	0.73
411.82	0.81
412.025	0.83
412.229	0.78
412.434	0.95
412.638	0.93
412.843	0.91
413.047	0.87
413.252	0.93
413.456	0.97
413.66	0.99
413.865	1.07
414.069	1.09
414.273	1.08
414.478	1.1
414.682	1.17
414.886	1.18
415.091	1.22
415.295	1.21
415.499	1.36
415.703	1.27
415.908	1.47
416.112	1.31
416.316	1.49
416.52	1.56
416.724	1.52
416.929	1.56
417.133	1.81
417.337	1.74
417.541	1.76
417.745	1.82
417.949	1.98
418.153	2.02
418.357	1.97
418.561	2.21
418.765	2.18
418.969	2.32
419.173	2.35
419.377	2.4
419.581	2.63
419.785	2.66
419.989	2.6
420.193	2.77
420.397	2.89
420.601	2.98
420.804	3.07
421.008	3.01
421.212	3.22
421.416	3.17
421.62	3.22
421.823	3.31
422.027	3.46
422.231	3.39
422.435	3.48
422.638	3.61
422.842	3.58
423.046	3.7
423.249	3.94
423.453	3.91
423.657	4.04
423.86	4.19
424.064	4.24
424.268	4.4
424.471	4.43
424.675	4.63
424.878	4.79
425.082	4.8
425.285	5.12
425.489	5.09
425.692	5.19
425.896	5.18
426.099	5.39
426.303	5.57
426.506	5.7
426.71	5.89
426.913	6.1
427.116	6.16
427.32	6.29
427.523	6.43
427.726	6.63
427.93	6.83
428.133	7.07
428.336	7.14
428.54	7.4
428.743	7.5
428.946	7.96
429.149	7.83
429.353	7.86
429.556	7.92
429.759	8.03
429.962	8.06
430.165	8.26
430.368	7.9
430.571	7.98
430.775	7.99
430.978	8.05
431.181	8.16
431.384	8.12
431.587	8.28
431.79	8.69
431.993	8.7
432.196	8.85
432.399	9.22
432.602	9.28
432.805	9.43
433.008	9.97
433.211	9.91
433.414	10.1
433.616	10.24
433.819	10.33
434.022	10.43
434.225	10.48
434.428	10.6
434.631	10.99
434.833	10.74
435.036	11.09
435.239	11.26
435.442	11.31
435.645	11.5
435.847	11.48
436.05	11.78
436.253	12.16
436.455	12.15
436.658	11.92
436.861	12.25
437.063	12.49
437.266	12.35
437.468	12.67
437.671	13.15
437.874	13.05
438.076	12.86
438.279	13.39
438.481	13.3
438.684	14.2
438.886	13.78
439.089	14.06
439.291	14.12
439.494	14.42
439.696	14.69
439.899	15.09
440.101	15.51
440.303	15.79
440.506	16.55
440.708	16.19
440.91	16.54
441.113	16.71
441.315	16.9
441.517	16.59
441.72	17.06
441.922	16.92
442.124	16.76
442.326	17.13
442.529	17.32
442.731	17.34
442.933	17.7
443.135	17.32
443.337	17.48
443.539	18.02
443.742	17.65
443.944	18.28
444.146	18.13
444.348	17.97
444.55	17.97
444.752	18.13
444.954	18.16
445.156	18.01
445.358	18.45
445.56	18.7
445.762	18.61
445.964	18.99
446.166	18.65
446.368	18.59
446.57	18.61
446.772	18.34
446.974	17.94
447.175	18.27
447.377	17.94
447.579	18.53
447.781	18.04
447.983	17.77
448.184	17.33
448.386	17.79
448.588	17.33
448.79	17.16
448.991	17.71
449.193	17.61
449.395	16.85
449.597	16.62
449.798	16.44
450	16
450.202	15.9
450.403	15.94
450.605	15.84
450.806	15.48
451.008	15.2
451.21	15.12
451.411	14.64
451.613	13.97
451.814	14.19
452.016	14.11
452.217	13.25
452.419	13.45
452.62	13
452.821	12.84
453.023	12.76
453.224	12.37
453.426	11.88
453.627	11.15
453.828	11.28
454.03	11.49
454.231	11.44
454.432	11.11
454.634	10.91
454.835	10.63
455.036	10.53
455.238	10.1
455.439	9.83
455.64	9.49
455.841	9.48
456.042	9.6
456.244	9.27
456.445	8.96
456.646	8.68
456.847	8.68
457.048	8.53
457.249	8.47
457.45	8.3
457.651	7.84
457.852	7.63
458.054	7.26
458.255	7.27
458.456	7.35
458.657	7.22
458.858	6.69
459.058	6.75
459.259	6.73
459.46	6.55
459.661	6.4
459.862	6.52
460.063	6.39
460.264	6.23
460.465	6.04
460.666	6.07
460.866	5.79
461.067	5.55
461.268	5.61
461.469	5.48
461.67	5.45
461.87	5.19
462.071	5.32
462.272	5.13
462.473	5.19
462.673	5.29
462.874	5.16
463.075	5.16
463.275	5.09
463.476	5.15
463.676	5.2
463.877	4.95
464.078	5.02
464.278	4.99
464.479	4.94
464.679	4.77
464.88	4.7
465.08	4.62
465.281	4.54
465.481	4.37
465.682	4.19
465.882	4.18
466.083	4.08
466.283	4.02
466.483	3.88
466.684	3.72
466.884	3.65
467.085	3.72
467.285	3.81
467.485	3.65
467.686	3.53
467.886	3.42
468.086	3.38
468.286	3.32
468.487	3.41
468.687	3.33
468.887	3.19
469.087	3.32
469.287	3.31
469.488	3.08
469.688	3.22
469.888	3.17
470.088	3.15
470.288	3
470.488	2.98
470.688	2.88
470.888	2.88
471.088	2.68
471.288	2.8
471.488	2.75
471.688	2.79
471.888	2.69
472.088	2.83
472.288	2.71
472.488	2.64
472.688	2.53
472.888	2.57
473.088	2.57
473.288	2.52
473.488	2.49
473.688	2.59
473.887	2.46
474.087	2.44
474.287	2.49
474.487	2.38
474.687	2.43
474.886	2.4
475.086	2.3
475.286	2.3
475.486	2.32
475.685	2.3
475.885	2.21
476.085	2.29
476.284	2.27
476.484	2.23
476.684	2.21
476.883	2.33
477.083	2.14
477.282	2.18
477.482	2.23
477.681	2.17
477.881	2.05
478.08	2.07
478.28	2.07
478.479	2.09
478.679	2.17
478.878	2.08
479.078	2.02
479.277	2.08
479.477	2.05
479.676	2.01
479.875	2.02
480.075	1.97
480.274	2.04
480.473	2.05
480.673	2.04
480.872	2.12
481.071	2.03
481.271	2.07
481.47	1.95
481.669	2
481.868	1.92
482.067	1.97
482.267	1.97
482.466	1.97
482.665	1.91
482.864	1.95
483.063	1.95
483.262	2
483.461	2.01
483.661	2.06
483.86	1.97
484.059	2.05
484.258	2.01
484.457	2.01
484.656	2.02
484.855	2.02
485.054	1.92
485.253	2
485.452	1.97
485.651	2.04
485.849	2.01
486.048	1.99
486.247	2.03
486.446	2.07
486.645	1.99
486.844	2.05
487.043	2.08
487.241	2.06
487.44	2.05
487.639	2.1
487.838	2.11
488.037	2.09
488.235	2.18
488.434	2.15
488.633	2.07
488.831	2.22
489.03	2.21
489.229	2.21
489.427	2.19
489.626	2.25
489.825	2.24
490.023	2.28
490.222	2.25
490.42	2.28
490.619	2.35
490.817	2.35
491.016	2.33
491.214	2.4
491.413	2.37
491.611	2.34
491.81	2.36
492.008	2.42
492.207	2.48
492.405	2.53
492.604	2.47
492.802	2.53
493	2.57
493.199	2.59
493.397	2.64
493.595	2.65
493.794	2.64
493.992	2.73
494.19	2.73
494.388	2.81
494.587	2.72
494.785	2.76
494.983	2.74
495.181	2.85
495.379	2.88
495.578	2.96
495.776	2.89
495.974	2.91
496.172	2.98
496.37	3.05
496.568	3.1
496.766	3.06
496.964	3.19
497.162	3.14
497.36	3.18
497.558	3.24
497.756	3.29
497.954	3.31
498.152	3.33
498.35	3.42
498.548	3.37
498.746	3.37
498.944	3.36
499.142	3.44
499.34	3.51
499.538	3.64
499.736	3.54
499.933	3.61
500.131	3.61
500.329	3.78
500.527	3.75
500.725	3.85
500.922	3.84
501.12	3.84
501.318	3.91
501.516	3.89
501.713	3.98
501.911	3.99
502.109	3.99
502.306	4.09
502.504	4.01
502.701	4.08
