Data from Apollo_Calib_20240827__AbsoluteIrradiance__11__23-20-02-650.txt Node

Date: Tue Aug 27 23:20:02 BST 2024
User: biology
Spectrometer: FLMT08252
Trigger mode: 0
Integration Time (sec): 5.000000E-1
Scans to average: 5
Electric dark correction enabled: true
Nonlinearity correction enabled: false
Boxcar width: 0
XAxis mode: Wavelengths
Number of Pixels in Spectrum: 3648
>>>>>Begin Spectral Data<<<<<
179.588	-0
179.809	-0
180.03	-0
180.251	-0
180.473	-0
180.694	0
180.915	0
181.136	-0
181.357	-0
181.578	0
181.799	-0
182.02	-0
182.241	0
182.462	-0
182.683	0
182.904	-0
183.125	-0
183.346	0
183.567	0
183.788	0
184.009	0
184.23	0
184.451	0
184.672	0
184.892	0
185.113	0
185.334	0
185.555	0
185.776	0
185.996	0
186.217	0
186.438	0
186.659	0
186.879	0
187.1	0
187.321	0
187.541	0
187.762	0
187.983	0
188.203	0
188.424	0
188.644	0
188.865	0
189.086	0
189.306	0
189.527	0
189.747	0
189.968	0
190.188	0
190.409	0
190.629	0
190.849	0
191.07	0
191.29	0
191.511	0
191.731	0
191.951	0
192.172	0
192.392	0
192.612	0
192.833	0
193.053	0
193.273	0
193.493	0
193.714	0
193.934	0
194.154	0
194.374	0
194.594	0
194.815	0
195.035	0
195.255	0
195.475	0
195.695	0
195.915	0
196.135	0
196.355	0
196.575	0
196.795	0
197.015	0
197.235	0
197.455	0
197.675	0
197.895	0
198.115	0
198.335	0
198.555	0
198.775	0
198.995	0
199.214	0
199.434	0
199.654	0
199.874	0
200.094	3.37
200.313	2.34
200.533	3.01
200.753	2.02
200.973	3.32
201.192	2.85
201.412	1.8
201.632	2.38
201.851	3.23
202.071	1.98
202.291	2.03
202.51	2.19
202.73	2.76
202.95	2.17
203.169	1.73
203.389	2.19
203.608	2.22
203.828	1.27
204.047	2.18
204.267	2.57
204.486	2.08
204.706	2.03
204.925	1.91
205.145	1.81
205.364	2.19
205.583	2.62
205.803	1.94
206.022	1.52
206.242	1.43
206.461	1.29
206.68	1.31
206.9	1.74
207.119	1.86
207.338	2.15
207.557	1.1
207.777	1.58
207.996	1.42
208.215	1.78
208.434	1.35
208.654	1.3
208.873	1.71
209.092	2.03
209.311	1.32
209.53	1.3
209.749	1.36
209.968	0.94
210.187	1.34
210.407	0.88
210.626	1.27
210.845	1.54
211.064	1.2
211.283	0.91
211.502	1.45
211.721	1.37
211.94	1.02
212.159	1.32
212.377	1.33
212.596	1.42
212.815	1.16
213.034	1.39
213.253	1.52
213.472	1.29
213.691	1.14
213.91	1.06
214.128	1
214.347	1.33
214.566	0.83
214.785	0.78
215.003	1.2
215.222	1.21
215.441	1.1
215.66	0.72
215.878	1.1
216.097	1.06
216.316	0.61
216.534	1.09
216.753	0.88
216.972	0.91
217.19	0.99
217.409	0.67
217.627	0.88
217.846	0.8
218.064	0.85
218.283	0.7
218.501	1.32
218.72	1.11
218.938	0.81
219.157	0.99
219.375	1.18
219.594	0.84
219.812	0.57
220.031	0.77
220.249	1.06
220.467	0.98
220.686	0.77
220.904	0.73
221.122	0.7
221.341	1.13
221.559	0.86
221.777	0.65
221.995	0.75
222.214	0.98
222.432	0.67
222.65	0.9
222.868	0.97
223.086	0.99
223.305	0.88
223.523	0.8
223.741	0.94
223.959	0.7
224.177	0.5
224.395	0.61
224.613	0.71
224.831	0.92
225.049	0.6
225.267	0.73
225.485	0.76
225.703	0.57
225.921	0.68
226.139	0.63
226.357	0.83
226.575	0.83
226.793	0.53
227.011	1.21
227.229	0.71
227.447	0.88
227.665	0.59
227.883	0.51
228.1	0.69
228.318	0.69
228.536	0.48
228.754	0.5
228.972	0.8
229.189	0.89
229.407	0.65
229.625	0.59
229.843	0.78
230.06	0.67
230.278	0.6
230.496	0.6
230.713	0.74
230.931	0.7
231.149	0.57
231.366	0.46
231.584	0.55
231.801	0.89
232.019	0.57
232.236	0.56
232.454	0.49
232.671	0.65
232.889	0.58
233.106	0.54
233.324	0.56
233.541	0.54
233.759	0.7
233.976	0.46
234.194	0.57
234.411	0.57
234.628	0.49
234.846	0.48
235.063	0.59
235.28	0.52
235.498	0.57
235.715	0.56
235.932	0.59
236.149	0.64
236.367	0.41
236.584	0.55
236.801	0.53
237.018	0.54
237.236	0.56
237.453	0.39
237.67	0.63
237.887	0.5
238.104	0.44
238.321	0.39
238.538	0.46
238.755	0.5
238.973	0.47
239.19	0.54
239.407	0.56
239.624	0.6
239.841	0.42
240.058	0.51
240.275	0.63
240.492	0.44
240.709	0.55
240.925	0.47
241.142	0.57
241.359	0.43
241.576	0.42
241.793	0.42
242.01	0.52
242.227	0.56
242.444	0.62
242.66	0.56
242.877	0.52
243.094	0.47
243.311	0.51
243.527	0.46
243.744	0.55
243.961	0.54
244.178	0.45
244.394	0.47
244.611	0.66
244.828	0.55
245.044	0.4
245.261	0.47
245.477	0.55
245.694	0.5
245.911	0.46
246.127	0.47
246.344	0.6
246.56	0.51
246.777	0.39
246.993	0.45
247.21	0.49
247.426	0.55
247.643	0.42
247.859	0.41
248.076	0.47
248.292	0.58
248.508	0.44
248.725	0.47
248.941	0.46
249.157	0.49
249.374	0.39
249.59	0.4
249.806	0.42
250.023	0.52
250.239	0.33
250.455	0.38
250.671	0.46
250.888	0.44
251.104	0.46
251.32	0.34
251.536	0.38
251.752	0.41
251.969	0.46
252.185	0.42
252.401	0.51
252.617	0.27
252.833	0.45
253.049	0.42
253.265	0.39
253.481	0.41
253.697	0.42
253.913	0.43
254.129	0.36
254.345	0.39
254.561	0.4
254.777	0.43
254.993	0.56
255.209	0.49
255.425	0.39
255.641	0.39
255.857	0.51
256.073	0.39
256.288	0.34
256.504	0.36
256.72	0.36
256.936	0.52
257.152	0.37
257.367	0.38
257.583	0.42
257.799	0.5
258.015	0.33
258.23	0.36
258.446	0.5
258.662	0.39
258.877	0.36
259.093	0.36
259.309	0.38
259.524	0.48
259.74	0.4
259.955	0.24
260.171	0.38
260.387	0.37
260.602	0.47
260.818	0.45
261.033	0.27
261.249	0.38
261.464	0.37
261.68	0.29
261.895	0.43
262.11	0.44
262.326	0.35
262.541	0.29
262.757	0.42
262.972	0.47
263.187	0.4
263.403	0.4
263.618	0.48
263.833	0.37
264.049	0.33
264.264	0.39
264.479	0.4
264.694	0.52
264.91	0.3
265.125	0.35
265.34	0.4
265.555	0.51
265.77	0.44
265.986	0.38
266.201	0.42
266.416	0.49
266.631	0.34
266.846	0.37
267.061	0.43
267.276	0.37
267.491	0.22
267.706	0.39
267.921	0.37
268.136	0.39
268.351	0.35
268.566	0.28
268.781	0.45
268.996	0.41
269.211	0.35
269.426	0.28
269.641	0.31
269.856	0.39
270.071	0.29
270.285	0.35
270.5	0.4
270.715	0.37
270.93	0.33
271.145	0.39
271.359	0.36
271.574	0.34
271.789	0.37
272.004	0.37
272.218	0.29
272.433	0.42
272.648	0.34
272.862	0.41
273.077	0.31
273.292	0.36
273.506	0.28
273.721	0.24
273.936	0.41
274.15	0.41
274.365	0.39
274.579	0.38
274.794	0.35
275.008	0.43
275.223	0.26
275.437	0.34
275.652	0.46
275.866	0.38
276.081	0.32
276.295	0.44
276.509	0.33
276.724	0.32
276.938	0.39
277.153	0.37
277.367	0.38
277.581	0.3
277.796	0.27
278.01	0.29
278.224	0.4
278.438	0.38
278.653	0.25
278.867	0.29
279.081	0.2
279.295	0.29
279.51	0.33
279.724	0.26
279.938	0.4
280.152	0.36
280.366	0.27
280.58	0.34
280.794	0.39
281.008	0.32
281.222	0.38
281.437	0.43
281.651	0.3
281.865	0.36
282.079	0.33
282.293	0.27
282.507	0.29
282.721	0.29
282.935	0.32
283.148	0.21
283.362	0.3
283.576	0.23
283.79	0.31
284.004	0.32
284.218	0.33
284.432	0.22
284.646	0.28
284.859	0.33
285.073	0.33
285.287	0.32
285.501	0.3
285.714	0.28
285.928	0.35
286.142	0.31
286.356	0.25
286.569	0.3
286.783	0.36
286.997	0.35
287.21	0.35
287.424	0.35
287.637	0.25
287.851	0.3
288.065	0.33
288.278	0.29
288.492	0.31
288.705	0.32
288.919	0.37
289.132	0.28
289.346	0.38
289.559	0.26
289.773	0.24
289.986	0.31
290.2	0.31
290.413	0.3
290.626	0.26
290.84	0.25
291.053	0.29
291.267	0.34
291.48	0.28
291.693	0.29
291.906	0.26
292.12	0.24
292.333	0.28
292.546	0.29
292.76	0.34
292.973	0.34
293.186	0.32
293.399	0.23
293.612	0.32
293.826	0.3
294.039	0.32
294.252	0.32
294.465	0.28
294.678	0.33
294.891	0.33
295.104	0.22
295.317	0.3
295.53	0.29
295.743	0.25
295.956	0.28
296.169	0.34
296.382	0.34
296.595	0.31
296.808	0.26
297.021	0.28
297.234	0.29
297.447	0.29
297.66	0.28
297.873	0.33
298.086	0.31
298.299	0.26
298.511	0.21
298.724	0.27
298.937	0.24
299.15	0.27
299.363	0.26
299.575	0.29
299.788	0.29
300.001	0.24
300.213	0.25
300.426	0.24
300.639	0.23
300.852	0.21
301.064	0.32
301.277	0.33
301.489	0.29
301.702	0.38
301.915	0.27
302.127	0.22
302.34	0.26
302.552	0.3
302.765	0.24
302.977	0.33
303.19	0.21
303.402	0.24
303.615	0.25
303.827	0.28
304.04	0.25
304.252	0.31
304.464	0.23
304.677	0.32
304.889	0.29
305.102	0.24
305.314	0.28
305.526	0.3
305.739	0.25
305.951	0.22
306.163	0.26
306.375	0.29
306.588	0.23
306.8	0.28
307.012	0.21
307.224	0.25
307.436	0.35
307.649	0.2
307.861	0.25
308.073	0.31
308.285	0.26
308.497	0.23
308.709	0.24
308.921	0.3
309.133	0.31
309.346	0.22
309.558	0.29
309.77	0.28
309.982	0.3
310.194	0.28
310.406	0.21
310.617	0.33
310.829	0.3
311.041	0.29
311.253	0.26
311.465	0.26
311.677	0.28
311.889	0.28
312.101	0.22
312.313	0.25
312.524	0.33
312.736	0.23
312.948	0.31
313.16	0.32
313.372	0.3
313.583	0.31
313.795	0.25
314.007	0.25
314.218	0.3
314.43	0.25
314.642	0.25
314.853	0.23
315.065	0.23
315.277	0.26
315.488	0.27
315.7	0.33
315.912	0.3
316.123	0.23
316.335	0.25
316.546	0.32
316.758	0.25
316.969	0.26
317.181	0.29
317.392	0.26
317.604	0.27
317.815	0.22
318.026	0.19
318.238	0.26
318.449	0.27
318.661	0.24
318.872	0.21
319.083	0.23
319.295	0.33
319.506	0.28
319.717	0.26
319.929	0.28
320.14	0.25
320.351	0.24
320.562	0.22
320.774	0.26
320.985	0.27
321.196	0.22
321.407	0.23
321.618	0.3
321.829	0.29
322.041	0.28
322.252	0.27
322.463	0.26
322.674	0.25
322.885	0.25
323.096	0.25
323.307	0.23
323.518	0.29
323.729	0.24
323.94	0.27
324.151	0.25
324.362	0.25
324.573	0.28
324.784	0.24
324.995	0.26
325.206	0.27
325.417	0.24
325.628	0.29
325.838	0.26
326.049	0.28
326.26	0.27
326.471	0.29
326.682	0.28
326.892	0.24
327.103	0.22
327.314	0.22
327.525	0.36
327.735	0.23
327.946	0.24
328.157	0.27
328.368	0.29
328.578	0.23
328.789	0.32
328.999	0.28
329.21	0.24
329.421	0.29
329.631	0.21
329.842	0.22
330.052	0.3
330.263	0.29
330.473	0.3
330.684	0.24
330.894	0.28
331.105	0.24
331.315	0.29
331.526	0.23
331.736	0.3
331.947	0.26
332.157	0.31
332.367	0.23
332.578	0.28
332.788	0.28
332.999	0.3
333.209	0.22
333.419	0.24
333.629	0.26
333.84	0.33
334.05	0.27
334.26	0.35
334.47	0.29
334.681	0.32
334.891	0.21
335.101	0.28
335.311	0.33
335.521	0.21
335.732	0.21
335.942	0.34
336.152	0.29
336.362	0.24
336.572	0.31
336.782	0.26
336.992	0.23
337.202	0.28
337.412	0.2
337.622	0.24
337.832	0.26
338.042	0.31
338.252	0.22
338.462	0.25
338.672	0.3
338.882	0.24
339.092	0.27
339.302	0.35
339.511	0.29
339.721	0.23
339.931	0.22
340.141	0.26
340.351	0.29
340.561	0.3
340.77	0.27
340.98	0.27
341.19	0.29
341.4	0.2
341.609	0.21
341.819	0.23
342.029	0.25
342.238	0.3
342.448	0.2
342.658	0.25
342.867	0.27
343.077	0.22
343.286	0.27
343.496	0.24
343.706	0.33
343.915	0.25
344.125	0.24
344.334	0.27
344.544	0.25
344.753	0.25
344.963	0.22
345.172	0.21
345.381	0.24
345.591	0.22
345.8	0.23
346.01	0.27
346.219	0.29
346.428	0.14
346.638	0.25
346.847	0.24
347.056	0.33
347.266	0.22
347.475	0.31
347.684	0.26
347.893	0.27
348.103	0.28
348.312	0.25
348.521	0.25
348.73	0.25
348.94	0.26
349.149	0.24
349.358	0.27
349.567	0.22
349.776	0.23
349.985	0.26
350.194	0.28
350.403	0.27
350.612	0.19
350.821	0.24
351.03	0.23
351.239	0.22
351.448	0.27
351.657	0.24
351.866	0.33
352.075	0.18
352.284	0.3
352.493	0.22
352.702	0.28
352.911	0.25
353.12	0.3
353.329	0.21
353.538	0.26
353.746	0.25
353.955	0.25
354.164	0.28
354.373	0.27
354.582	0.27
354.79	0.3
354.999	0.26
355.208	0.2
355.416	0.32
355.625	0.23
355.834	0.21
356.042	0.31
356.251	0.27
356.46	0.22
356.668	0.27
356.877	0.33
357.085	0.29
357.294	0.22
357.503	0.25
357.711	0.23
357.92	0.38
358.128	0.24
358.337	0.24
358.545	0.31
358.754	0.27
358.962	0.27
359.17	0.24
359.379	0.27
359.587	0.26
359.796	0.24
360.004	0.33
360.212	0.28
360.421	0.25
360.629	0.26
360.837	0.23
361.046	0.31
361.254	0.31
361.462	0.23
361.67	0.26
361.879	0.26
362.087	0.3
362.295	0.23
362.503	0.19
362.711	0.22
362.92	0.23
363.128	0.23
363.336	0.22
363.544	0.19
363.752	0.25
363.96	0.26
364.168	0.21
364.376	0.23
364.584	0.24
364.792	0.26
365	0.29
365.208	0.27
365.416	0.27
365.624	0.28
365.832	0.2
366.04	0.27
366.248	0.24
366.456	0.23
366.664	0.24
366.872	0.27
367.079	0.25
367.287	0.24
367.495	0.23
367.703	0.23
367.911	0.23
368.118	0.27
368.326	0.24
368.534	0.18
368.742	0.3
368.949	0.21
369.157	0.23
369.365	0.31
369.572	0.22
369.78	0.2
369.988	0.31
370.195	0.28
370.403	0.27
370.61	0.22
370.818	0.22
371.026	0.33
371.233	0.23
371.441	0.3
371.648	0.24
371.856	0.26
372.063	0.23
372.271	0.25
372.478	0.21
372.685	0.23
372.893	0.32
373.1	0.21
373.308	0.29
373.515	0.35
373.722	0.29
373.93	0.27
374.137	0.31
374.344	0.35
374.552	0.28
374.759	0.29
374.966	0.3
375.173	0.25
375.381	0.29
375.588	0.25
375.795	0.19
376.002	0.23
376.209	0.25
376.417	0.28
376.624	0.31
376.831	0.28
377.038	0.21
377.245	0.18
377.452	0.24
377.659	0.3
377.866	0.26
378.073	0.26
378.28	0.3
378.487	0.27
378.694	0.28
378.901	0.25
379.108	0.23
379.315	0.3
379.522	0.31
379.729	0.32
379.936	0.27
380.143	0.31
380.35	0.27
380.557	0.26
380.763	0.3
380.97	0.26
381.177	0.27
381.384	0.29
381.591	0.26
381.797	0.27
382.004	0.3
382.211	0.35
382.418	0.27
382.624	0.3
382.831	0.31
383.038	0.29
383.244	0.28
383.451	0.27
383.658	0.34
383.864	0.26
384.071	0.26
384.277	0.31
384.484	0.24
384.69	0.31
384.897	0.3
385.103	0.27
385.31	0.29
385.516	0.29
385.723	0.27
385.929	0.29
386.136	0.26
386.342	0.32
386.549	0.26
386.755	0.33
386.961	0.31
387.168	0.29
387.374	0.27
387.58	0.32
387.787	0.3
387.993	0.27
388.199	0.32
388.406	0.27
388.612	0.28
388.818	0.28
389.024	0.28
389.231	0.28
389.437	0.33
389.643	0.34
389.849	0.26
390.055	0.3
390.261	0.33
390.467	0.31
390.674	0.28
390.88	0.26
391.086	0.3
391.292	0.24
391.498	0.34
391.704	0.3
391.91	0.31
392.116	0.3
392.322	0.25
392.528	0.37
392.734	0.29
392.94	0.32
393.146	0.27
393.352	0.3
393.557	0.29
393.763	0.31
393.969	0.37
394.175	0.31
394.381	0.31
394.587	0.24
394.792	0.25
394.998	0.36
395.204	0.32
395.41	0.26
395.615	0.37
395.821	0.34
396.027	0.34
396.233	0.3
396.438	0.34
396.644	0.44
396.85	0.35
397.055	0.33
397.261	0.33
397.466	0.44
397.672	0.4
397.878	0.35
398.083	0.4
398.289	0.33
398.494	0.38
398.7	0.34
398.905	0.27
399.111	0.41
399.316	0.32
399.522	0.36
399.727	0.36
399.932	0.34
400.138	0.34
400.343	0.39
400.549	0.35
400.754	0.35
400.959	0.4
401.165	0.37
401.37	0.41
401.575	0.49
401.78	0.38
401.986	0.34
402.191	0.37
402.396	0.41
402.601	0.39
402.807	0.4
403.012	0.37
403.217	0.45
403.422	0.37
403.627	0.44
403.832	0.41
404.037	0.4
404.243	0.45
404.448	0.4
404.653	0.41
404.858	0.45
405.063	0.44
405.268	0.39
405.473	0.37
405.678	0.4
405.883	0.58
406.088	0.48
406.293	0.38
406.498	0.41
406.703	0.45
406.907	0.51
407.112	0.46
407.317	0.49
407.522	0.56
407.727	0.45
407.932	0.56
408.136	0.6
408.341	0.57
408.546	0.52
408.751	0.59
408.956	0.6
409.16	0.61
409.365	0.62
409.57	0.65
409.774	0.64
409.979	0.73
410.184	0.67
410.388	0.61
410.593	0.74
410.798	0.74
411.002	0.72
411.207	0.81
411.411	0.8
411.616	0.72
411.82	0.8
412.025	0.82
412.229	0.84
412.434	0.91
412.638	0.87
412.843	0.9
413.047	1
413.252	0.93
413.456	1.05
413.66	1.04
413.865	1.05
414.069	1.13
414.273	1.08
414.478	1.1
414.682	1.2
414.886	1.25
415.091	1.2
415.295	1.19
415.499	1.34
415.703	1.32
415.908	1.4
416.112	1.37
416.316	1.5
416.52	1.51
416.724	1.59
416.929	1.58
417.133	1.76
417.337	1.69
417.541	1.77
417.745	1.81
417.949	1.95
418.153	2.01
418.357	1.97
418.561	2.2
418.765	2.19
418.969	2.25
419.173	2.37
419.377	2.35
419.581	2.58
419.785	2.56
419.989	2.57
420.193	2.71
420.397	2.87
420.601	2.9
420.804	3.02
421.008	3
421.212	3.16
421.416	3.18
421.62	3.22
421.823	3.32
422.027	3.43
422.231	3.4
422.435	3.48
422.638	3.49
422.842	3.64
423.046	3.69
423.249	3.81
423.453	3.88
423.657	3.98
423.86	4.11
424.064	4.27
424.268	4.36
424.471	4.44
424.675	4.66
424.878	4.66
425.082	4.86
425.285	5.13
425.489	5.01
425.692	5.21
425.896	5.15
426.099	5.38
426.303	5.51
426.506	5.77
426.71	5.92
426.913	5.95
427.116	6.16
427.32	6.21
427.523	6.34
427.726	6.63
427.93	6.69
428.133	7.04
428.336	7.16
428.54	7.32
428.743	7.46
428.946	7.78
429.149	7.79
429.353	7.82
429.556	7.95
429.759	7.91
429.962	8.07
430.165	8.26
430.368	7.98
430.571	7.97
430.775	8.01
430.978	7.99
431.181	8.03
431.384	8.2
431.587	8.3
431.79	8.66
431.993	8.57
432.196	8.85
432.399	9.28
432.602	9.43
432.805	9.38
433.008	9.93
433.211	9.86
433.414	10.13
433.616	10.2
433.819	10.16
434.022	10.37
434.225	10.49
434.428	10.54
434.631	11.03
434.833	10.67
435.036	11.01
435.239	11.25
435.442	11.41
435.645	11.54
435.847	11.42
436.05	11.83
436.253	12.14
436.455	12.11
436.658	11.98
436.861	12.27
437.063	12.41
437.266	12.41
437.468	12.77
437.671	13.04
437.874	13.05
438.076	12.92
438.279	13.37
438.481	13.35
438.684	14.16
438.886	13.71
439.089	14.21
439.291	14.1
439.494	14.44
439.696	14.65
439.899	15.09
440.101	15.62
440.303	15.75
440.506	16.54
440.708	16.28
440.91	16.31
441.113	16.64
441.315	16.84
441.517	16.74
441.72	17.05
441.922	16.88
442.124	16.71
442.326	17.07
442.529	17.29
442.731	17.39
442.933	17.64
443.135	17.41
443.337	17.39
443.539	18
443.742	17.56
443.944	18.27
444.146	17.92
444.348	18.07
444.55	17.85
444.752	18.14
444.954	17.93
445.156	17.91
445.358	18.54
445.56	18.73
445.762	18.47
445.964	18.86
446.166	18.54
446.368	18.6
446.57	18.43
446.772	18.12
446.974	17.97
447.175	18.33
447.377	17.91
447.579	18.51
447.781	18
447.983	17.74
448.184	17.48
448.386	17.73
448.588	17.28
448.79	17.28
448.991	17.62
449.193	17.73
449.395	17
449.597	16.62
449.798	16.59
450	16.11
450.202	16
450.403	16.03
450.605	15.81
450.806	15.5
451.008	15.39
451.21	15.19
451.411	14.79
451.613	13.95
451.814	14.24
452.016	14.21
452.217	13.43
452.419	13.43
452.62	13.17
452.821	12.88
453.023	12.76
453.224	12.37
453.426	11.98
453.627	11.25
453.828	11.36
454.03	11.53
454.231	11.43
454.432	11.21
454.634	11.06
454.835	10.71
455.036	10.65
455.238	10.09
455.439	9.93
455.64	9.76
455.841	9.55
456.042	9.63
456.244	9.32
456.445	9.12
456.646	8.83
456.847	8.74
457.048	8.62
457.249	8.61
457.45	8.26
457.651	7.87
457.852	7.65
458.054	7.34
458.255	7.32
458.456	7.47
458.657	7.26
458.858	6.84
459.058	6.81
459.259	6.7
459.46	6.56
459.661	6.46
459.862	6.53
460.063	6.46
460.264	6.29
460.465	6.09
460.666	6.17
460.866	5.8
461.067	5.57
461.268	5.64
461.469	5.59
461.67	5.46
461.87	5.31
462.071	5.31
462.272	5.21
462.473	5.19
462.673	5.33
462.874	5.26
463.075	5.2
463.275	5.21
463.476	5.21
463.676	5.18
463.877	5
464.078	5
464.278	5.04
464.479	4.84
464.679	4.89
464.88	4.78
465.08	4.73
465.281	4.61
465.481	4.34
465.682	4.2
465.882	4.23
466.083	4.13
466.283	4.1
466.483	3.93
466.684	3.78
466.884	3.67
467.085	3.77
467.285	3.79
467.485	3.68
467.686	3.55
467.886	3.47
468.086	3.46
468.286	3.39
468.487	3.52
468.687	3.32
468.887	3.26
469.087	3.39
469.287	3.33
469.488	3.13
469.688	3.15
469.888	3.17
470.088	3.12
470.288	3.05
470.488	3.04
470.688	2.91
470.888	2.86
471.088	2.77
471.288	2.84
471.488	2.81
471.688	2.77
471.888	2.74
472.088	2.83
472.288	2.7
472.488	2.63
472.688	2.62
472.888	2.62
473.088	2.59
473.288	2.61
473.488	2.51
473.688	2.63
473.887	2.48
474.087	2.5
474.287	2.55
474.487	2.42
474.687	2.46
474.886	2.38
475.086	2.32
475.286	2.36
475.486	2.27
475.685	2.27
475.885	2.25
476.085	2.28
476.284	2.25
476.484	2.24
476.684	2.26
476.883	2.28
477.083	2.2
477.282	2.2
477.482	2.2
477.681	2.21
477.881	2.06
478.08	2.1
478.28	2.1
478.479	2.12
478.679	2.15
478.878	2.07
479.078	2.01
479.277	2.11
479.477	2.05
479.676	2.08
479.875	2.07
480.075	2
480.274	2.02
480.473	2.06
480.673	2.05
480.872	2.13
481.071	2.08
481.271	2.05
481.47	2.03
481.669	2.06
481.868	1.96
482.067	2.03
482.267	1.93
482.466	1.97
482.665	1.92
482.864	1.98
483.063	1.95
483.262	2
483.461	2.02
483.661	2.1
483.86	2.01
484.059	2.05
484.258	2.02
484.457	2.03
484.656	2.06
484.855	2.07
485.054	1.95
485.253	2
485.452	1.97
485.651	2.09
485.849	2.08
486.048	2.05
486.247	1.99
486.446	2.02
486.645	2.02
486.844	2.09
487.043	2.07
487.241	2.12
487.44	2.07
487.639	2.17
487.838	2.11
488.037	2.14
488.235	2.18
488.434	2.2
488.633	2.04
488.831	2.22
489.03	2.23
489.229	2.21
489.427	2.21
489.626	2.26
489.825	2.25
490.023	2.3
490.222	2.25
490.42	2.29
490.619	2.38
490.817	2.35
491.016	2.31
491.214	2.43
491.413	2.46
491.611	2.37
491.81	2.42
492.008	2.43
492.207	2.5
492.405	2.51
492.604	2.48
492.802	2.56
493	2.57
493.199	2.6
493.397	2.69
493.595	2.68
493.794	2.61
493.992	2.72
494.19	2.76
494.388	2.79
494.587	2.69
494.785	2.78
494.983	2.73
495.181	2.87
495.379	2.89
495.578	3.01
495.776	2.97
495.974	2.92
496.172	2.95
496.37	3.1
496.568	3.1
496.766	3.09
496.964	3.14
497.162	3.14
497.36	3.19
497.558	3.2
497.756	3.33
497.954	3.28
498.152	3.33
498.35	3.47
498.548	3.33
498.746	3.42
498.944	3.4
499.142	3.44
499.34	3.54
499.538	3.63
499.736	3.53
499.933	3.56
500.131	3.64
500.329	3.77
500.527	3.78
500.725	3.84
500.922	3.88
501.12	3.84
501.318	3.95
501.516	3.95
501.713	3.99
501.911	4.01
502.109	3.96
502.306	4.08
502.504	4.03
502.701	4.13
502.899	4.16
503.097	4.32
