Data from Apollo_Calib_20240827__AbsoluteIrradiance__34__23-43-01-795.txt Node

Date: Tue Aug 27 23:43:01 BST 2024
User: biology
Spectrometer: FLMT08252
Trigger mode: 0
Integration Time (sec): 5.000000E-1
Scans to average: 5
Electric dark correction enabled: true
Nonlinearity correction enabled: false
Boxcar width: 0
XAxis mode: Wavelengths
Number of Pixels in Spectrum: 3648
>>>>>Begin Spectral Data<<<<<
179.588	-0
179.809	-0
180.03	-0
180.251	-0
180.473	-0
180.694	0
180.915	0
181.136	-0
181.357	0
181.578	-0
181.799	-0
182.02	-0
182.241	0
182.462	-0
182.683	0
182.904	0
183.125	-0
183.346	0
183.567	0
183.788	0
184.009	0
184.23	0
184.451	0
184.672	0
184.892	0
185.113	0
185.334	0
185.555	0
185.776	0
185.996	0
186.217	0
186.438	0
186.659	0
186.879	0
187.1	0
187.321	0
187.541	0
187.762	0
187.983	0
188.203	0
188.424	0
188.644	0
188.865	0
189.086	0
189.306	0
189.527	0
189.747	0
189.968	0
190.188	0
190.409	0
190.629	0
190.849	0
191.07	0
191.29	0
191.511	0
191.731	0
191.951	0
192.172	0
192.392	0
192.612	0
192.833	0
193.053	0
193.273	0
193.493	0
193.714	0
193.934	0
194.154	0
194.374	0
194.594	0
194.815	0
195.035	0
195.255	0
195.475	0
195.695	0
195.915	0
196.135	0
196.355	0
196.575	0
196.795	0
197.015	0
197.235	0
197.455	0
197.675	0
197.895	0
198.115	0
198.335	0
198.555	0
198.775	0
198.995	0
199.214	0
199.434	0
199.654	0
199.874	0
200.094	3.64
200.313	2.69
200.533	1.96
200.753	1.78
200.973	3.41
201.192	3.07
201.412	1.18
201.632	1.9
201.851	2.92
202.071	1.89
202.291	1.66
202.51	2.06
202.73	2.02
202.95	1.79
203.169	1.47
203.389	2.11
203.608	2.48
203.828	1.23
204.047	1.35
204.267	1.72
204.486	1.82
204.706	2.25
204.925	1.6
205.145	1.86
205.364	2.22
205.583	2.33
205.803	1.36
206.022	1.27
206.242	1.57
206.461	1.48
206.68	1.44
206.9	1.58
207.119	2.13
207.338	2.22
207.557	1.15
207.777	1.22
207.996	1.34
208.215	1.96
208.434	1.02
208.654	0.87
208.873	1.34
209.092	1.79
209.311	1.45
209.53	1.2
209.749	1.43
209.968	1.37
210.187	0.85
210.407	0.94
210.626	1.1
210.845	1.51
211.064	1.3
211.283	0.75
211.502	1.25
211.721	1.13
211.94	1.24
212.159	1.22
212.377	1.25
212.596	1.58
212.815	1.15
213.034	1.28
213.253	1.07
213.472	1.34
213.691	0.73
213.91	0.76
214.128	0.76
214.347	1.43
214.566	0.6
214.785	0.59
215.003	1.2
215.222	1.03
215.441	1
215.66	0.73
215.878	1.14
216.097	1.05
216.316	0.66
216.534	0.8
216.753	0.88
216.972	0.85
217.19	0.74
217.409	0.75
217.627	0.75
217.846	0.81
218.064	1
218.283	0.68
218.501	1.21
218.72	0.86
218.938	0.44
219.157	0.74
219.375	1.26
219.594	0.88
219.812	0.62
220.031	0.53
220.249	1.14
220.467	1.22
220.686	0.74
220.904	0.71
221.122	0.58
221.341	1.03
221.559	0.82
221.777	0.64
221.995	0.85
222.214	1.03
222.432	0.67
222.65	0.77
222.868	0.81
223.086	0.89
223.305	0.88
223.523	0.63
223.741	0.97
223.959	0.56
224.177	0.39
224.395	0.57
224.613	0.82
224.831	0.83
225.049	0.48
225.267	0.58
225.485	0.67
225.703	0.53
225.921	0.58
226.139	0.64
226.357	0.86
226.575	0.79
226.793	0.54
227.011	1.37
227.229	0.66
227.447	0.82
227.665	0.6
227.883	0.39
228.1	0.59
228.318	0.6
228.536	0.32
228.754	0.43
228.972	0.67
229.189	0.85
229.407	0.63
229.625	0.5
229.843	0.86
230.06	0.78
230.278	0.35
230.496	0.61
230.713	0.75
230.931	0.76
231.149	0.49
231.366	0.33
231.584	0.49
231.801	0.96
232.019	0.58
232.236	0.49
232.454	0.39
232.671	0.56
232.889	0.54
233.106	0.39
233.324	0.62
233.541	0.57
233.759	0.6
233.976	0.45
234.194	0.55
234.411	0.57
234.628	0.54
234.846	0.5
235.063	0.49
235.28	0.54
235.498	0.53
235.715	0.48
235.932	0.7
236.149	0.48
236.367	0.43
236.584	0.58
236.801	0.54
237.018	0.53
237.236	0.61
237.453	0.27
237.67	0.57
237.887	0.51
238.104	0.63
238.321	0.42
238.538	0.39
238.755	0.58
238.973	0.35
239.19	0.49
239.407	0.51
239.624	0.56
239.841	0.44
240.058	0.37
240.275	0.52
240.492	0.43
240.709	0.45
240.925	0.4
241.142	0.54
241.359	0.42
241.576	0.37
241.793	0.43
242.01	0.48
242.227	0.64
242.444	0.6
242.66	0.62
242.877	0.47
243.094	0.44
243.311	0.5
243.527	0.43
243.744	0.57
243.961	0.53
244.178	0.3
244.394	0.46
244.611	0.56
244.828	0.6
245.044	0.36
245.261	0.38
245.477	0.41
245.694	0.54
245.911	0.41
246.127	0.49
246.344	0.61
246.56	0.46
246.777	0.42
246.993	0.45
247.21	0.58
247.426	0.31
247.643	0.36
247.859	0.38
248.076	0.29
248.292	0.63
248.508	0.38
248.725	0.44
248.941	0.44
249.157	0.61
249.374	0.4
249.59	0.38
249.806	0.41
250.023	0.45
250.239	0.34
250.455	0.28
250.671	0.45
250.888	0.51
251.104	0.49
251.32	0.39
251.536	0.43
251.752	0.4
251.969	0.42
252.185	0.45
252.401	0.61
252.617	0.45
252.833	0.35
253.049	0.31
253.265	0.46
253.481	0.43
253.697	0.34
253.913	0.25
254.129	0.4
254.345	0.48
254.561	0.31
254.777	0.39
254.993	0.44
255.209	0.49
255.425	0.4
255.641	0.36
255.857	0.51
256.073	0.38
256.288	0.26
256.504	0.36
256.72	0.41
256.936	0.53
257.152	0.35
257.367	0.3
257.583	0.4
257.799	0.48
258.015	0.27
258.23	0.4
258.446	0.56
258.662	0.44
258.877	0.29
259.093	0.36
259.309	0.36
259.524	0.4
259.74	0.4
259.955	0.28
260.171	0.38
260.387	0.4
260.602	0.41
260.818	0.44
261.033	0.28
261.249	0.36
261.464	0.32
261.68	0.23
261.895	0.44
262.11	0.47
262.326	0.4
262.541	0.24
262.757	0.39
262.972	0.4
263.187	0.39
263.403	0.36
263.618	0.48
263.833	0.36
264.049	0.27
264.264	0.32
264.479	0.4
264.694	0.44
264.91	0.25
265.125	0.36
265.34	0.44
265.555	0.55
265.77	0.36
265.986	0.31
266.201	0.35
266.416	0.41
266.631	0.33
266.846	0.3
267.061	0.38
267.276	0.39
267.491	0.2
267.706	0.34
267.921	0.44
268.136	0.33
268.351	0.3
268.566	0.28
268.781	0.44
268.996	0.4
269.211	0.32
269.426	0.19
269.641	0.28
269.856	0.44
270.071	0.31
270.285	0.2
270.5	0.43
270.715	0.41
270.93	0.36
271.145	0.38
271.359	0.43
271.574	0.3
271.789	0.36
272.004	0.31
272.218	0.3
272.433	0.39
272.648	0.31
272.862	0.39
273.077	0.34
273.292	0.38
273.506	0.28
273.721	0.3
273.936	0.33
274.15	0.4
274.365	0.29
274.579	0.39
274.794	0.33
275.008	0.46
275.223	0.24
275.437	0.28
275.652	0.42
275.866	0.32
276.081	0.32
276.295	0.34
276.509	0.36
276.724	0.36
276.938	0.35
277.153	0.34
277.367	0.36
277.581	0.26
277.796	0.28
278.01	0.3
278.224	0.38
278.438	0.4
278.653	0.28
278.867	0.3
279.081	0.11
279.295	0.31
279.51	0.35
279.724	0.18
279.938	0.33
280.152	0.33
280.366	0.26
280.58	0.32
280.794	0.39
281.008	0.35
281.222	0.41
281.437	0.45
281.651	0.33
281.865	0.42
282.079	0.27
282.293	0.16
282.507	0.24
282.721	0.3
282.935	0.26
283.148	0.22
283.362	0.26
283.576	0.22
283.79	0.29
284.004	0.25
284.218	0.38
284.432	0.27
284.646	0.31
284.859	0.27
285.073	0.28
285.287	0.3
285.501	0.3
285.714	0.31
285.928	0.32
286.142	0.24
286.356	0.28
286.569	0.25
286.783	0.38
286.997	0.33
287.21	0.3
287.424	0.28
287.637	0.27
287.851	0.24
288.065	0.35
288.278	0.26
288.492	0.33
288.705	0.31
288.919	0.35
289.132	0.2
289.346	0.29
289.559	0.2
289.773	0.28
289.986	0.26
290.2	0.3
290.413	0.33
290.626	0.24
290.84	0.31
291.053	0.26
291.267	0.34
291.48	0.24
291.693	0.23
291.906	0.23
292.12	0.25
292.333	0.26
292.546	0.21
292.76	0.39
292.973	0.38
293.186	0.3
293.399	0.25
293.612	0.35
293.826	0.25
294.039	0.27
294.252	0.26
294.465	0.29
294.678	0.29
294.891	0.28
295.104	0.21
295.317	0.26
295.53	0.3
295.743	0.23
295.956	0.28
296.169	0.31
296.382	0.31
296.595	0.26
296.808	0.22
297.021	0.31
297.234	0.28
297.447	0.26
297.66	0.27
297.873	0.34
298.086	0.29
298.299	0.2
298.511	0.2
298.724	0.29
298.937	0.25
299.15	0.25
299.363	0.25
299.575	0.29
299.788	0.29
300.001	0.27
300.213	0.26
300.426	0.22
300.639	0.24
300.852	0.23
301.064	0.31
301.277	0.33
301.489	0.29
301.702	0.24
301.915	0.28
302.127	0.27
302.34	0.26
302.552	0.24
302.765	0.23
302.977	0.3
303.19	0.25
303.402	0.22
303.615	0.19
303.827	0.22
304.04	0.24
304.252	0.27
304.464	0.25
304.677	0.33
304.889	0.29
305.102	0.21
305.314	0.23
305.526	0.36
305.739	0.3
305.951	0.14
306.163	0.22
306.375	0.29
306.588	0.25
306.8	0.21
307.012	0.21
307.224	0.25
307.436	0.39
307.649	0.19
307.861	0.26
308.073	0.3
308.285	0.24
308.497	0.21
308.709	0.21
308.921	0.26
309.133	0.3
309.346	0.24
309.558	0.21
309.77	0.28
309.982	0.33
310.194	0.26
310.406	0.22
310.617	0.34
310.829	0.25
311.041	0.31
311.253	0.21
311.465	0.25
311.677	0.22
311.889	0.23
312.101	0.23
312.313	0.35
312.524	0.3
312.736	0.19
312.948	0.25
313.16	0.33
313.372	0.27
313.583	0.28
313.795	0.18
314.007	0.22
314.218	0.28
314.43	0.24
314.642	0.21
314.853	0.2
315.065	0.27
315.277	0.27
315.488	0.26
315.7	0.3
315.912	0.26
316.123	0.23
316.335	0.25
316.546	0.32
316.758	0.23
316.969	0.2
317.181	0.25
317.392	0.23
317.604	0.31
317.815	0.22
318.026	0.2
318.238	0.22
318.449	0.28
318.661	0.16
318.872	0.19
319.083	0.26
319.295	0.28
319.506	0.24
319.717	0.27
319.929	0.26
320.14	0.27
320.351	0.25
320.562	0.23
320.774	0.27
320.985	0.24
321.196	0.21
321.407	0.17
321.618	0.32
321.829	0.28
322.041	0.25
322.252	0.25
322.463	0.27
322.674	0.32
322.885	0.21
323.096	0.25
323.307	0.27
323.518	0.29
323.729	0.23
323.94	0.25
324.151	0.23
324.362	0.26
324.573	0.25
324.784	0.2
324.995	0.29
325.206	0.29
325.417	0.22
325.628	0.21
325.838	0.27
326.049	0.28
326.26	0.28
326.471	0.28
326.682	0.28
326.892	0.25
327.103	0.23
327.314	0.2
327.525	0.32
327.735	0.27
327.946	0.21
328.157	0.22
328.368	0.32
328.578	0.26
328.789	0.27
328.999	0.31
329.21	0.24
329.421	0.29
329.631	0.21
329.842	0.22
330.052	0.24
330.263	0.28
330.473	0.28
330.684	0.21
330.894	0.24
331.105	0.26
331.315	0.23
331.526	0.19
331.736	0.3
331.947	0.27
332.157	0.31
332.367	0.19
332.578	0.35
332.788	0.33
332.999	0.29
333.209	0.18
333.419	0.21
333.629	0.24
333.84	0.3
334.05	0.22
334.26	0.35
334.47	0.32
334.681	0.28
334.891	0.17
335.101	0.28
335.311	0.33
335.521	0.24
335.732	0.25
335.942	0.32
336.152	0.29
336.362	0.28
336.572	0.27
336.782	0.32
336.992	0.29
337.202	0.26
337.412	0.23
337.622	0.26
337.832	0.28
338.042	0.23
338.252	0.24
338.462	0.23
338.672	0.24
338.882	0.22
339.092	0.19
339.302	0.34
339.511	0.28
339.721	0.22
339.931	0.23
340.141	0.29
340.351	0.31
340.561	0.27
340.77	0.27
340.98	0.26
341.19	0.31
341.4	0.23
341.609	0.19
341.819	0.26
342.029	0.25
342.238	0.25
342.448	0.2
342.658	0.28
342.867	0.26
343.077	0.22
343.286	0.27
343.496	0.25
343.706	0.34
343.915	0.22
344.125	0.24
344.334	0.29
344.544	0.2
344.753	0.23
344.963	0.24
345.172	0.21
345.381	0.23
345.591	0.21
345.8	0.25
346.01	0.31
346.219	0.31
346.428	0.12
346.638	0.25
346.847	0.25
347.056	0.31
347.266	0.21
347.475	0.27
347.684	0.24
347.893	0.27
348.103	0.29
348.312	0.24
348.521	0.21
348.73	0.24
348.94	0.26
349.149	0.24
349.358	0.26
349.567	0.25
349.776	0.2
349.985	0.25
350.194	0.29
350.403	0.22
350.612	0.2
350.821	0.24
351.03	0.26
351.239	0.21
351.448	0.22
351.657	0.22
351.866	0.28
352.075	0.22
352.284	0.27
352.493	0.23
352.702	0.33
352.911	0.27
353.12	0.26
353.329	0.21
353.538	0.27
353.746	0.21
353.955	0.2
354.164	0.29
354.373	0.22
354.582	0.27
354.79	0.22
354.999	0.23
355.208	0.24
355.416	0.31
355.625	0.17
355.834	0.21
356.042	0.26
356.251	0.18
356.46	0.21
356.668	0.26
356.877	0.3
357.085	0.28
357.294	0.14
357.503	0.25
357.711	0.19
357.92	0.43
358.128	0.25
358.337	0.22
358.545	0.31
358.754	0.19
358.962	0.28
359.17	0.19
359.379	0.3
359.587	0.26
359.796	0.23
360.004	0.33
360.212	0.29
360.421	0.27
360.629	0.26
360.837	0.21
361.046	0.31
361.254	0.28
361.462	0.25
361.67	0.25
361.879	0.25
362.087	0.32
362.295	0.27
362.503	0.2
362.711	0.23
362.92	0.27
363.128	0.21
363.336	0.22
363.544	0.17
363.752	0.25
363.96	0.21
364.168	0.22
364.376	0.23
364.584	0.23
364.792	0.27
365	0.27
365.208	0.25
365.416	0.28
365.624	0.28
365.832	0.19
366.04	0.28
366.248	0.25
366.456	0.26
366.664	0.25
366.872	0.25
367.079	0.23
367.287	0.25
367.495	0.25
367.703	0.22
367.911	0.23
368.118	0.23
368.326	0.19
368.534	0.22
368.742	0.3
368.949	0.11
369.157	0.2
369.365	0.27
369.572	0.28
369.78	0.2
369.988	0.24
370.195	0.23
370.403	0.33
370.61	0.21
370.818	0.26
371.026	0.34
371.233	0.2
371.441	0.27
371.648	0.24
371.856	0.24
372.063	0.29
372.271	0.23
372.478	0.23
372.685	0.22
372.893	0.32
373.1	0.25
373.308	0.25
373.515	0.37
373.722	0.31
373.93	0.21
374.137	0.28
374.344	0.32
374.552	0.3
374.759	0.32
374.966	0.23
375.173	0.25
375.381	0.3
375.588	0.25
375.795	0.2
376.002	0.23
376.209	0.25
376.417	0.25
376.624	0.29
376.831	0.29
377.038	0.24
377.245	0.15
377.452	0.21
377.659	0.26
377.866	0.22
378.073	0.23
378.28	0.27
378.487	0.33
378.694	0.29
378.901	0.24
379.108	0.22
379.315	0.29
379.522	0.36
379.729	0.26
379.936	0.26
380.143	0.3
380.35	0.27
380.557	0.25
380.763	0.28
380.97	0.28
381.177	0.24
381.384	0.32
381.591	0.17
381.797	0.27
382.004	0.34
382.211	0.27
382.418	0.27
382.624	0.29
382.831	0.27
383.038	0.26
383.244	0.25
383.451	0.23
383.658	0.29
383.864	0.25
384.071	0.2
384.277	0.3
384.484	0.22
384.69	0.31
384.897	0.27
385.103	0.26
385.31	0.22
385.516	0.25
385.723	0.24
385.929	0.26
386.136	0.24
386.342	0.24
386.549	0.26
386.755	0.3
386.961	0.31
387.168	0.27
387.374	0.26
387.58	0.33
387.787	0.24
387.993	0.26
388.199	0.26
388.406	0.23
388.612	0.26
388.818	0.22
389.024	0.27
389.231	0.31
389.437	0.43
389.643	0.32
389.849	0.31
390.055	0.29
390.261	0.29
390.467	0.3
390.674	0.27
390.88	0.34
391.086	0.32
391.292	0.21
391.498	0.31
391.704	0.33
391.91	0.26
392.116	0.27
392.322	0.21
392.528	0.31
392.734	0.3
392.94	0.31
393.146	0.26
393.352	0.31
393.557	0.33
393.763	0.31
393.969	0.33
394.175	0.31
394.381	0.32
394.587	0.26
394.792	0.23
394.998	0.34
395.204	0.32
395.41	0.29
395.615	0.32
395.821	0.3
396.027	0.35
396.233	0.27
396.438	0.27
396.644	0.37
396.85	0.35
397.055	0.31
397.261	0.32
397.466	0.4
397.672	0.35
397.878	0.34
398.083	0.3
398.289	0.31
398.494	0.36
398.7	0.33
398.905	0.23
399.111	0.4
399.316	0.28
399.522	0.35
399.727	0.36
399.932	0.36
400.138	0.29
400.343	0.42
400.549	0.33
400.754	0.36
400.959	0.37
401.165	0.35
401.37	0.4
401.575	0.43
401.78	0.38
401.986	0.33
402.191	0.35
402.396	0.31
402.601	0.4
402.807	0.41
403.012	0.36
403.217	0.43
403.422	0.37
403.627	0.47
403.832	0.38
404.037	0.39
404.243	0.43
404.448	0.4
404.653	0.41
404.858	0.42
405.063	0.46
405.268	0.38
405.473	0.36
405.678	0.42
405.883	0.6
406.088	0.48
406.293	0.39
406.498	0.41
406.703	0.52
406.907	0.49
407.112	0.47
407.317	0.48
407.522	0.56
407.727	0.46
407.932	0.52
408.136	0.63
408.341	0.55
408.546	0.61
408.751	0.61
408.956	0.6
409.16	0.61
409.365	0.62
409.57	0.6
409.774	0.58
409.979	0.64
410.184	0.69
410.388	0.59
410.593	0.76
410.798	0.67
411.002	0.75
411.207	0.78
411.411	0.74
411.616	0.74
411.82	0.79
412.025	0.84
412.229	0.91
412.434	0.92
412.638	0.94
412.843	0.9
413.047	0.96
413.252	0.93
413.456	0.95
413.66	1.04
413.865	0.98
414.069	1.16
414.273	1.12
414.478	1.15
414.682	1.15
414.886	1.21
415.091	1.26
415.295	1.2
415.499	1.31
415.703	1.32
415.908	1.46
416.112	1.41
416.316	1.57
416.52	1.57
416.724	1.56
416.929	1.59
417.133	1.85
417.337	1.71
417.541	1.81
417.745	1.87
417.949	1.94
418.153	2.06
418.357	2.01
418.561	2.24
418.765	2.13
418.969	2.3
419.173	2.51
419.377	2.47
419.581	2.63
419.785	2.58
419.989	2.59
420.193	2.79
420.397	2.93
420.601	2.99
420.804	3.1
421.008	3.11
421.212	3.25
421.416	3.21
421.62	3.27
421.823	3.4
422.027	3.47
422.231	3.45
422.435	3.52
422.638	3.6
422.842	3.6
423.046	3.74
423.249	3.96
423.453	3.98
423.657	4.1
423.86	4.2
424.064	4.28
424.268	4.45
424.471	4.45
424.675	4.61
424.878	4.78
425.082	4.88
425.285	5.12
425.489	5.1
425.692	5.23
425.896	5.23
426.099	5.51
426.303	5.6
426.506	5.7
426.71	5.88
426.913	6.15
427.116	6.38
427.32	6.32
427.523	6.5
427.726	6.64
427.93	6.85
428.133	7.08
428.336	7.28
428.54	7.41
428.743	7.67
428.946	7.89
429.149	7.96
429.353	7.84
429.556	7.99
429.759	7.95
429.962	8.33
430.165	8.43
430.368	8.02
430.571	8.08
430.775	8.18
430.978	8.05
431.181	8.17
431.384	8.33
431.587	8.31
431.79	8.73
431.993	8.69
432.196	8.89
432.399	9.27
432.602	9.45
432.805	9.47
433.008	10.03
433.211	9.91
433.414	10.3
433.616	10.31
433.819	10.26
434.022	10.38
434.225	10.6
434.428	10.65
434.631	10.82
434.833	10.82
435.036	11.08
435.239	11.3
435.442	11.34
435.645	11.59
435.847	11.56
436.05	11.87
436.253	12.07
436.455	12.09
436.658	12.08
436.861	12.25
437.063	12.47
437.266	12.37
437.468	12.86
437.671	13.03
437.874	13.21
438.076	12.93
438.279	13.46
438.481	13.5
438.684	14.32
438.886	13.79
439.089	14.11
439.291	14.16
439.494	14.59
439.696	14.61
439.899	15.21
440.101	15.69
440.303	15.84
440.506	16.56
440.708	16.37
440.91	16.4
441.113	16.72
441.315	16.92
441.517	16.74
441.72	17.34
441.922	16.96
442.124	16.85
442.326	17.24
442.529	17.33
442.731	17.4
442.933	17.62
443.135	17.45
443.337	17.58
443.539	17.98
443.742	17.78
443.944	18.43
444.146	18.24
444.348	18.06
444.55	18.09
444.752	18.06
444.954	18.18
445.156	18.16
445.358	18.48
445.56	18.81
445.762	18.53
445.964	18.81
446.166	18.71
446.368	18.67
446.57	18.57
446.772	18.27
446.974	18.06
447.175	18.27
447.377	17.93
447.579	18.45
447.781	18.05
447.983	17.84
448.184	17.45
448.386	17.82
448.588	17.35
448.79	17.1
448.991	17.53
449.193	17.59
449.395	16.91
449.597	16.52
449.798	16.29
450	16.01
450.202	15.92
450.403	16.03
450.605	15.87
450.806	15.44
451.008	15.22
451.21	15.07
451.411	14.7
451.613	13.94
451.814	14.12
452.016	14.04
452.217	13.37
452.419	13.39
452.62	12.92
452.821	12.71
453.023	12.69
453.224	12.3
453.426	11.94
453.627	11.1
453.828	11.28
454.03	11.37
454.231	11.36
454.432	11.11
454.634	10.77
454.835	10.48
455.036	10.45
455.238	9.98
455.439	9.76
455.64	9.53
455.841	9.5
456.042	9.45
456.244	9.18
456.445	8.95
456.646	8.61
456.847	8.64
457.048	8.46
457.249	8.45
457.45	8.19
457.651	7.74
457.852	7.5
458.054	7.24
458.255	7.22
458.456	7.29
458.657	7.15
458.858	6.71
459.058	6.66
459.259	6.8
459.46	6.47
459.661	6.43
459.862	6.49
460.063	6.38
460.264	6.27
460.465	5.89
460.666	6.03
460.866	5.77
461.067	5.51
461.268	5.55
461.469	5.46
461.67	5.41
461.87	5.28
462.071	5.32
462.272	5.15
462.473	5.15
462.673	5.23
462.874	5.14
463.075	5.12
463.275	5.12
463.476	5.13
463.676	5.14
463.877	4.91
464.078	4.96
464.278	4.88
464.479	4.86
464.679	4.74
464.88	4.66
465.08	4.66
465.281	4.51
465.481	4.34
465.682	4.13
465.882	4.15
466.083	4.11
466.283	4.02
466.483	3.9
466.684	3.72
466.884	3.62
467.085	3.65
467.285	3.69
467.485	3.62
467.686	3.58
467.886	3.41
468.086	3.41
468.286	3.39
468.487	3.41
468.687	3.3
468.887	3.16
469.087	3.29
469.287	3.27
469.488	3.06
469.688	3.15
469.888	3.23
470.088	3.13
470.288	3.05
470.488	2.98
470.688	2.93
470.888	2.92
471.088	2.7
471.288	2.82
471.488	2.75
471.688	2.75
471.888	2.66
472.088	2.76
472.288	2.7
472.488	2.63
472.688	2.6
472.888	2.61
473.088	2.56
473.288	2.44
473.488	2.48
473.688	2.56
473.887	2.47
474.087	2.42
474.287	2.47
474.487	2.39
474.687	2.41
474.886	2.32
475.086	2.26
475.286	2.29
475.486	2.23
475.685	2.25
475.885	2.2
476.085	2.31
476.284	2.24
476.484	2.25
476.684	2.18
476.883	2.25
477.083	2.19
477.282	2.13
477.482	2.14
477.681	2.12
477.881	2.06
478.08	2.11
478.28	2.08
478.479	2.06
478.679	2.11
478.878	2.07
479.078	2.03
479.277	2.03
479.477	2.02
479.676	2.04
479.875	2.02
480.075	1.96
480.274	2.06
480.473	2.06
480.673	2
480.872	2.11
481.071	2.03
481.271	2.06
481.47	1.94
481.669	2.03
481.868	1.94
482.067	1.98
482.267	1.93
482.466	1.92
482.665	1.97
482.864	1.93
483.063	1.97
483.262	1.98
483.461	2
483.661	2.06
483.86	1.97
484.059	2.06
484.258	2.05
484.457	2.05
484.656	2
484.855	2.11
485.054	1.9
485.253	1.98
485.452	1.95
485.651	2.03
485.849	2
486.048	2.04
486.247	2.02
486.446	2.09
486.645	2.03
486.844	2.07
487.043	2.05
487.241	2.09
487.44	2.07
487.639	2.13
487.838	2.13
488.037	2.14
488.235	2.2
488.434	2.14
488.633	2.04
488.831	2.21
489.03	2.2
489.229	2.2
489.427	2.19
489.626	2.25
489.825	2.25
490.023	2.29
490.222	2.25
490.42	2.27
490.619	2.34
490.817	2.38
491.016	2.33
491.214	2.41
491.413	2.43
491.611	2.32
491.81	2.39
492.008	2.41
492.207	2.58
492.405	2.53
492.604	2.47
492.802	2.55
493	2.59
493.199	2.59
493.397	2.66
493.595	2.69
493.794	2.61
493.992	2.75
494.19	2.74
494.388	2.81
494.587	2.72
494.785	2.77
494.983	2.71
495.181	2.84
495.379	2.87
495.578	2.95
495.776	2.96
495.974	2.92
496.172	2.95
496.37	3.07
496.568	3.1
496.766	3.07
496.964	3.17
497.162	3.15
497.36	3.21
497.558	3.19
497.756	3.33
497.954	3.26
498.152	3.34
498.35	3.42
498.548	3.34
498.746	3.36
498.944	3.42
499.142	3.41
499.34	3.53
499.538	3.62
499.736	3.47
499.933	3.6
500.131	3.62
500.329	3.79
500.527	3.72
500.725	3.84
500.922	3.82
501.12	3.81
501.318	3.91
501.516	3.9
501.713	4
501.911	3.97
502.109	3.91
502.306	4.11
502.504	4
502.701	4.09
