Data from Apollo_Calib_20240827__AbsoluteIrradiance__854__13-23-00-417.txt Node

Date: Wed Aug 28 13:23:00 BST 2024
User: biology
Spectrometer: FLMT08252
Trigger mode: 0
Integration Time (sec): 5.000000E-1
Scans to average: 5
Electric dark correction enabled: true
Nonlinearity correction enabled: false
Boxcar width: 0
XAxis mode: Wavelengths
Number of Pixels in Spectrum: 3648
>>>>>Begin Spectral Data<<<<<
179.588	-0
179.809	-0
180.03	-0
180.251	-0
180.473	-0
180.694	0
180.915	0
181.136	-0
181.357	0
181.578	-0
181.799	0
182.02	-0
182.241	-0
182.462	-0
182.683	0
182.904	-0
183.125	-0
183.346	0
183.567	0
183.788	0
184.009	0
184.23	0
184.451	0
184.672	0
184.892	0
185.113	0
185.334	0
185.555	0
185.776	0
185.996	0
186.217	0
186.438	0
186.659	0
186.879	0
187.1	0
187.321	0
187.541	0
187.762	0
187.983	0
188.203	0
188.424	0
188.644	0
188.865	0
189.086	0
189.306	0
189.527	0
189.747	0
189.968	0
190.188	0
190.409	0
190.629	0
190.849	0
191.07	0
191.29	0
191.511	0
191.731	0
191.951	0
192.172	0
192.392	0
192.612	0
192.833	0
193.053	0
193.273	0
193.493	0
193.714	0
193.934	0
194.154	0
194.374	0
194.594	0
194.815	0
195.035	0
195.255	0
195.475	0
195.695	0
195.915	0
196.135	0
196.355	0
196.575	0
196.795	0
197.015	0
197.235	0
197.455	0
197.675	0
197.895	0
198.115	0
198.335	0
198.555	0
198.775	0
198.995	0
199.214	0
199.434	0
199.654	0
199.874	0
200.094	4.38
200.313	2.14
200.533	1.66
200.753	1.46
200.973	4.16
201.192	4.06
201.412	1.42
201.632	2.23
201.851	3.7
202.071	2.11
202.291	1.81
202.51	1.89
202.73	2.94
202.95	1.94
203.169	1.28
203.389	1.72
203.608	2.23
203.828	1.56
204.047	1.43
204.267	2.26
204.486	2.32
204.706	2.25
204.925	1.82
205.145	1.4
205.364	2.4
205.583	2.87
205.803	1.27
206.022	1.37
206.242	1.94
206.461	1.62
206.68	1.1
206.9	1.75
207.119	2.75
207.338	2.26
207.557	1.34
207.777	1.56
207.996	1.36
208.215	2.14
208.434	0.93
208.654	0.94
208.873	1.46
209.092	2.26
209.311	1.28
209.53	1.21
209.749	1.48
209.968	1.03
210.187	1.08
210.407	0.65
210.626	1.36
210.845	1.58
211.064	1.19
211.283	0.97
211.502	1.39
211.721	1.12
211.94	1.14
212.159	1.19
212.377	1.55
212.596	1.67
212.815	1.17
213.034	1.41
213.253	1.52
213.472	1.25
213.691	1.28
213.91	0.72
214.128	0.72
214.347	1.51
214.566	0.42
214.785	0.55
215.003	1.33
215.222	1.45
215.441	0.9
215.66	0.46
215.878	1.25
216.097	1.24
216.316	0.79
216.534	0.81
216.753	1.18
216.972	0.82
217.19	0.96
217.409	0.67
217.627	0.91
217.846	0.95
218.064	1.03
218.283	0.68
218.501	1.66
218.72	1.24
218.938	0.6
219.157	0.77
219.375	1.18
219.594	1.21
219.812	0.57
220.031	0.57
220.249	1.52
220.467	1.23
220.686	0.56
220.904	0.66
221.122	0.7
221.341	1.37
221.559	0.87
221.777	0.51
221.995	0.83
222.214	1.09
222.432	0.59
222.65	0.9
222.868	0.75
223.086	0.78
223.305	0.88
223.523	0.68
223.741	1.25
223.959	0.76
224.177	0.29
224.395	0.6
224.613	0.89
224.831	1.17
225.049	0.59
225.267	0.57
225.485	0.82
225.703	0.67
225.921	0.65
226.139	0.62
226.357	0.87
226.575	0.84
226.793	0.65
227.011	1.64
227.229	0.82
227.447	0.85
227.665	0.61
227.883	0.33
228.1	0.65
228.318	0.77
228.536	0.26
228.754	0.35
228.972	0.83
229.189	0.88
229.407	0.56
229.625	0.54
229.843	1.01
230.06	0.81
230.278	0.5
230.496	0.66
230.713	0.59
230.931	0.84
231.149	0.4
231.366	0.25
231.584	0.54
231.801	1.05
232.019	0.52
232.236	0.47
232.454	0.41
232.671	0.69
232.889	0.5
233.106	0.4
233.324	0.65
233.541	0.69
233.759	0.59
233.976	0.4
234.194	0.58
234.411	0.61
234.628	0.39
234.846	0.34
235.063	0.6
235.28	0.56
235.498	0.48
235.715	0.33
235.932	0.87
236.149	0.54
236.367	0.44
236.584	0.5
236.801	0.53
237.018	0.71
237.236	0.58
237.453	0.33
237.67	0.76
237.887	0.47
238.104	0.53
238.321	0.32
238.538	0.41
238.755	0.77
238.973	0.27
239.19	0.42
239.407	0.6
239.624	0.64
239.841	0.43
240.058	0.26
240.275	0.53
240.492	0.53
240.709	0.52
240.925	0.42
241.142	0.54
241.359	0.46
241.576	0.33
241.793	0.34
242.01	0.45
242.227	0.79
242.444	0.46
242.66	0.63
242.877	0.41
243.094	0.46
243.311	0.46
243.527	0.42
243.744	0.58
243.961	0.6
244.178	0.35
244.394	0.42
244.611	0.56
244.828	0.82
245.044	0.29
245.261	0.38
245.477	0.53
245.694	0.61
245.911	0.4
246.127	0.44
246.344	0.66
246.56	0.6
246.777	0.37
246.993	0.48
247.21	0.54
247.426	0.52
247.643	0.4
247.859	0.33
248.076	0.37
248.292	0.76
248.508	0.41
248.725	0.51
248.941	0.47
249.157	0.57
249.374	0.32
249.59	0.43
249.806	0.45
250.023	0.66
250.239	0.37
250.455	0.27
250.671	0.32
250.888	0.55
251.104	0.47
251.32	0.41
251.536	0.45
251.752	0.49
251.969	0.4
252.185	0.31
252.401	0.61
252.617	0.47
252.833	0.32
253.049	0.46
253.265	0.47
253.481	0.38
253.697	0.27
253.913	0.39
254.129	0.5
254.345	0.44
254.561	0.38
254.777	0.39
254.993	0.54
255.209	0.41
255.425	0.37
255.641	0.33
255.857	0.55
256.073	0.4
256.288	0.22
256.504	0.31
256.72	0.39
256.936	0.63
257.152	0.34
257.367	0.26
257.583	0.49
257.799	0.54
258.015	0.35
258.23	0.33
258.446	0.56
258.662	0.31
258.877	0.3
259.093	0.31
259.309	0.4
259.524	0.52
259.74	0.35
259.955	0.34
260.171	0.41
260.387	0.41
260.602	0.39
260.818	0.46
261.033	0.27
261.249	0.4
261.464	0.34
261.68	0.25
261.895	0.45
262.11	0.46
262.326	0.32
262.541	0.29
262.757	0.54
262.972	0.39
263.187	0.34
263.403	0.4
263.618	0.49
263.833	0.4
264.049	0.26
264.264	0.32
264.479	0.41
264.694	0.52
264.91	0.27
265.125	0.34
265.34	0.45
265.555	0.58
265.77	0.34
265.986	0.34
266.201	0.52
266.416	0.56
266.631	0.37
266.846	0.34
267.061	0.49
267.276	0.39
267.491	0.24
267.706	0.43
267.921	0.41
268.136	0.38
268.351	0.4
268.566	0.24
268.781	0.43
268.996	0.44
269.211	0.36
269.426	0.27
269.641	0.27
269.856	0.49
270.071	0.29
270.285	0.3
270.5	0.45
270.715	0.45
270.93	0.32
271.145	0.38
271.359	0.48
271.574	0.33
271.789	0.33
272.004	0.35
272.218	0.34
272.433	0.38
272.648	0.25
272.862	0.39
273.077	0.38
273.292	0.33
273.506	0.34
273.721	0.33
273.936	0.45
274.15	0.34
274.365	0.24
274.579	0.39
274.794	0.41
275.008	0.49
275.223	0.21
275.437	0.3
275.652	0.35
275.866	0.39
276.081	0.29
276.295	0.42
276.509	0.29
276.724	0.32
276.938	0.35
277.153	0.38
277.367	0.43
277.581	0.31
277.796	0.27
278.01	0.27
278.224	0.42
278.438	0.48
278.653	0.27
278.867	0.27
279.081	0.25
279.295	0.32
279.51	0.32
279.724	0.2
279.938	0.36
280.152	0.4
280.366	0.28
280.58	0.3
280.794	0.54
281.008	0.4
281.222	0.34
281.437	0.44
281.651	0.35
281.865	0.38
282.079	0.3
282.293	0.17
282.507	0.29
282.721	0.3
282.935	0.27
283.148	0.19
283.362	0.26
283.576	0.21
283.79	0.29
284.004	0.23
284.218	0.44
284.432	0.32
284.646	0.31
284.859	0.28
285.073	0.28
285.287	0.33
285.501	0.29
285.714	0.31
285.928	0.37
286.142	0.3
286.356	0.24
286.569	0.23
286.783	0.45
286.997	0.35
287.21	0.34
287.424	0.3
287.637	0.23
287.851	0.28
288.065	0.35
288.278	0.28
288.492	0.32
288.705	0.32
288.919	0.29
289.132	0.2
289.346	0.36
289.559	0.28
289.773	0.25
289.986	0.32
290.2	0.31
290.413	0.39
290.626	0.27
290.84	0.26
291.053	0.27
291.267	0.34
291.48	0.34
291.693	0.31
291.906	0.24
292.12	0.32
292.333	0.24
292.546	0.29
292.76	0.39
292.973	0.34
293.186	0.36
293.399	0.28
293.612	0.44
293.826	0.26
294.039	0.27
294.252	0.2
294.465	0.38
294.678	0.33
294.891	0.29
295.104	0.26
295.317	0.25
295.53	0.32
295.743	0.3
295.956	0.23
296.169	0.42
296.382	0.33
296.595	0.24
296.808	0.21
297.021	0.42
297.234	0.33
297.447	0.28
297.66	0.31
297.873	0.36
298.086	0.33
298.299	0.24
298.511	0.17
298.724	0.26
298.937	0.24
299.15	0.23
299.363	0.21
299.575	0.34
299.788	0.29
300.001	0.21
300.213	0.26
300.426	0.24
300.639	0.23
300.852	0.28
301.064	0.33
301.277	0.39
301.489	0.3
301.702	0.31
301.915	0.26
302.127	0.33
302.34	0.28
302.552	0.32
302.765	0.21
302.977	0.31
303.19	0.27
303.402	0.28
303.615	0.23
303.827	0.26
304.04	0.31
304.252	0.34
304.464	0.23
304.677	0.4
304.889	0.27
305.102	0.25
305.314	0.23
305.526	0.25
305.739	0.32
305.951	0.19
306.163	0.21
306.375	0.32
306.588	0.24
306.8	0.26
307.012	0.2
307.224	0.31
307.436	0.32
307.649	0.18
307.861	0.26
308.073	0.31
308.285	0.26
308.497	0.19
308.709	0.18
308.921	0.31
309.133	0.35
309.346	0.22
309.558	0.28
309.77	0.31
309.982	0.37
310.194	0.32
310.406	0.24
310.617	0.38
310.829	0.27
311.041	0.31
311.253	0.27
311.465	0.28
311.677	0.3
311.889	0.25
312.101	0.19
312.313	0.37
312.524	0.35
312.736	0.22
312.948	0.26
313.16	0.39
313.372	0.34
313.583	0.29
313.795	0.23
314.007	0.28
314.218	0.29
314.43	0.25
314.642	0.2
314.853	0.18
315.065	0.32
315.277	0.26
315.488	0.25
315.7	0.28
315.912	0.33
316.123	0.22
316.335	0.21
316.546	0.36
316.758	0.26
316.969	0.27
317.181	0.3
317.392	0.24
317.604	0.33
317.815	0.24
318.026	0.22
318.238	0.21
318.449	0.31
318.661	0.17
318.872	0.19
319.083	0.27
319.295	0.32
319.506	0.24
319.717	0.28
319.929	0.33
320.14	0.22
320.351	0.26
320.562	0.22
320.774	0.29
320.985	0.32
321.196	0.22
321.407	0.17
321.618	0.31
321.829	0.31
322.041	0.3
322.252	0.27
322.463	0.35
322.674	0.33
322.885	0.18
323.096	0.21
323.307	0.26
323.518	0.28
323.729	0.25
323.94	0.26
324.151	0.27
324.362	0.34
324.573	0.29
324.784	0.26
324.995	0.35
325.206	0.29
325.417	0.27
325.628	0.24
325.838	0.25
326.049	0.32
326.26	0.3
326.471	0.21
326.682	0.32
326.892	0.28
327.103	0.21
327.314	0.24
327.525	0.36
327.735	0.28
327.946	0.24
328.157	0.19
328.368	0.33
328.578	0.26
328.789	0.34
328.999	0.21
329.21	0.27
329.421	0.31
329.631	0.23
329.842	0.21
330.052	0.27
330.263	0.32
330.473	0.29
330.684	0.2
330.894	0.25
331.105	0.28
331.315	0.29
331.526	0.21
331.736	0.37
331.947	0.28
332.157	0.29
332.367	0.21
332.578	0.34
332.788	0.36
332.999	0.33
333.209	0.23
333.419	0.21
333.629	0.33
333.84	0.29
334.05	0.23
334.26	0.39
334.47	0.27
334.681	0.31
334.891	0.24
335.101	0.32
335.311	0.36
335.521	0.27
335.732	0.19
335.942	0.34
336.152	0.3
336.362	0.31
336.572	0.27
336.782	0.35
336.992	0.22
337.202	0.2
337.412	0.23
337.622	0.29
337.832	0.25
338.042	0.32
338.252	0.2
338.462	0.26
338.672	0.34
338.882	0.27
339.092	0.22
339.302	0.34
339.511	0.28
339.721	0.24
339.931	0.22
340.141	0.31
340.351	0.29
340.561	0.27
340.77	0.26
340.98	0.29
341.19	0.31
341.4	0.26
341.609	0.19
341.819	0.25
342.029	0.21
342.238	0.32
342.448	0.23
342.658	0.34
342.867	0.2
343.077	0.27
343.286	0.27
343.496	0.27
343.706	0.41
343.915	0.24
344.125	0.27
344.334	0.23
344.544	0.22
344.753	0.2
344.963	0.2
345.172	0.23
345.381	0.25
345.591	0.18
345.8	0.25
346.01	0.32
346.219	0.34
346.428	0.12
346.638	0.24
346.847	0.25
347.056	0.37
347.266	0.23
347.475	0.21
347.684	0.29
347.893	0.34
348.103	0.26
348.312	0.24
348.521	0.24
348.73	0.29
348.94	0.21
349.149	0.26
349.358	0.27
349.567	0.22
349.776	0.17
349.985	0.27
350.194	0.3
350.403	0.26
350.612	0.18
350.821	0.21
351.03	0.3
351.239	0.2
351.448	0.28
351.657	0.2
351.866	0.37
352.075	0.29
352.284	0.31
352.493	0.22
352.702	0.35
352.911	0.27
353.12	0.25
353.329	0.21
353.538	0.26
353.746	0.25
353.955	0.2
354.164	0.28
354.373	0.25
354.582	0.34
354.79	0.25
354.999	0.3
355.208	0.26
355.416	0.35
355.625	0.18
355.834	0.23
356.042	0.23
356.251	0.25
356.46	0.21
356.668	0.27
356.877	0.38
357.085	0.33
357.294	0.15
357.503	0.24
357.711	0.25
357.92	0.43
358.128	0.25
358.337	0.22
358.545	0.28
358.754	0.23
358.962	0.28
359.17	0.25
359.379	0.26
359.587	0.29
359.796	0.3
360.004	0.36
360.212	0.31
360.421	0.32
360.629	0.26
360.837	0.23
361.046	0.29
361.254	0.39
361.462	0.25
361.67	0.24
361.879	0.26
362.087	0.37
362.295	0.24
362.503	0.22
362.711	0.2
362.92	0.22
363.128	0.24
363.336	0.19
363.544	0.18
363.752	0.25
363.96	0.21
364.168	0.21
364.376	0.29
364.584	0.28
364.792	0.33
365	0.27
365.208	0.22
365.416	0.28
365.624	0.3
365.832	0.19
366.04	0.35
366.248	0.29
366.456	0.26
366.664	0.27
366.872	0.26
367.079	0.24
367.287	0.23
367.495	0.25
367.703	0.24
367.911	0.27
368.118	0.25
368.326	0.24
368.534	0.23
368.742	0.36
368.949	0.21
369.157	0.24
369.365	0.33
369.572	0.26
369.78	0.19
369.988	0.29
370.195	0.25
370.403	0.35
370.61	0.23
370.818	0.27
371.026	0.37
371.233	0.24
371.441	0.25
371.648	0.23
371.856	0.25
372.063	0.3
372.271	0.26
372.478	0.27
372.685	0.23
372.893	0.35
373.1	0.27
373.308	0.23
373.515	0.4
373.722	0.36
373.93	0.27
374.137	0.3
374.344	0.37
374.552	0.32
374.759	0.29
374.966	0.25
375.173	0.23
375.381	0.31
375.588	0.26
375.795	0.15
376.002	0.24
376.209	0.25
376.417	0.24
376.624	0.32
376.831	0.28
377.038	0.25
377.245	0.18
377.452	0.24
377.659	0.29
377.866	0.26
378.073	0.31
378.28	0.25
378.487	0.3
378.694	0.35
378.901	0.29
379.108	0.25
379.315	0.34
379.522	0.39
379.729	0.28
379.936	0.2
380.143	0.28
380.35	0.26
380.557	0.27
380.763	0.28
380.97	0.27
381.177	0.28
381.384	0.32
381.591	0.19
381.797	0.29
382.004	0.34
382.211	0.32
382.418	0.23
382.624	0.31
382.831	0.3
383.038	0.27
383.244	0.3
383.451	0.28
383.658	0.3
383.864	0.25
384.071	0.23
384.277	0.36
384.484	0.24
384.69	0.39
384.897	0.25
385.103	0.27
385.31	0.26
385.516	0.26
385.723	0.18
385.929	0.31
386.136	0.28
386.342	0.32
386.549	0.26
386.755	0.36
386.961	0.33
387.168	0.27
387.374	0.27
387.58	0.36
387.787	0.31
387.993	0.32
388.199	0.29
388.406	0.28
388.612	0.25
388.818	0.27
389.024	0.23
389.231	0.3
389.437	0.44
389.643	0.28
389.849	0.29
390.055	0.31
390.261	0.3
390.467	0.31
390.674	0.28
390.88	0.28
391.086	0.33
391.292	0.25
391.498	0.33
391.704	0.36
391.91	0.29
392.116	0.27
392.322	0.22
392.528	0.35
392.734	0.3
392.94	0.33
393.146	0.25
393.352	0.32
393.557	0.33
393.763	0.29
393.969	0.33
394.175	0.28
394.381	0.34
394.587	0.25
394.792	0.28
394.998	0.4
395.204	0.37
395.41	0.32
395.615	0.37
395.821	0.35
396.027	0.38
396.233	0.33
396.438	0.32
396.644	0.4
396.85	0.35
397.055	0.31
397.261	0.32
397.466	0.47
397.672	0.32
397.878	0.41
398.083	0.37
398.289	0.31
398.494	0.4
398.7	0.4
398.905	0.24
399.111	0.45
399.316	0.31
399.522	0.36
399.727	0.36
399.932	0.37
400.138	0.32
400.343	0.33
400.549	0.37
400.754	0.41
400.959	0.37
401.165	0.35
401.37	0.39
401.575	0.35
401.78	0.43
401.986	0.37
402.191	0.36
402.396	0.38
402.601	0.4
402.807	0.44
403.012	0.36
403.217	0.46
403.422	0.44
403.627	0.44
403.832	0.34
404.037	0.46
404.243	0.43
404.448	0.39
404.653	0.37
404.858	0.47
405.063	0.45
405.268	0.38
405.473	0.41
405.678	0.43
405.883	0.62
406.088	0.47
406.293	0.41
406.498	0.47
406.703	0.5
406.907	0.49
407.112	0.41
407.317	0.52
407.522	0.59
407.727	0.52
407.932	0.51
408.136	0.64
408.341	0.53
408.546	0.6
408.751	0.56
408.956	0.57
409.16	0.64
409.365	0.65
409.57	0.57
409.774	0.57
409.979	0.69
410.184	0.69
410.388	0.6
410.593	0.79
410.798	0.69
411.002	0.72
411.207	0.79
411.411	0.82
411.616	0.75
411.82	0.78
412.025	0.86
412.229	0.84
412.434	0.98
412.638	0.83
412.843	0.84
413.047	0.94
413.252	0.92
413.456	0.95
413.66	1.02
413.865	1.02
414.069	1.14
414.273	1.07
414.478	1.04
414.682	1.08
414.886	1.19
415.091	1.14
415.295	1.16
415.499	1.29
415.703	1.3
415.908	1.38
416.112	1.32
416.316	1.47
416.52	1.48
416.724	1.38
416.929	1.48
417.133	1.77
417.337	1.63
417.541	1.68
417.745	1.73
417.949	1.86
418.153	1.88
418.357	1.89
418.561	2.12
418.765	2.08
418.969	2.18
419.173	2.22
419.377	2.24
419.581	2.49
419.785	2.46
419.989	2.45
420.193	2.56
420.397	2.69
420.601	2.81
420.804	2.84
421.008	2.84
421.212	2.98
421.416	2.96
421.62	3.03
421.823	3.11
422.027	3.29
422.231	3.26
422.435	3.18
422.638	3.29
422.842	3.41
423.046	3.41
423.249	3.68
423.453	3.55
423.657	3.75
423.86	3.89
424.064	4.02
424.268	4.18
424.471	4.13
424.675	4.39
424.878	4.39
425.082	4.45
425.285	4.75
425.489	4.7
425.692	4.75
425.896	4.87
426.099	5.07
426.303	5.17
426.506	5.27
426.71	5.55
426.913	5.63
427.116	5.94
427.32	5.83
427.523	5.92
427.726	6.19
427.93	6.31
428.133	6.52
428.336	6.68
428.54	6.83
428.743	7.07
428.946	7.42
429.149	7.27
429.353	7.39
429.556	7.46
429.759	7.45
429.962	7.55
430.165	7.83
430.368	7.45
430.571	7.55
430.775	7.65
430.978	7.52
431.181	7.66
431.384	7.75
431.587	7.91
431.79	8.29
431.993	8.19
432.196	8.52
432.399	8.76
432.602	9.01
432.805	8.99
433.008	9.59
433.211	9.48
433.414	9.81
433.616	9.87
433.819	9.75
434.022	9.94
434.225	10.08
434.428	10.1
434.631	10.56
434.833	10.2
435.036	10.58
435.239	10.78
435.442	10.91
435.645	11.06
435.847	11.18
436.05	11.45
436.253	11.62
436.455	11.59
436.658	11.55
436.861	11.78
437.063	12
437.266	11.78
437.468	12.32
437.671	12.52
437.874	12.64
438.076	12.45
438.279	12.85
438.481	12.95
438.684	13.61
438.886	13.22
439.089	13.46
439.291	13.5
439.494	13.98
439.696	14.18
439.899	14.46
440.101	15
440.303	15.14
440.506	15.89
440.708	15.65
440.91	15.84
441.113	16.07
441.315	16.38
441.517	16.02
441.72	16.51
441.922	16.22
442.124	16.14
442.326	16.61
442.529	16.71
442.731	16.77
442.933	16.99
443.135	16.82
443.337	16.77
443.539	17.24
443.742	16.91
443.944	17.62
444.146	17.4
444.348	17.42
444.55	17.25
444.752	17.52
444.954	17.49
445.156	17.45
445.358	17.86
445.56	18.13
445.762	17.89
445.964	18.22
446.166	18.08
446.368	17.96
446.57	18.06
446.772	17.69
446.974	17.66
447.175	17.92
447.377	17.52
447.579	17.98
447.781	17.56
447.983	17.58
448.184	17.08
448.386	17.54
448.588	17.12
448.79	17.13
448.991	17.43
449.193	17.36
449.395	16.73
449.597	16.41
449.798	16.34
450	15.97
450.202	15.9
450.403	15.91
450.605	15.81
450.806	15.47
451.008	15.36
451.21	15.27
451.411	14.79
451.613	14.04
451.814	14.3
452.016	14.26
452.217	13.58
452.419	13.67
452.62	13.33
452.821	12.97
453.023	12.9
453.224	12.49
453.426	12.17
453.627	11.5
453.828	11.63
454.03	11.72
454.231	11.66
454.432	11.48
454.634	11.26
454.835	10.92
455.036	10.86
455.238	10.37
455.439	10.25
455.64	9.85
455.841	9.83
456.042	10.04
456.244	9.53
456.445	9.26
456.646	9.09
456.847	9
457.048	8.87
457.249	8.85
457.45	8.66
457.651	8.02
457.852	7.95
458.054	7.55
458.255	7.49
458.456	7.61
458.657	7.49
458.858	7.05
459.058	7.03
459.259	7.09
459.46	6.79
459.661	6.69
459.862	6.76
460.063	6.64
460.264	6.56
460.465	6.27
460.666	6.37
460.866	6.01
461.067	5.78
461.268	5.81
461.469	5.77
461.67	5.64
461.87	5.42
462.071	5.5
462.272	5.48
462.473	5.32
462.673	5.49
462.874	5.45
463.075	5.4
463.275	5.33
463.476	5.38
463.676	5.27
463.877	5.1
464.078	5.14
464.278	5.21
464.479	5.03
464.679	4.94
464.88	4.99
465.08	4.87
465.281	4.66
465.481	4.48
465.682	4.25
465.882	4.43
466.083	4.29
466.283	4.2
466.483	4.08
466.684	3.87
466.884	3.81
467.085	3.83
467.285	3.94
467.485	3.77
467.686	3.7
467.886	3.54
468.086	3.58
468.286	3.5
468.487	3.66
468.687	3.49
468.887	3.39
469.087	3.6
469.287	3.43
469.488	3.2
469.688	3.39
469.888	3.36
470.088	3.28
470.288	3.22
470.488	3.2
470.688	3.08
470.888	3.03
471.088	2.83
471.288	2.97
471.488	2.97
471.688	2.93
471.888	2.82
472.088	3.02
472.288	2.94
472.488	2.77
472.688	2.65
472.888	2.8
473.088	2.74
473.288	2.65
473.488	2.61
473.688	2.76
473.887	2.63
474.087	2.57
474.287	2.6
474.487	2.52
474.687	2.54
474.886	2.5
475.086	2.46
475.286	2.43
475.486	2.44
475.685	2.37
475.885	2.28
476.085	2.39
476.284	2.4
476.484	2.35
476.684	2.29
476.883	2.47
477.083	2.29
477.282	2.24
477.482	2.31
477.681	2.26
477.881	2.15
478.08	2.2
478.28	2.11
478.479	2.16
478.679	2.24
478.878	2.16
479.078	2.14
479.277	2.16
479.477	2.15
479.676	2.13
479.875	2.12
480.075	2.03
480.274	2.1
480.473	2.16
480.673	2.13
480.872	2.19
481.071	2.11
481.271	2.13
481.47	2.07
481.669	2.1
481.868	2.04
482.067	2.04
482.267	1.99
482.466	2.02
482.665	1.98
482.864	2.04
483.063	1.98
483.262	2.09
483.461	2.12
483.661	2.17
483.86	2.08
484.059	2.11
484.258	2.16
484.457	2.04
484.656	2.08
484.855	2.19
485.054	1.97
485.253	2.02
485.452	2.02
485.651	2.13
485.849	2.13
486.048	2.05
486.247	2.1
486.446	2.17
486.645	2.08
486.844	2.14
487.043	2.08
487.241	2.16
487.44	2.14
487.639	2.19
487.838	2.17
488.037	2.14
488.235	2.27
488.434	2.23
488.633	2.1
488.831	2.28
489.03	2.31
489.229	2.22
489.427	2.28
489.626	2.33
489.825	2.32
490.023	2.37
490.222	2.3
490.42	2.38
490.619	2.4
490.817	2.39
491.016	2.4
491.214	2.48
491.413	2.46
491.611	2.42
491.81	2.41
492.008	2.49
492.207	2.59
492.405	2.55
492.604	2.46
492.802	2.56
493	2.62
493.199	2.69
493.397	2.64
493.595	2.7
493.794	2.68
493.992	2.76
494.19	2.76
494.388	2.82
494.587	2.78
494.785	2.81
494.983	2.72
495.181	2.91
495.379	2.94
495.578	2.92
495.776	2.97
495.974	2.93
496.172	2.97
496.37	3.12
496.568	3.09
496.766	3.05
496.964	3.18
497.162	3.21
497.36	3.2
497.558	3.25
497.756	3.31
497.954	3.33
498.152	3.34
498.35	3.41
498.548	3.37
498.746	3.36
498.944	3.39
499.142	3.42
499.34	3.53
499.538	3.6
499.736	3.49
499.933	3.65
500.131	3.64
500.329	3.77
500.527	3.67
500.725	3.84
500.922	3.89
501.12	3.81
501.318	3.93
501.516	3.92
501.713	3.96
501.911	3.97
502.109	3.99
502.306	4.02
