Data from Apollo_Calib_20240827__AbsoluteIrradiance__25__23-34-01-017.txt Node

Date: Tue Aug 27 23:34:01 BST 2024
User: biology
Spectrometer: FLMT08252
Trigger mode: 0
Integration Time (sec): 5.000000E-1
Scans to average: 5
Electric dark correction enabled: true
Nonlinearity correction enabled: false
Boxcar width: 0
XAxis mode: Wavelengths
Number of Pixels in Spectrum: 3648
>>>>>Begin Spectral Data<<<<<
179.588	-0
179.809	-0
180.03	-0
180.251	-0
180.473	-0
180.694	0
180.915	0
181.136	-0
181.357	0
181.578	0
181.799	0
182.02	-0
182.241	-0
182.462	-0
182.683	0
182.904	-0
183.125	-0
183.346	0
183.567	0
183.788	0
184.009	0
184.23	0
184.451	0
184.672	0
184.892	0
185.113	0
185.334	0
185.555	0
185.776	0
185.996	0
186.217	0
186.438	0
186.659	0
186.879	0
187.1	0
187.321	0
187.541	0
187.762	0
187.983	0
188.203	0
188.424	0
188.644	0
188.865	0
189.086	0
189.306	0
189.527	0
189.747	0
189.968	0
190.188	0
190.409	0
190.629	0
190.849	0
191.07	0
191.29	0
191.511	0
191.731	0
191.951	0
192.172	0
192.392	0
192.612	0
192.833	0
193.053	0
193.273	0
193.493	0
193.714	0
193.934	0
194.154	0
194.374	0
194.594	0
194.815	0
195.035	0
195.255	0
195.475	0
195.695	0
195.915	0
196.135	0
196.355	0
196.575	0
196.795	0
197.015	0
197.235	0
197.455	0
197.675	0
197.895	0
198.115	0
198.335	0
198.555	0
198.775	0
198.995	0
199.214	0
199.434	0
199.654	0
199.874	0
200.094	3.93
200.313	2.52
200.533	2.8
200.753	1.98
200.973	3.27
201.192	3.28
201.412	1.69
201.632	2.27
201.851	3.71
202.071	1.72
202.291	1.88
202.51	1.74
202.73	3.22
202.95	2.13
203.169	1.68
203.389	2.11
203.608	2.59
203.828	1.95
204.047	2.23
204.267	2.42
204.486	2.4
204.706	2.02
204.925	1.65
205.145	1.57
205.364	2.33
205.583	2.58
205.803	1.48
206.022	1.35
206.242	1.69
206.461	1.58
206.68	1.28
206.9	1.79
207.119	2.15
207.338	1.85
207.557	1.44
207.777	1.28
207.996	1.58
208.215	2.18
208.434	1.28
208.654	0.81
208.873	1.47
209.092	2
209.311	1.43
209.53	1.23
209.749	1.08
209.968	1.05
210.187	1.29
210.407	0.47
210.626	1.05
210.845	1.7
211.064	1.28
211.283	0.81
211.502	1.89
211.721	1
211.94	0.83
212.159	1.38
212.377	1.32
212.596	1.46
212.815	1.05
213.034	1.19
213.253	1.23
213.472	1.37
213.691	1.03
213.91	0.65
214.128	1.15
214.347	1.56
214.566	0.78
214.785	0.77
215.003	1.16
215.222	1.12
215.441	1.05
215.66	0.56
215.878	1.06
216.097	1.23
216.316	0.65
216.534	0.96
216.753	1.08
216.972	0.62
217.19	0.8
217.409	0.86
217.627	0.79
217.846	0.81
218.064	0.93
218.283	0.67
218.501	1.39
218.72	1.11
218.938	0.65
219.157	0.71
219.375	1.03
219.594	1.1
219.812	0.66
220.031	0.71
220.249	1.17
220.467	1.23
220.686	0.79
220.904	0.62
221.122	0.77
221.341	1.24
221.559	0.73
221.777	0.63
221.995	0.85
222.214	0.86
222.432	0.65
222.65	0.9
222.868	0.83
223.086	0.87
223.305	0.83
223.523	0.83
223.741	0.93
223.959	0.5
224.177	0.42
224.395	0.59
224.613	0.88
224.831	0.99
225.049	0.67
225.267	0.61
225.485	0.8
225.703	0.65
225.921	0.66
226.139	0.59
226.357	0.7
226.575	0.83
226.793	0.58
227.011	1.19
227.229	0.67
227.447	0.84
227.665	0.65
227.883	0.4
228.1	0.69
228.318	0.64
228.536	0.36
228.754	0.53
228.972	0.7
229.189	0.81
229.407	0.69
229.625	0.58
229.843	0.89
230.06	0.85
230.278	0.57
230.496	0.65
230.713	0.77
230.931	0.69
231.149	0.43
231.366	0.4
231.584	0.65
231.801	0.87
232.019	0.57
232.236	0.51
232.454	0.56
232.671	0.76
232.889	0.51
233.106	0.44
233.324	0.56
233.541	0.54
233.759	0.56
233.976	0.42
234.194	0.64
234.411	0.6
234.628	0.43
234.846	0.54
235.063	0.65
235.28	0.48
235.498	0.55
235.715	0.51
235.932	0.66
236.149	0.58
236.367	0.47
236.584	0.61
236.801	0.47
237.018	0.65
237.236	0.56
237.453	0.43
237.67	0.73
237.887	0.47
238.104	0.46
238.321	0.35
238.538	0.44
238.755	0.56
238.973	0.33
239.19	0.49
239.407	0.66
239.624	0.53
239.841	0.39
240.058	0.43
240.275	0.59
240.492	0.51
240.709	0.45
240.925	0.37
241.142	0.42
241.359	0.42
241.576	0.37
241.793	0.37
242.01	0.46
242.227	0.68
242.444	0.5
242.66	0.63
242.877	0.49
243.094	0.53
243.311	0.45
243.527	0.49
243.744	0.43
243.961	0.61
244.178	0.45
244.394	0.55
244.611	0.59
244.828	0.67
245.044	0.41
245.261	0.44
245.477	0.5
245.694	0.6
245.911	0.39
246.127	0.42
246.344	0.67
246.56	0.57
246.777	0.36
246.993	0.49
247.21	0.53
247.426	0.57
247.643	0.33
247.859	0.32
248.076	0.42
248.292	0.67
248.508	0.35
248.725	0.4
248.941	0.51
249.157	0.47
249.374	0.46
249.59	0.41
249.806	0.43
250.023	0.51
250.239	0.32
250.455	0.38
250.671	0.48
250.888	0.45
251.104	0.52
251.32	0.37
251.536	0.37
251.752	0.44
251.969	0.52
252.185	0.52
252.401	0.61
252.617	0.43
252.833	0.46
253.049	0.4
253.265	0.4
253.481	0.45
253.697	0.43
253.913	0.36
254.129	0.55
254.345	0.43
254.561	0.42
254.777	0.43
254.993	0.44
255.209	0.46
255.425	0.35
255.641	0.35
255.857	0.54
256.073	0.42
256.288	0.39
256.504	0.37
256.72	0.41
256.936	0.52
257.152	0.38
257.367	0.37
257.583	0.44
257.799	0.47
258.015	0.37
258.23	0.36
258.446	0.55
258.662	0.35
258.877	0.32
259.093	0.32
259.309	0.5
259.524	0.45
259.74	0.33
259.955	0.24
260.171	0.41
260.387	0.35
260.602	0.44
260.818	0.46
261.033	0.27
261.249	0.37
261.464	0.33
261.68	0.35
261.895	0.45
262.11	0.44
262.326	0.41
262.541	0.27
262.757	0.47
262.972	0.42
263.187	0.41
263.403	0.35
263.618	0.5
263.833	0.35
264.049	0.3
264.264	0.43
264.479	0.44
264.694	0.46
264.91	0.33
265.125	0.34
265.34	0.48
265.555	0.53
265.77	0.39
265.986	0.34
266.201	0.36
266.416	0.43
266.631	0.37
266.846	0.35
267.061	0.4
267.276	0.37
267.491	0.22
267.706	0.36
267.921	0.4
268.136	0.4
268.351	0.37
268.566	0.27
268.781	0.44
268.996	0.38
269.211	0.32
269.426	0.31
269.641	0.36
269.856	0.34
270.071	0.38
270.285	0.21
270.5	0.4
270.715	0.37
270.93	0.29
271.145	0.41
271.359	0.44
271.574	0.31
271.789	0.38
272.004	0.37
272.218	0.3
272.433	0.43
272.648	0.27
272.862	0.32
273.077	0.36
273.292	0.35
273.506	0.31
273.721	0.35
273.936	0.34
274.15	0.37
274.365	0.37
274.579	0.39
274.794	0.38
275.008	0.39
275.223	0.24
275.437	0.32
275.652	0.48
275.866	0.4
276.081	0.27
276.295	0.43
276.509	0.39
276.724	0.29
276.938	0.32
277.153	0.35
277.367	0.38
277.581	0.27
277.796	0.34
278.01	0.32
278.224	0.41
278.438	0.46
278.653	0.24
278.867	0.29
279.081	0.21
279.295	0.3
279.51	0.3
279.724	0.24
279.938	0.35
280.152	0.33
280.366	0.25
280.58	0.33
280.794	0.45
281.008	0.34
281.222	0.39
281.437	0.43
281.651	0.32
281.865	0.43
282.079	0.21
282.293	0.21
282.507	0.31
282.721	0.33
282.935	0.31
283.148	0.24
283.362	0.28
283.576	0.26
283.79	0.33
284.004	0.25
284.218	0.4
284.432	0.26
284.646	0.29
284.859	0.28
285.073	0.33
285.287	0.33
285.501	0.29
285.714	0.28
285.928	0.35
286.142	0.27
286.356	0.31
286.569	0.28
286.783	0.38
286.997	0.33
287.21	0.37
287.424	0.32
287.637	0.25
287.851	0.33
288.065	0.36
288.278	0.3
288.492	0.32
288.705	0.24
288.919	0.36
289.132	0.22
289.346	0.35
289.559	0.24
289.773	0.3
289.986	0.28
290.2	0.27
290.413	0.34
290.626	0.27
290.84	0.28
291.053	0.27
291.267	0.32
291.48	0.25
291.693	0.3
291.906	0.26
292.12	0.3
292.333	0.25
292.546	0.27
292.76	0.37
292.973	0.33
293.186	0.3
293.399	0.27
293.612	0.32
293.826	0.27
294.039	0.26
294.252	0.33
294.465	0.34
294.678	0.35
294.891	0.28
295.104	0.22
295.317	0.23
295.53	0.29
295.743	0.31
295.956	0.27
296.169	0.33
296.382	0.29
296.595	0.27
296.808	0.25
297.021	0.32
297.234	0.26
297.447	0.29
297.66	0.28
297.873	0.33
298.086	0.29
298.299	0.23
298.511	0.22
298.724	0.3
298.937	0.2
299.15	0.23
299.363	0.21
299.575	0.31
299.788	0.3
300.001	0.32
300.213	0.28
300.426	0.28
300.639	0.24
300.852	0.23
301.064	0.25
301.277	0.33
301.489	0.23
301.702	0.29
301.915	0.26
302.127	0.27
302.34	0.31
302.552	0.31
302.765	0.23
302.977	0.3
303.19	0.24
303.402	0.23
303.615	0.22
303.827	0.28
304.04	0.25
304.252	0.3
304.464	0.28
304.677	0.38
304.889	0.28
305.102	0.23
305.314	0.22
305.526	0.31
305.739	0.32
305.951	0.26
306.163	0.23
306.375	0.32
306.588	0.21
306.8	0.26
307.012	0.2
307.224	0.25
307.436	0.33
307.649	0.2
307.861	0.27
308.073	0.33
308.285	0.24
308.497	0.18
308.709	0.26
308.921	0.33
309.133	0.31
309.346	0.28
309.558	0.23
309.77	0.3
309.982	0.35
310.194	0.3
310.406	0.25
310.617	0.37
310.829	0.26
311.041	0.3
311.253	0.22
311.465	0.28
311.677	0.25
311.889	0.28
312.101	0.23
312.313	0.33
312.524	0.29
312.736	0.21
312.948	0.29
313.16	0.32
313.372	0.29
313.583	0.29
313.795	0.28
314.007	0.2
314.218	0.28
314.43	0.28
314.642	0.29
314.853	0.23
315.065	0.29
315.277	0.24
315.488	0.25
315.7	0.29
315.912	0.29
316.123	0.22
316.335	0.27
316.546	0.39
316.758	0.24
316.969	0.28
317.181	0.26
317.392	0.27
317.604	0.27
317.815	0.2
318.026	0.23
318.238	0.25
318.449	0.3
318.661	0.17
318.872	0.21
319.083	0.21
319.295	0.33
319.506	0.22
319.717	0.28
319.929	0.28
320.14	0.25
320.351	0.26
320.562	0.24
320.774	0.34
320.985	0.27
321.196	0.23
321.407	0.17
321.618	0.32
321.829	0.3
322.041	0.29
322.252	0.26
322.463	0.26
322.674	0.3
322.885	0.23
323.096	0.25
323.307	0.27
323.518	0.3
323.729	0.21
323.94	0.27
324.151	0.21
324.362	0.24
324.573	0.24
324.784	0.27
324.995	0.3
325.206	0.3
325.417	0.25
325.628	0.21
325.838	0.26
326.049	0.25
326.26	0.28
326.471	0.25
326.682	0.29
326.892	0.29
327.103	0.21
327.314	0.22
327.525	0.32
327.735	0.29
327.946	0.27
328.157	0.2
328.368	0.31
328.578	0.21
328.789	0.33
328.999	0.32
329.21	0.22
329.421	0.27
329.631	0.27
329.842	0.19
330.052	0.3
330.263	0.31
330.473	0.31
330.684	0.23
330.894	0.25
331.105	0.3
331.315	0.21
331.526	0.19
331.736	0.33
331.947	0.32
332.157	0.29
332.367	0.23
332.578	0.32
332.788	0.34
332.999	0.28
333.209	0.27
333.419	0.19
333.629	0.24
333.84	0.28
334.05	0.28
334.26	0.37
334.47	0.31
334.681	0.31
334.891	0.23
335.101	0.25
335.311	0.38
335.521	0.26
335.732	0.23
335.942	0.33
336.152	0.29
336.362	0.27
336.572	0.25
336.782	0.25
336.992	0.26
337.202	0.22
337.412	0.26
337.622	0.24
337.832	0.27
338.042	0.25
338.252	0.21
338.462	0.27
338.672	0.31
338.882	0.26
339.092	0.27
339.302	0.32
339.511	0.31
339.721	0.24
339.931	0.22
340.141	0.27
340.351	0.31
340.561	0.26
340.77	0.29
340.98	0.25
341.19	0.28
341.4	0.24
341.609	0.22
341.819	0.24
342.029	0.22
342.238	0.25
342.448	0.22
342.658	0.29
342.867	0.26
343.077	0.27
343.286	0.28
343.496	0.3
343.706	0.36
343.915	0.19
344.125	0.28
344.334	0.28
344.544	0.25
344.753	0.27
344.963	0.24
345.172	0.24
345.381	0.21
345.591	0.24
345.8	0.22
346.01	0.3
346.219	0.29
346.428	0.16
346.638	0.24
346.847	0.25
347.056	0.32
347.266	0.23
347.475	0.24
347.684	0.26
347.893	0.3
348.103	0.26
348.312	0.23
348.521	0.24
348.73	0.26
348.94	0.27
349.149	0.21
349.358	0.22
349.567	0.22
349.776	0.19
349.985	0.23
350.194	0.31
350.403	0.29
350.612	0.19
350.821	0.24
351.03	0.24
351.239	0.23
351.448	0.23
351.657	0.22
351.866	0.29
352.075	0.29
352.284	0.28
352.493	0.2
352.702	0.29
352.911	0.3
353.12	0.3
353.329	0.22
353.538	0.28
353.746	0.23
353.955	0.22
354.164	0.29
354.373	0.25
354.582	0.32
354.79	0.23
354.999	0.3
355.208	0.26
355.416	0.26
355.625	0.22
355.834	0.24
356.042	0.23
356.251	0.21
356.46	0.21
356.668	0.28
356.877	0.33
357.085	0.29
357.294	0.24
357.503	0.29
357.711	0.28
357.92	0.33
358.128	0.25
358.337	0.25
358.545	0.27
358.754	0.25
358.962	0.24
359.17	0.28
359.379	0.24
359.587	0.26
359.796	0.26
360.004	0.3
360.212	0.28
360.421	0.3
360.629	0.26
360.837	0.23
361.046	0.26
361.254	0.39
361.462	0.23
361.67	0.26
361.879	0.26
362.087	0.31
362.295	0.28
362.503	0.24
362.711	0.22
362.92	0.24
363.128	0.22
363.336	0.21
363.544	0.16
363.752	0.26
363.96	0.21
364.168	0.2
364.376	0.22
364.584	0.29
364.792	0.32
365	0.28
365.208	0.24
365.416	0.27
365.624	0.32
365.832	0.19
366.04	0.33
366.248	0.25
366.456	0.28
366.664	0.29
366.872	0.25
367.079	0.23
367.287	0.22
367.495	0.24
367.703	0.27
367.911	0.21
368.118	0.25
368.326	0.23
368.534	0.23
368.742	0.28
368.949	0.19
369.157	0.24
369.365	0.25
369.572	0.22
369.78	0.2
369.988	0.26
370.195	0.3
370.403	0.29
370.61	0.25
370.818	0.27
371.026	0.33
371.233	0.24
371.441	0.28
371.648	0.27
371.856	0.23
372.063	0.26
372.271	0.25
372.478	0.25
372.685	0.24
372.893	0.3
373.1	0.28
373.308	0.21
373.515	0.35
373.722	0.29
373.93	0.2
374.137	0.31
374.344	0.31
374.552	0.31
374.759	0.31
374.966	0.22
375.173	0.25
375.381	0.35
375.588	0.24
375.795	0.2
376.002	0.21
376.209	0.23
376.417	0.28
376.624	0.32
376.831	0.27
377.038	0.24
377.245	0.17
377.452	0.22
377.659	0.32
377.866	0.25
378.073	0.28
378.28	0.24
378.487	0.32
378.694	0.28
378.901	0.27
379.108	0.26
379.315	0.29
379.522	0.35
379.729	0.26
379.936	0.26
380.143	0.27
380.35	0.28
380.557	0.25
380.763	0.3
380.97	0.25
381.177	0.24
381.384	0.32
381.591	0.27
381.797	0.27
382.004	0.32
382.211	0.3
382.418	0.26
382.624	0.28
382.831	0.31
383.038	0.28
383.244	0.29
383.451	0.3
383.658	0.33
383.864	0.31
384.071	0.27
384.277	0.29
384.484	0.32
384.69	0.34
384.897	0.24
385.103	0.25
385.31	0.25
385.516	0.24
385.723	0.28
385.929	0.26
386.136	0.2
386.342	0.3
386.549	0.28
386.755	0.34
386.961	0.35
387.168	0.3
387.374	0.28
387.58	0.29
387.787	0.31
387.993	0.31
388.199	0.27
388.406	0.26
388.612	0.28
388.818	0.27
389.024	0.29
389.231	0.31
389.437	0.38
389.643	0.36
389.849	0.28
390.055	0.32
390.261	0.3
390.467	0.29
390.674	0.28
390.88	0.31
391.086	0.34
391.292	0.27
391.498	0.33
391.704	0.34
391.91	0.27
392.116	0.28
392.322	0.21
392.528	0.33
392.734	0.26
392.94	0.3
393.146	0.29
393.352	0.34
393.557	0.28
393.763	0.31
393.969	0.32
394.175	0.3
394.381	0.33
394.587	0.29
394.792	0.29
394.998	0.34
395.204	0.38
395.41	0.32
395.615	0.34
395.821	0.35
396.027	0.34
396.233	0.27
396.438	0.32
396.644	0.38
396.85	0.36
397.055	0.31
397.261	0.37
397.466	0.35
397.672	0.37
397.878	0.38
398.083	0.31
398.289	0.33
398.494	0.41
398.7	0.41
398.905	0.29
399.111	0.45
399.316	0.31
399.522	0.37
399.727	0.31
399.932	0.34
400.138	0.35
400.343	0.37
400.549	0.31
400.754	0.34
400.959	0.37
401.165	0.37
401.37	0.38
401.575	0.48
401.78	0.33
401.986	0.37
402.191	0.35
402.396	0.42
402.601	0.45
402.807	0.4
403.012	0.39
403.217	0.43
403.422	0.39
403.627	0.43
403.832	0.37
404.037	0.48
404.243	0.45
404.448	0.46
404.653	0.46
404.858	0.46
405.063	0.45
405.268	0.44
405.473	0.37
405.678	0.44
405.883	0.54
406.088	0.5
406.293	0.34
406.498	0.43
406.703	0.52
406.907	0.49
407.112	0.45
407.317	0.51
407.522	0.57
407.727	0.47
407.932	0.57
408.136	0.66
408.341	0.55
408.546	0.63
408.751	0.54
408.956	0.61
409.16	0.73
409.365	0.64
409.57	0.59
409.774	0.59
409.979	0.67
410.184	0.71
410.388	0.66
410.593	0.78
410.798	0.72
411.002	0.74
411.207	0.77
411.411	0.84
411.616	0.74
411.82	0.87
412.025	0.83
412.229	0.88
412.434	0.92
412.638	0.91
412.843	0.87
413.047	0.95
413.252	0.96
413.456	1.01
413.66	1.06
413.865	1.04
414.069	1.17
414.273	1.14
414.478	1.15
414.682	1.17
414.886	1.17
415.091	1.18
415.295	1.24
415.499	1.4
415.703	1.37
415.908	1.44
416.112	1.37
416.316	1.57
416.52	1.52
416.724	1.52
416.929	1.59
417.133	1.82
417.337	1.72
417.541	1.8
417.745	1.78
417.949	1.94
418.153	1.99
418.357	2.01
418.561	2.21
418.765	2.16
418.969	2.31
419.173	2.41
419.377	2.4
419.581	2.62
419.785	2.59
419.989	2.61
420.193	2.78
420.397	2.87
420.601	3.02
420.804	3.09
421.008	3.07
421.212	3.17
421.416	3.26
421.62	3.22
421.823	3.32
422.027	3.49
422.231	3.38
422.435	3.49
422.638	3.48
422.842	3.66
423.046	3.67
423.249	3.96
423.453	3.89
423.657	3.99
423.86	4.09
424.064	4.2
424.268	4.4
424.471	4.46
424.675	4.72
424.878	4.72
425.082	4.83
425.285	5.17
425.489	5.07
425.692	5.21
425.896	5.22
426.099	5.45
426.303	5.62
426.506	5.76
426.71	5.92
426.913	6.09
427.116	6.2
427.32	6.24
427.523	6.46
427.726	6.61
427.93	6.68
428.133	6.96
428.336	7.2
428.54	7.29
428.743	7.63
428.946	7.77
429.149	7.78
429.353	7.89
429.556	8
429.759	8.02
429.962	8.13
430.165	8.27
430.368	7.94
430.571	7.99
430.775	8.08
430.978	8.04
431.181	8.1
431.384	8.23
431.587	8.3
431.79	8.7
431.993	8.56
432.196	8.9
432.399	9.38
432.602	9.37
432.805	9.42
433.008	10.04
433.211	9.93
433.414	10.25
433.616	10.17
433.819	10.2
434.022	10.43
434.225	10.62
434.428	10.61
434.631	11.03
434.833	10.75
435.036	11.03
435.239	11.23
435.442	11.34
435.645	11.47
435.847	11.51
436.05	11.92
436.253	12.1
436.455	12.04
436.658	11.99
436.861	12.32
437.063	12.35
437.266	12.4
437.468	12.74
437.671	13
437.874	13.16
438.076	12.96
438.279	13.35
438.481	13.41
438.684	14.21
438.886	13.76
439.089	14.05
439.291	14.01
439.494	14.51
439.696	14.61
439.899	15.23
440.101	15.51
440.303	15.76
440.506	16.52
440.708	16.22
440.91	16.39
441.113	16.66
441.315	16.92
441.517	16.63
441.72	17.1
441.922	16.82
442.124	16.83
442.326	17.14
442.529	17.2
442.731	17.4
442.933	17.73
443.135	17.34
443.337	17.47
443.539	17.95
443.742	17.66
443.944	18.25
444.146	18
444.348	18.05
444.55	17.91
444.752	18.1
444.954	18.13
445.156	18.08
445.358	18.41
445.56	18.65
445.762	18.44
445.964	18.77
446.166	18.55
446.368	18.73
446.57	18.59
446.772	18.1
446.974	17.98
447.175	18.25
447.377	17.93
447.579	18.47
447.781	18.15
447.983	17.96
448.184	17.4
448.386	17.74
448.588	17.45
448.79	17.19
448.991	17.56
449.193	17.64
449.395	16.92
449.597	16.58
449.798	16.37
450	15.9
450.202	15.86
450.403	16.02
450.605	15.86
450.806	15.56
451.008	15.36
451.21	15.17
451.411	14.71
451.613	13.87
451.814	14.2
452.016	14.15
452.217	13.34
452.419	13.49
452.62	13.1
452.821	12.86
453.023	12.72
453.224	12.36
453.426	12.03
453.627	11.18
453.828	11.36
454.03	11.41
454.231	11.51
454.432	11.25
454.634	10.88
454.835	10.6
455.036	10.49
455.238	10.09
455.439	9.89
455.64	9.5
455.841	9.54
456.042	9.51
456.244	9.26
456.445	9.07
456.646	8.66
456.847	8.63
457.048	8.56
457.249	8.67
457.45	8.27
457.651	7.89
457.852	7.73
458.054	7.34
458.255	7.37
458.456	7.38
458.657	7.19
458.858	6.82
459.058	6.76
459.259	6.77
459.46	6.45
459.661	6.5
459.862	6.47
460.063	6.39
460.264	6.4
460.465	6.08
460.666	6.07
460.866	5.82
461.067	5.6
461.268	5.66
461.469	5.58
461.67	5.45
461.87	5.24
462.071	5.34
462.272	5.2
462.473	5.1
462.673	5.23
462.874	5.13
463.075	5.15
463.275	5.21
463.476	5.16
463.676	5.11
463.877	5.01
464.078	4.95
464.278	5.07
464.479	4.81
464.679	4.79
464.88	4.75
465.08	4.64
465.281	4.55
465.481	4.36
465.682	4.09
465.882	4.22
466.083	4.1
466.283	4.11
466.483	3.94
466.684	3.71
466.884	3.71
467.085	3.72
467.285	3.77
467.485	3.6
467.686	3.61
467.886	3.43
468.086	3.44
468.286	3.4
468.487	3.53
468.687	3.31
468.887	3.3
469.087	3.39
469.287	3.27
469.488	3.08
469.688	3.18
469.888	3.19
470.088	3.16
470.288	3.1
470.488	3.07
470.688	2.9
470.888	2.89
471.088	2.72
471.288	2.87
471.488	2.85
471.688	2.74
471.888	2.68
472.088	2.82
472.288	2.76
472.488	2.6
472.688	2.53
472.888	2.66
473.088	2.65
473.288	2.5
473.488	2.47
473.688	2.64
473.887	2.53
474.087	2.46
474.287	2.46
474.487	2.42
474.687	2.45
474.886	2.39
475.086	2.31
475.286	2.35
475.486	2.32
475.685	2.25
475.885	2.31
476.085	2.3
476.284	2.28
476.484	2.24
476.684	2.22
476.883	2.29
477.083	2.19
477.282	2.13
477.482	2.15
477.681	2.18
477.881	2.04
478.08	2.11
478.28	2.05
478.479	2.14
478.679	2.15
478.878	2.07
479.078	2.04
479.277	2.1
479.477	2.05
479.676	2.04
479.875	2.01
480.075	1.99
480.274	2.06
480.473	2.07
480.673	2.02
480.872	2.13
481.071	2.06
481.271	2.03
481.47	2.02
481.669	2.06
481.868	1.99
482.067	2.02
482.267	1.97
482.466	1.94
482.665	1.97
482.864	1.94
483.063	1.97
483.262	2.01
483.461	2.06
483.661	2.05
483.86	1.98
484.059	2.04
484.258	2.04
484.457	2.07
484.656	2.05
484.855	2.08
485.054	1.96
485.253	1.96
485.452	1.95
485.651	2.06
485.849	2.04
486.048	1.99
486.247	2.01
486.446	2.08
486.645	2.05
486.844	2.08
487.043	2.06
487.241	2.12
487.44	2.06
487.639	2.15
487.838	2.12
488.037	2.1
488.235	2.18
488.434	2.17
488.633	2.05
488.831	2.2
489.03	2.22
489.229	2.22
489.427	2.22
489.626	2.22
489.825	2.28
490.023	2.29
490.222	2.28
490.42	2.26
490.619	2.34
490.817	2.39
491.016	2.33
491.214	2.42
491.413	2.43
491.611	2.4
491.81	2.45
492.008	2.46
492.207	2.54
492.405	2.54
492.604	2.46
492.802	2.53
493	2.61
493.199	2.62
493.397	2.62
493.595	2.69
493.794	2.68
493.992	2.8
494.19	2.76
494.388	2.8
494.587	2.72
494.785	2.81
494.983	2.7
495.181	2.83
495.379	2.91
495.578	2.96
495.776	2.94
495.974	2.92
496.172	2.95
496.37	3.09
496.568	3.12
496.766	3.13
496.964	3.21
497.162	3.18
497.36	3.2
497.558	3.26
497.756	3.3
497.954	3.27
498.152	3.33
498.35	3.44
498.548	3.34
498.746	3.38
498.944	3.38
499.142	3.46
499.34	3.44
499.538	3.63
499.736	3.5
499.933	3.62
500.131	3.57
500.329	3.76
500.527	3.72
500.725	3.81
500.922	3.89
501.12	3.83
501.318	3.96
501.516	3.92
501.713	4
501.911	3.94
502.109	3.91
502.306	4.05
502.504	3.96
