Data from Apollo_Calib_20240827__AbsoluteIrradiance__778__12-07-00-588.txt Node

Date: Wed Aug 28 12:07:00 BST 2024
User: biology
Spectrometer: FLMT08252
Trigger mode: 0
Integration Time (sec): 5.000000E-1
Scans to average: 5
Electric dark correction enabled: true
Nonlinearity correction enabled: false
Boxcar width: 0
XAxis mode: Wavelengths
Number of Pixels in Spectrum: 3648
>>>>>Begin Spectral Data<<<<<
179.588	-0
179.809	-0
180.03	-0
180.251	-0
180.473	-0
180.694	0
180.915	0
181.136	-0
181.357	0
181.578	0
181.799	-0
182.02	-0
182.241	0
182.462	-0
182.683	0
182.904	-0
183.125	-0
183.346	0
183.567	0
183.788	0
184.009	0
184.23	0
184.451	0
184.672	0
184.892	0
185.113	0
185.334	0
185.555	0
185.776	0
185.996	0
186.217	0
186.438	0
186.659	0
186.879	0
187.1	0
187.321	0
187.541	0
187.762	0
187.983	0
188.203	0
188.424	0
188.644	0
188.865	0
189.086	0
189.306	0
189.527	0
189.747	0
189.968	0
190.188	0
190.409	0
190.629	0
190.849	0
191.07	0
191.29	0
191.511	0
191.731	0
191.951	0
192.172	0
192.392	0
192.612	0
192.833	0
193.053	0
193.273	0
193.493	0
193.714	0
193.934	0
194.154	0
194.374	0
194.594	0
194.815	0
195.035	0
195.255	0
195.475	0
195.695	0
195.915	0
196.135	0
196.355	0
196.575	0
196.795	0
197.015	0
197.235	0
197.455	0
197.675	0
197.895	0
198.115	0
198.335	0
198.555	0
198.775	0
198.995	0
199.214	0
199.434	0
199.654	0
199.874	0
200.094	3.89
200.313	2.44
200.533	2.1
200.753	1.63
200.973	4.24
201.192	3.41
201.412	1.09
201.632	1.72
201.851	3.81
202.071	1.69
202.291	1.97
202.51	1.63
202.73	3.14
202.95	1.72
203.169	1.69
203.389	1.64
203.608	2.31
203.828	1.99
204.047	1.33
204.267	2.45
204.486	1.92
204.706	2.34
204.925	2.06
205.145	1.39
205.364	2.24
205.583	2.84
205.803	1.31
206.022	1.09
206.242	1.41
206.461	1.78
206.68	1.22
206.9	1.81
207.119	2.51
207.338	2.26
207.557	1.22
207.777	1.23
207.996	1.73
208.215	1.86
208.434	1.2
208.654	0.95
208.873	1.65
209.092	2.15
209.311	1.08
209.53	1.17
209.749	1.19
209.968	1.17
210.187	1.22
210.407	0.91
210.626	1.26
210.845	1.66
211.064	1.35
211.283	0.83
211.502	1.61
211.721	1.36
211.94	1.15
212.159	1.48
212.377	1.57
212.596	1.56
212.815	1.16
213.034	1.3
213.253	1.59
213.472	1.38
213.691	1.27
213.91	0.98
214.128	0.84
214.347	1.62
214.566	0.71
214.785	0.63
215.003	1.17
215.222	1.2
215.441	0.96
215.66	0.62
215.878	1.2
216.097	1.17
216.316	0.9
216.534	0.96
216.753	1.04
216.972	0.74
217.19	0.89
217.409	0.76
217.627	0.86
217.846	0.78
218.064	0.99
218.283	0.7
218.501	1.58
218.72	1.24
218.938	0.8
219.157	0.6
219.375	1.15
219.594	1.14
219.812	0.52
220.031	0.68
220.249	1.1
220.467	1.19
220.686	0.51
220.904	0.46
221.122	0.83
221.341	1.22
221.559	0.92
221.777	0.57
221.995	0.74
222.214	0.91
222.432	0.71
222.65	0.91
222.868	0.85
223.086	0.89
223.305	1.1
223.523	0.65
223.741	1.14
223.959	0.76
224.177	0.32
224.395	0.61
224.613	0.93
224.831	0.96
225.049	0.51
225.267	0.68
225.485	0.85
225.703	0.6
225.921	0.75
226.139	0.53
226.357	0.89
226.575	0.82
226.793	0.63
227.011	1.62
227.229	0.71
227.447	0.91
227.665	0.62
227.883	0.39
228.1	0.72
228.318	0.84
228.536	0.39
228.754	0.48
228.972	0.75
229.189	0.84
229.407	0.5
229.625	0.65
229.843	0.9
230.06	0.85
230.278	0.6
230.496	0.55
230.713	0.69
230.931	0.81
231.149	0.57
231.366	0.35
231.584	0.48
231.801	0.94
232.019	0.49
232.236	0.47
232.454	0.49
232.671	0.66
232.889	0.49
233.106	0.42
233.324	0.57
233.541	0.52
233.759	0.58
233.976	0.38
234.194	0.6
234.411	0.55
234.628	0.36
234.846	0.56
235.063	0.61
235.28	0.69
235.498	0.55
235.715	0.42
235.932	0.77
236.149	0.52
236.367	0.34
236.584	0.6
236.801	0.49
237.018	0.67
237.236	0.57
237.453	0.38
237.67	0.69
237.887	0.6
238.104	0.5
238.321	0.37
238.538	0.39
238.755	0.73
238.973	0.36
239.19	0.53
239.407	0.61
239.624	0.54
239.841	0.22
240.058	0.4
240.275	0.6
240.492	0.56
240.709	0.48
240.925	0.33
241.142	0.58
241.359	0.41
241.576	0.34
241.793	0.44
242.01	0.5
242.227	0.74
242.444	0.59
242.66	0.6
242.877	0.61
243.094	0.37
243.311	0.53
243.527	0.44
243.744	0.65
243.961	0.62
244.178	0.39
244.394	0.4
244.611	0.64
244.828	0.75
245.044	0.34
245.261	0.43
245.477	0.57
245.694	0.59
245.911	0.34
246.127	0.5
246.344	0.68
246.56	0.66
246.777	0.31
246.993	0.5
247.21	0.54
247.426	0.53
247.643	0.39
247.859	0.29
248.076	0.35
248.292	0.71
248.508	0.34
248.725	0.49
248.941	0.51
249.157	0.63
249.374	0.31
249.59	0.43
249.806	0.37
250.023	0.71
250.239	0.36
250.455	0.35
250.671	0.46
250.888	0.46
251.104	0.57
251.32	0.35
251.536	0.44
251.752	0.47
251.969	0.45
252.185	0.43
252.401	0.71
252.617	0.49
252.833	0.38
253.049	0.5
253.265	0.39
253.481	0.4
253.697	0.38
253.913	0.31
254.129	0.45
254.345	0.46
254.561	0.38
254.777	0.38
254.993	0.55
255.209	0.48
255.425	0.4
255.641	0.33
255.857	0.54
256.073	0.45
256.288	0.27
256.504	0.32
256.72	0.47
256.936	0.58
257.152	0.4
257.367	0.29
257.583	0.44
257.799	0.44
258.015	0.34
258.23	0.31
258.446	0.58
258.662	0.39
258.877	0.37
259.093	0.28
259.309	0.41
259.524	0.44
259.74	0.35
259.955	0.32
260.171	0.38
260.387	0.39
260.602	0.53
260.818	0.5
261.033	0.3
261.249	0.4
261.464	0.34
261.68	0.21
261.895	0.48
262.11	0.49
262.326	0.38
262.541	0.25
262.757	0.51
262.972	0.42
263.187	0.39
263.403	0.43
263.618	0.51
263.833	0.38
264.049	0.37
264.264	0.4
264.479	0.41
264.694	0.53
264.91	0.3
265.125	0.37
265.34	0.47
265.555	0.57
265.77	0.39
265.986	0.27
266.201	0.45
266.416	0.53
266.631	0.36
266.846	0.34
267.061	0.47
267.276	0.48
267.491	0.19
267.706	0.41
267.921	0.43
268.136	0.39
268.351	0.4
268.566	0.34
268.781	0.47
268.996	0.47
269.211	0.35
269.426	0.31
269.641	0.29
269.856	0.44
270.071	0.3
270.285	0.21
270.5	0.45
270.715	0.4
270.93	0.34
271.145	0.38
271.359	0.38
271.574	0.32
271.789	0.33
272.004	0.31
272.218	0.3
272.433	0.43
272.648	0.37
272.862	0.37
273.077	0.37
273.292	0.38
273.506	0.25
273.721	0.29
273.936	0.38
274.15	0.44
274.365	0.3
274.579	0.4
274.794	0.4
275.008	0.45
275.223	0.25
275.437	0.32
275.652	0.43
275.866	0.44
276.081	0.4
276.295	0.41
276.509	0.37
276.724	0.35
276.938	0.31
277.153	0.34
277.367	0.38
277.581	0.3
277.796	0.31
278.01	0.23
278.224	0.4
278.438	0.47
278.653	0.22
278.867	0.28
279.081	0.22
279.295	0.29
279.51	0.37
279.724	0.16
279.938	0.33
280.152	0.35
280.366	0.26
280.58	0.39
280.794	0.48
281.008	0.4
281.222	0.35
281.437	0.48
281.651	0.35
281.865	0.44
282.079	0.27
282.293	0.19
282.507	0.34
282.721	0.28
282.935	0.31
283.148	0.22
283.362	0.25
283.576	0.27
283.79	0.28
284.004	0.22
284.218	0.38
284.432	0.28
284.646	0.3
284.859	0.26
285.073	0.27
285.287	0.36
285.501	0.3
285.714	0.27
285.928	0.35
286.142	0.29
286.356	0.28
286.569	0.27
286.783	0.41
286.997	0.37
287.21	0.28
287.424	0.3
287.637	0.26
287.851	0.26
288.065	0.35
288.278	0.3
288.492	0.34
288.705	0.25
288.919	0.34
289.132	0.22
289.346	0.36
289.559	0.19
289.773	0.25
289.986	0.28
290.2	0.28
290.413	0.34
290.626	0.22
290.84	0.28
291.053	0.34
291.267	0.41
291.48	0.25
291.693	0.24
291.906	0.2
292.12	0.31
292.333	0.23
292.546	0.26
292.76	0.36
292.973	0.3
293.186	0.33
293.399	0.25
293.612	0.36
293.826	0.31
294.039	0.27
294.252	0.3
294.465	0.36
294.678	0.25
294.891	0.32
295.104	0.28
295.317	0.3
295.53	0.29
295.743	0.3
295.956	0.25
296.169	0.4
296.382	0.35
296.595	0.25
296.808	0.2
297.021	0.39
297.234	0.33
297.447	0.28
297.66	0.3
297.873	0.32
298.086	0.33
298.299	0.17
298.511	0.2
298.724	0.28
298.937	0.22
299.15	0.21
299.363	0.26
299.575	0.37
299.788	0.33
300.001	0.27
300.213	0.25
300.426	0.28
300.639	0.29
300.852	0.19
301.064	0.33
301.277	0.35
301.489	0.3
301.702	0.26
301.915	0.27
302.127	0.27
302.34	0.3
302.552	0.29
302.765	0.23
302.977	0.28
303.19	0.22
303.402	0.24
303.615	0.23
303.827	0.26
304.04	0.27
304.252	0.33
304.464	0.28
304.677	0.38
304.889	0.29
305.102	0.2
305.314	0.25
305.526	0.35
305.739	0.3
305.951	0.2
306.163	0.29
306.375	0.35
306.588	0.24
306.8	0.25
307.012	0.2
307.224	0.26
307.436	0.36
307.649	0.22
307.861	0.29
308.073	0.3
308.285	0.25
308.497	0.2
308.709	0.24
308.921	0.27
309.133	0.34
309.346	0.27
309.558	0.25
309.77	0.28
309.982	0.37
310.194	0.3
310.406	0.24
310.617	0.39
310.829	0.31
311.041	0.31
311.253	0.24
311.465	0.29
311.677	0.29
311.889	0.28
312.101	0.21
312.313	0.33
312.524	0.37
312.736	0.21
312.948	0.24
313.16	0.35
313.372	0.34
313.583	0.27
313.795	0.23
314.007	0.26
314.218	0.29
314.43	0.28
314.642	0.23
314.853	0.18
315.065	0.33
315.277	0.28
315.488	0.26
315.7	0.32
315.912	0.31
316.123	0.26
316.335	0.24
316.546	0.37
316.758	0.29
316.969	0.26
317.181	0.27
317.392	0.27
317.604	0.34
317.815	0.21
318.026	0.22
318.238	0.3
318.449	0.27
318.661	0.17
318.872	0.22
319.083	0.22
319.295	0.27
319.506	0.23
319.717	0.27
319.929	0.29
320.14	0.31
320.351	0.26
320.562	0.23
320.774	0.3
320.985	0.24
321.196	0.23
321.407	0.16
321.618	0.29
321.829	0.26
322.041	0.32
322.252	0.23
322.463	0.29
322.674	0.32
322.885	0.2
323.096	0.22
323.307	0.27
323.518	0.28
323.729	0.24
323.94	0.25
324.151	0.24
324.362	0.3
324.573	0.28
324.784	0.25
324.995	0.31
325.206	0.3
325.417	0.24
325.628	0.26
325.838	0.26
326.049	0.33
326.26	0.31
326.471	0.24
326.682	0.26
326.892	0.27
327.103	0.2
327.314	0.2
327.525	0.35
327.735	0.24
327.946	0.22
328.157	0.18
328.368	0.32
328.578	0.29
328.789	0.28
328.999	0.21
329.21	0.22
329.421	0.31
329.631	0.24
329.842	0.14
330.052	0.28
330.263	0.33
330.473	0.29
330.684	0.2
330.894	0.29
331.105	0.31
331.315	0.25
331.526	0.19
331.736	0.36
331.947	0.3
332.157	0.27
332.367	0.19
332.578	0.32
332.788	0.37
332.999	0.27
333.209	0.24
333.419	0.24
333.629	0.3
333.84	0.3
334.05	0.26
334.26	0.31
334.47	0.28
334.681	0.34
334.891	0.26
335.101	0.29
335.311	0.4
335.521	0.26
335.732	0.2
335.942	0.35
336.152	0.31
336.362	0.31
336.572	0.31
336.782	0.3
336.992	0.26
337.202	0.23
337.412	0.2
337.622	0.29
337.832	0.28
338.042	0.28
338.252	0.23
338.462	0.21
338.672	0.31
338.882	0.22
339.092	0.25
339.302	0.34
339.511	0.33
339.721	0.22
339.931	0.18
340.141	0.34
340.351	0.34
340.561	0.26
340.77	0.28
340.98	0.29
341.19	0.3
341.4	0.22
341.609	0.19
341.819	0.28
342.029	0.2
342.238	0.27
342.448	0.18
342.658	0.33
342.867	0.24
343.077	0.24
343.286	0.2
343.496	0.3
343.706	0.35
343.915	0.19
344.125	0.28
344.334	0.32
344.544	0.23
344.753	0.21
344.963	0.23
345.172	0.25
345.381	0.22
345.591	0.2
345.8	0.27
346.01	0.31
346.219	0.35
346.428	0.11
346.638	0.26
346.847	0.25
347.056	0.35
347.266	0.24
347.475	0.28
347.684	0.31
347.893	0.27
348.103	0.29
348.312	0.22
348.521	0.26
348.73	0.26
348.94	0.28
349.149	0.23
349.358	0.27
349.567	0.2
349.776	0.18
349.985	0.23
350.194	0.3
350.403	0.3
350.612	0.15
350.821	0.22
351.03	0.29
351.239	0.21
351.448	0.25
351.657	0.22
351.866	0.37
352.075	0.28
352.284	0.25
352.493	0.24
352.702	0.31
352.911	0.25
353.12	0.29
353.329	0.26
353.538	0.25
353.746	0.26
353.955	0.24
354.164	0.3
354.373	0.22
354.582	0.27
354.79	0.3
354.999	0.3
355.208	0.22
355.416	0.32
355.625	0.23
355.834	0.25
356.042	0.27
356.251	0.21
356.46	0.21
356.668	0.26
356.877	0.36
357.085	0.28
357.294	0.19
357.503	0.25
357.711	0.27
357.92	0.42
358.128	0.28
358.337	0.22
358.545	0.28
358.754	0.22
358.962	0.32
359.17	0.21
359.379	0.28
359.587	0.27
359.796	0.26
360.004	0.32
360.212	0.31
360.421	0.36
360.629	0.23
360.837	0.23
361.046	0.31
361.254	0.43
361.462	0.27
361.67	0.19
361.879	0.25
362.087	0.31
362.295	0.29
362.503	0.26
362.711	0.19
362.92	0.22
363.128	0.22
363.336	0.27
363.544	0.24
363.752	0.25
363.96	0.24
364.168	0.26
364.376	0.27
364.584	0.26
364.792	0.34
365	0.31
365.208	0.27
365.416	0.27
365.624	0.33
365.832	0.23
366.04	0.31
366.248	0.29
366.456	0.29
366.664	0.25
366.872	0.29
367.079	0.27
367.287	0.25
367.495	0.29
367.703	0.25
367.911	0.24
368.118	0.26
368.326	0.25
368.534	0.24
368.742	0.33
368.949	0.2
369.157	0.24
369.365	0.3
369.572	0.21
369.78	0.2
369.988	0.33
370.195	0.3
370.403	0.33
370.61	0.21
370.818	0.25
371.026	0.35
371.233	0.24
371.441	0.27
371.648	0.25
371.856	0.29
372.063	0.31
372.271	0.23
372.478	0.21
372.685	0.26
372.893	0.34
373.1	0.27
373.308	0.24
373.515	0.35
373.722	0.33
373.93	0.27
374.137	0.31
374.344	0.34
374.552	0.32
374.759	0.24
374.966	0.28
375.173	0.25
375.381	0.35
375.588	0.26
375.795	0.24
376.002	0.26
376.209	0.25
376.417	0.22
376.624	0.3
376.831	0.28
377.038	0.22
377.245	0.19
377.452	0.25
377.659	0.32
377.866	0.25
378.073	0.26
378.28	0.21
378.487	0.32
378.694	0.33
378.901	0.27
379.108	0.25
379.315	0.28
379.522	0.41
379.729	0.26
379.936	0.29
380.143	0.33
380.35	0.32
380.557	0.26
380.763	0.27
380.97	0.33
381.177	0.32
381.384	0.29
381.591	0.26
381.797	0.3
382.004	0.34
382.211	0.35
382.418	0.25
382.624	0.33
382.831	0.37
383.038	0.25
383.244	0.3
383.451	0.28
383.658	0.3
383.864	0.25
384.071	0.26
384.277	0.38
384.484	0.24
384.69	0.36
384.897	0.26
385.103	0.29
385.31	0.23
385.516	0.3
385.723	0.26
385.929	0.28
386.136	0.22
386.342	0.31
386.549	0.24
386.755	0.4
386.961	0.36
387.168	0.27
387.374	0.29
387.58	0.32
387.787	0.32
387.993	0.34
388.199	0.27
388.406	0.25
388.612	0.31
388.818	0.26
389.024	0.23
389.231	0.33
389.437	0.36
389.643	0.3
389.849	0.32
390.055	0.3
390.261	0.32
390.467	0.31
390.674	0.28
390.88	0.25
391.086	0.34
391.292	0.25
391.498	0.36
391.704	0.37
391.91	0.29
392.116	0.34
392.322	0.19
392.528	0.37
392.734	0.3
392.94	0.31
393.146	0.33
393.352	0.35
393.557	0.31
393.763	0.3
393.969	0.36
394.175	0.35
394.381	0.32
394.587	0.29
394.792	0.3
394.998	0.36
395.204	0.38
395.41	0.3
395.615	0.35
395.821	0.34
396.027	0.35
396.233	0.27
396.438	0.38
396.644	0.38
396.85	0.4
397.055	0.31
397.261	0.37
397.466	0.47
397.672	0.38
397.878	0.34
398.083	0.36
398.289	0.35
398.494	0.4
398.7	0.38
398.905	0.28
399.111	0.43
399.316	0.33
399.522	0.38
399.727	0.32
399.932	0.33
400.138	0.3
400.343	0.38
400.549	0.39
400.754	0.39
400.959	0.35
401.165	0.36
401.37	0.36
401.575	0.31
401.78	0.43
401.986	0.42
402.191	0.35
402.396	0.4
402.601	0.41
402.807	0.42
403.012	0.37
403.217	0.48
403.422	0.41
403.627	0.43
403.832	0.35
404.037	0.49
404.243	0.47
404.448	0.42
404.653	0.4
404.858	0.47
405.063	0.51
405.268	0.42
405.473	0.41
405.678	0.44
405.883	0.65
406.088	0.5
406.293	0.44
406.498	0.5
406.703	0.54
406.907	0.5
407.112	0.47
407.317	0.54
407.522	0.58
407.727	0.53
407.932	0.56
408.136	0.66
408.341	0.55
408.546	0.61
408.751	0.58
408.956	0.61
409.16	0.65
409.365	0.63
409.57	0.63
409.774	0.67
409.979	0.71
410.184	0.68
410.388	0.61
410.593	0.79
410.798	0.74
411.002	0.76
411.207	0.85
411.411	0.84
411.616	0.78
411.82	0.87
412.025	0.87
412.229	0.85
412.434	1.05
412.638	0.93
412.843	0.9
413.047	0.98
413.252	0.96
413.456	1.03
413.66	1.08
413.865	1.06
414.069	1.21
414.273	1.17
414.478	1.14
414.682	1.22
414.886	1.23
415.091	1.24
415.295	1.23
415.499	1.4
415.703	1.38
415.908	1.45
416.112	1.38
416.316	1.66
416.52	1.61
416.724	1.58
416.929	1.63
417.133	1.84
417.337	1.77
417.541	1.8
417.745	1.94
417.949	2.01
418.153	2
418.357	2.05
418.561	2.3
418.765	2.28
418.969	2.41
419.173	2.48
419.377	2.5
419.581	2.75
419.785	2.66
419.989	2.65
420.193	2.82
420.397	2.9
420.601	3.15
420.804	3.24
421.008	3.19
421.212	3.32
421.416	3.29
421.62	3.4
421.823	3.47
422.027	3.56
422.231	3.59
422.435	3.58
422.638	3.67
422.842	3.8
423.046	3.8
423.249	4.05
423.453	4.02
423.657	4.24
423.86	4.27
424.064	4.4
424.268	4.54
424.471	4.58
424.675	4.82
424.878	4.82
425.082	5.02
425.285	5.32
425.489	5.19
425.692	5.32
425.896	5.37
426.099	5.58
426.303	5.67
426.506	5.83
426.71	6.01
426.913	6.34
427.116	6.51
427.32	6.42
427.523	6.53
427.726	6.84
427.93	6.93
428.133	7.15
428.336	7.38
428.54	7.55
428.743	7.74
428.946	8.03
429.149	7.99
429.353	8.11
429.556	8.12
429.759	8.13
429.962	8.29
430.165	8.44
430.368	8.12
430.571	8.16
430.775	8.2
430.978	8.15
431.181	8.27
431.384	8.32
431.587	8.42
431.79	8.86
431.993	8.77
432.196	9.07
432.399	9.41
432.602	9.57
432.805	9.63
433.008	10.28
433.211	10.05
433.414	10.33
433.616	10.45
433.819	10.39
434.022	10.58
434.225	10.67
434.428	10.72
434.631	11.26
434.833	10.97
435.036	11.2
435.239	11.23
435.442	11.47
435.645	11.48
435.847	11.67
436.05	12.03
436.253	12.19
436.455	12.34
436.658	12.2
436.861	12.52
437.063	12.51
437.266	12.53
437.468	12.89
437.671	13.26
437.874	13.26
438.076	13.02
438.279	13.66
438.481	13.53
438.684	14.33
438.886	14.01
439.089	14.26
439.291	14.27
439.494	14.56
439.696	14.82
439.899	15.43
440.101	15.63
440.303	15.87
440.506	16.72
440.708	16.42
440.91	16.64
441.113	16.89
441.315	17.25
441.517	16.96
441.72	17.41
441.922	17.12
442.124	16.83
442.326	17.17
442.529	17.62
442.731	17.47
442.933	17.87
443.135	17.57
443.337	17.52
443.539	18.15
443.742	17.86
443.944	18.55
444.146	18.19
444.348	18.22
444.55	18.11
444.752	18.17
444.954	18.34
445.156	18.09
445.358	18.5
445.56	18.7
445.762	18.71
445.964	18.95
446.166	18.59
446.368	18.6
446.57	18.66
446.772	18.25
446.974	17.9
447.175	18.39
447.377	18.18
447.579	18.36
447.781	18.01
447.983	17.83
448.184	17.3
448.386	17.73
448.588	17.36
448.79	17.23
448.991	17.53
449.193	17.46
449.395	16.85
449.597	16.34
449.798	16.46
450	15.94
450.202	15.85
450.403	15.74
450.605	15.62
450.806	15.36
451.008	15.21
451.21	14.87
451.411	14.57
451.613	13.76
451.814	14.04
452.016	14.11
452.217	13.18
452.419	13.25
452.62	12.9
452.821	12.65
453.023	12.59
453.224	12.24
453.426	11.75
453.627	11.05
453.828	11.22
454.03	11.28
454.231	11.1
454.432	10.97
454.634	10.8
454.835	10.53
455.036	10.31
455.238	9.98
455.439	9.64
455.64	9.45
455.841	9.25
456.042	9.45
456.244	9.12
456.445	8.86
456.646	8.53
456.847	8.53
457.048	8.42
457.249	8.43
457.45	8.13
457.651	7.66
457.852	7.51
458.054	7.3
458.255	7.19
458.456	7.22
458.657	7.15
458.858	6.73
459.058	6.62
459.259	6.68
459.46	6.41
459.661	6.36
459.862	6.47
460.063	6.29
460.264	6.25
460.465	5.94
460.666	5.97
460.866	5.7
461.067	5.48
461.268	5.49
461.469	5.45
461.67	5.31
461.87	5.19
462.071	5.19
462.272	5.12
462.473	5.07
462.673	5.29
462.874	5.08
463.075	5.08
463.275	5.06
463.476	5.14
463.676	5.1
463.877	4.9
464.078	4.96
464.278	5
464.479	4.76
464.679	4.71
464.88	4.67
465.08	4.71
465.281	4.41
465.481	4.27
465.682	4.17
465.882	4.17
466.083	4.06
466.283	3.98
466.483	3.83
466.684	3.74
466.884	3.56
467.085	3.62
467.285	3.74
467.485	3.6
467.686	3.56
467.886	3.43
468.086	3.35
468.286	3.34
468.487	3.36
468.687	3.22
468.887	3.18
469.087	3.32
469.287	3.2
469.488	3.05
469.688	3.2
469.888	3.18
470.088	3.1
470.288	3.05
470.488	3
470.688	2.86
470.888	2.88
471.088	2.68
471.288	2.83
471.488	2.78
471.688	2.67
471.888	2.61
472.088	2.78
472.288	2.77
472.488	2.58
472.688	2.57
472.888	2.63
473.088	2.6
473.288	2.51
473.488	2.44
473.688	2.54
473.887	2.48
474.087	2.4
474.287	2.44
474.487	2.36
474.687	2.42
474.886	2.35
475.086	2.27
475.286	2.3
475.486	2.26
475.685	2.24
475.885	2.19
476.085	2.28
476.284	2.25
476.484	2.29
476.684	2.19
476.883	2.27
477.083	2.18
477.282	2.11
477.482	2.21
477.681	2.12
477.881	2.06
478.08	2.08
478.28	2.05
478.479	2.1
478.679	2.11
478.878	2.07
479.078	2.06
479.277	2.09
479.477	2.06
479.676	2.05
479.875	2.01
480.075	1.96
480.274	2.06
480.473	2.07
480.673	2.06
480.872	2.11
481.071	2.09
481.271	2.02
481.47	2.01
481.669	2.04
481.868	1.97
482.067	2
482.267	1.93
482.466	1.91
482.665	1.91
482.864	1.93
483.063	1.97
483.262	2.03
483.461	2.06
483.661	2.1
483.86	1.99
484.059	2.01
484.258	2.04
484.457	2.01
484.656	2.01
484.855	2.08
485.054	1.92
485.253	2.02
485.452	1.93
485.651	2.06
485.849	2.02
486.048	2.03
486.247	2.04
486.446	2.04
486.645	2.04
486.844	2.08
487.043	2.04
487.241	2.09
487.44	2.08
487.639	2.14
487.838	2.11
488.037	2.13
488.235	2.22
488.434	2.17
488.633	2.06
488.831	2.23
489.03	2.24
489.229	2.18
489.427	2.2
489.626	2.29
489.825	2.29
490.023	2.31
490.222	2.25
490.42	2.31
490.619	2.34
490.817	2.36
491.016	2.36
491.214	2.46
491.413	2.46
491.611	2.42
491.81	2.41
492.008	2.49
492.207	2.61
492.405	2.54
492.604	2.45
492.802	2.59
493	2.63
493.199	2.61
493.397	2.61
493.595	2.71
493.794	2.66
493.992	2.8
494.19	2.77
494.388	2.81
494.587	2.76
494.785	2.77
494.983	2.73
495.181	2.88
495.379	2.92
495.578	2.96
495.776	2.99
495.974	2.96
496.172	2.88
496.37	3.06
496.568	3.1
496.766	3.12
496.964	3.22
497.162	3.14
497.36	3.21
497.558	3.26
497.756	3.33
497.954	3.29
498.152	3.37
498.35	3.47
498.548	3.36
498.746	3.41
498.944	3.4
499.142	3.48
499.34	3.5
499.538	3.62
499.736	3.47
499.933	3.67
500.131	3.67
500.329	3.81
500.527	3.79
500.725	3.87
500.922	3.89
501.12	3.88
501.318	3.96
501.516	3.92
501.713	4.01
501.911	4.05
502.109	3.95
502.306	4.14
502.504	4.02
502.701	4.11
502.899	4.14
