Data from Apollo_Calib_20240827__AbsoluteIrradiance__31__23-40-02-602.txt Node

Date: Tue Aug 27 23:40:02 BST 2024
User: biology
Spectrometer: FLMT08252
Trigger mode: 0
Integration Time (sec): 5.000000E-1
Scans to average: 5
Electric dark correction enabled: true
Nonlinearity correction enabled: false
Boxcar width: 0
XAxis mode: Wavelengths
Number of Pixels in Spectrum: 3648
>>>>>Begin Spectral Data<<<<<
179.588	-0
179.809	-0
180.03	-0
180.251	-0
180.473	-0
180.694	0
180.915	0
181.136	-0
181.357	0
181.578	-0
181.799	-0
182.02	-0
182.241	0
182.462	-0
182.683	0
182.904	-0
183.125	-0
183.346	0
183.567	0
183.788	0
184.009	0
184.23	0
184.451	0
184.672	0
184.892	0
185.113	0
185.334	0
185.555	0
185.776	0
185.996	0
186.217	0
186.438	0
186.659	0
186.879	0
187.1	0
187.321	0
187.541	0
187.762	0
187.983	0
188.203	0
188.424	0
188.644	0
188.865	0
189.086	0
189.306	0
189.527	0
189.747	0
189.968	0
190.188	0
190.409	0
190.629	0
190.849	0
191.07	0
191.29	0
191.511	0
191.731	0
191.951	0
192.172	0
192.392	0
192.612	0
192.833	0
193.053	0
193.273	0
193.493	0
193.714	0
193.934	0
194.154	0
194.374	0
194.594	0
194.815	0
195.035	0
195.255	0
195.475	0
195.695	0
195.915	0
196.135	0
196.355	0
196.575	0
196.795	0
197.015	0
197.235	0
197.455	0
197.675	0
197.895	0
198.115	0
198.335	0
198.555	0
198.775	0
198.995	0
199.214	0
199.434	0
199.654	0
199.874	0
200.094	3.97
200.313	2.09
200.533	2.36
200.753	2.11
200.973	3.94
201.192	2.97
201.412	1.53
201.632	1.69
201.851	3.7
202.071	2.13
202.291	1.8
202.51	1.91
202.73	2.78
202.95	1.97
203.169	1.55
203.389	1.89
203.608	2.34
203.828	1.87
204.047	2.09
204.267	2.16
204.486	2.28
204.706	1.96
204.925	1.97
205.145	1.76
205.364	2.22
205.583	2.81
205.803	1.19
206.022	1.33
206.242	1.59
206.461	1.69
206.68	1.53
206.9	1.76
207.119	2.61
207.338	2.27
207.557	1.5
207.777	1.37
207.996	1.35
208.215	2.16
208.434	1.26
208.654	1.12
208.873	1.29
209.092	2.05
209.311	1.34
209.53	1.43
209.749	1.06
209.968	1.17
210.187	1.39
210.407	1.08
210.626	1.22
210.845	1.57
211.064	1.29
211.283	1.07
211.502	1.83
211.721	1.32
211.94	1.09
212.159	1.31
212.377	1.37
212.596	1.34
212.815	1.12
213.034	1.32
213.253	1.24
213.472	1.43
213.691	1.03
213.91	0.84
214.128	1.08
214.347	1.38
214.566	0.76
214.785	0.56
215.003	1.28
215.222	1.25
215.441	0.88
215.66	0.7
215.878	0.95
216.097	1.26
216.316	0.65
216.534	1.05
216.753	0.96
216.972	0.9
217.19	0.92
217.409	0.89
217.627	0.8
217.846	0.92
218.064	1.17
218.283	0.78
218.501	1.29
218.72	1.05
218.938	0.68
219.157	0.77
219.375	1.17
219.594	0.98
219.812	0.67
220.031	0.65
220.249	1.28
220.467	1.19
220.686	0.68
220.904	0.56
221.122	0.75
221.341	1.06
221.559	0.83
221.777	0.68
221.995	0.87
222.214	0.95
222.432	0.71
222.65	0.89
222.868	0.87
223.086	0.86
223.305	0.9
223.523	0.8
223.741	1.18
223.959	0.69
224.177	0.44
224.395	0.53
224.613	1
224.831	0.88
225.049	0.52
225.267	0.72
225.485	0.65
225.703	0.67
225.921	0.7
226.139	0.6
226.357	0.78
226.575	0.83
226.793	0.63
227.011	1.33
227.229	0.75
227.447	0.92
227.665	0.75
227.883	0.32
228.1	0.69
228.318	0.69
228.536	0.45
228.754	0.57
228.972	0.75
229.189	0.65
229.407	0.82
229.625	0.6
229.843	0.94
230.06	0.76
230.278	0.59
230.496	0.54
230.713	0.59
230.931	0.88
231.149	0.6
231.366	0.44
231.584	0.6
231.801	0.92
232.019	0.54
232.236	0.5
232.454	0.61
232.671	0.71
232.889	0.59
233.106	0.45
233.324	0.5
233.541	0.56
233.759	0.62
233.976	0.46
234.194	0.68
234.411	0.59
234.628	0.4
234.846	0.44
235.063	0.62
235.28	0.52
235.498	0.46
235.715	0.42
235.932	0.74
236.149	0.55
236.367	0.49
236.584	0.54
236.801	0.55
237.018	0.59
237.236	0.52
237.453	0.37
237.67	0.61
237.887	0.42
238.104	0.65
238.321	0.46
238.538	0.47
238.755	0.69
238.973	0.3
239.19	0.5
239.407	0.59
239.624	0.66
239.841	0.45
240.058	0.51
240.275	0.53
240.492	0.49
240.709	0.51
240.925	0.51
241.142	0.47
241.359	0.42
241.576	0.38
241.793	0.51
242.01	0.54
242.227	0.42
242.444	0.56
242.66	0.65
242.877	0.47
243.094	0.52
243.311	0.5
243.527	0.41
243.744	0.55
243.961	0.61
244.178	0.42
244.394	0.41
244.611	0.67
244.828	0.68
245.044	0.33
245.261	0.48
245.477	0.55
245.694	0.63
245.911	0.42
246.127	0.55
246.344	0.62
246.56	0.57
246.777	0.39
246.993	0.53
247.21	0.45
247.426	0.59
247.643	0.44
247.859	0.37
248.076	0.42
248.292	0.72
248.508	0.36
248.725	0.46
248.941	0.49
249.157	0.53
249.374	0.35
249.59	0.39
249.806	0.46
250.023	0.52
250.239	0.36
250.455	0.38
250.671	0.49
250.888	0.55
251.104	0.49
251.32	0.47
251.536	0.43
251.752	0.38
251.969	0.44
252.185	0.45
252.401	0.59
252.617	0.42
252.833	0.35
253.049	0.46
253.265	0.42
253.481	0.46
253.697	0.35
253.913	0.32
254.129	0.39
254.345	0.43
254.561	0.34
254.777	0.38
254.993	0.49
255.209	0.41
255.425	0.38
255.641	0.37
255.857	0.57
256.073	0.43
256.288	0.38
256.504	0.35
256.72	0.49
256.936	0.51
257.152	0.41
257.367	0.38
257.583	0.49
257.799	0.4
258.015	0.39
258.23	0.35
258.446	0.52
258.662	0.47
258.877	0.31
259.093	0.3
259.309	0.46
259.524	0.46
259.74	0.31
259.955	0.27
260.171	0.47
260.387	0.37
260.602	0.49
260.818	0.44
261.033	0.33
261.249	0.34
261.464	0.4
261.68	0.3
261.895	0.47
262.11	0.46
262.326	0.33
262.541	0.31
262.757	0.45
262.972	0.42
263.187	0.43
263.403	0.43
263.618	0.42
263.833	0.4
264.049	0.31
264.264	0.35
264.479	0.49
264.694	0.41
264.91	0.36
265.125	0.32
265.34	0.4
265.555	0.57
265.77	0.47
265.986	0.31
266.201	0.48
266.416	0.48
266.631	0.35
266.846	0.35
267.061	0.36
267.276	0.41
267.491	0.23
267.706	0.35
267.921	0.34
268.136	0.37
268.351	0.44
268.566	0.32
268.781	0.45
268.996	0.43
269.211	0.4
269.426	0.25
269.641	0.31
269.856	0.44
270.071	0.29
270.285	0.27
270.5	0.43
270.715	0.42
270.93	0.38
271.145	0.4
271.359	0.44
271.574	0.37
271.789	0.36
272.004	0.33
272.218	0.29
272.433	0.41
272.648	0.26
272.862	0.38
273.077	0.37
273.292	0.29
273.506	0.32
273.721	0.32
273.936	0.38
274.15	0.42
274.365	0.32
274.579	0.43
274.794	0.4
275.008	0.46
275.223	0.27
275.437	0.34
275.652	0.46
275.866	0.41
276.081	0.34
276.295	0.42
276.509	0.33
276.724	0.41
276.938	0.29
277.153	0.35
277.367	0.37
277.581	0.3
277.796	0.28
278.01	0.28
278.224	0.4
278.438	0.49
278.653	0.26
278.867	0.25
279.081	0.36
279.295	0.32
279.51	0.37
279.724	0.27
279.938	0.35
280.152	0.39
280.366	0.27
280.58	0.32
280.794	0.37
281.008	0.37
281.222	0.4
281.437	0.48
281.651	0.37
281.865	0.42
282.079	0.31
282.293	0.24
282.507	0.29
282.721	0.34
282.935	0.3
283.148	0.2
283.362	0.26
283.576	0.26
283.79	0.3
284.004	0.27
284.218	0.37
284.432	0.3
284.646	0.32
284.859	0.23
285.073	0.27
285.287	0.36
285.501	0.28
285.714	0.3
285.928	0.36
286.142	0.34
286.356	0.26
286.569	0.29
286.783	0.38
286.997	0.34
287.21	0.29
287.424	0.33
287.637	0.27
287.851	0.28
288.065	0.4
288.278	0.31
288.492	0.35
288.705	0.34
288.919	0.3
289.132	0.24
289.346	0.31
289.559	0.25
289.773	0.24
289.986	0.33
290.2	0.27
290.413	0.37
290.626	0.31
290.84	0.29
291.053	0.24
291.267	0.37
291.48	0.32
291.693	0.3
291.906	0.24
292.12	0.28
292.333	0.24
292.546	0.24
292.76	0.41
292.973	0.33
293.186	0.32
293.399	0.3
293.612	0.33
293.826	0.28
294.039	0.28
294.252	0.29
294.465	0.31
294.678	0.33
294.891	0.31
295.104	0.25
295.317	0.27
295.53	0.28
295.743	0.29
295.956	0.25
296.169	0.37
296.382	0.33
296.595	0.29
296.808	0.28
297.021	0.36
297.234	0.32
297.447	0.29
297.66	0.31
297.873	0.34
298.086	0.33
298.299	0.25
298.511	0.25
298.724	0.31
298.937	0.24
299.15	0.25
299.363	0.26
299.575	0.31
299.788	0.32
300.001	0.25
300.213	0.24
300.426	0.29
300.639	0.26
300.852	0.26
301.064	0.29
301.277	0.34
301.489	0.3
301.702	0.33
301.915	0.27
302.127	0.26
302.34	0.28
302.552	0.31
302.765	0.25
302.977	0.3
303.19	0.27
303.402	0.25
303.615	0.27
303.827	0.25
304.04	0.25
304.252	0.3
304.464	0.27
304.677	0.38
304.889	0.33
305.102	0.2
305.314	0.21
305.526	0.26
305.739	0.26
305.951	0.26
306.163	0.26
306.375	0.36
306.588	0.28
306.8	0.25
307.012	0.16
307.224	0.25
307.436	0.36
307.649	0.21
307.861	0.32
308.073	0.31
308.285	0.25
308.497	0.2
308.709	0.24
308.921	0.26
309.133	0.33
309.346	0.26
309.558	0.26
309.77	0.28
309.982	0.33
310.194	0.32
310.406	0.2
310.617	0.33
310.829	0.26
311.041	0.31
311.253	0.24
311.465	0.28
311.677	0.29
311.889	0.26
312.101	0.22
312.313	0.31
312.524	0.32
312.736	0.18
312.948	0.25
313.16	0.37
313.372	0.27
313.583	0.29
313.795	0.28
314.007	0.22
314.218	0.29
314.43	0.28
314.642	0.23
314.853	0.21
315.065	0.27
315.277	0.27
315.488	0.31
315.7	0.33
315.912	0.26
316.123	0.27
316.335	0.21
316.546	0.38
316.758	0.24
316.969	0.26
317.181	0.29
317.392	0.25
317.604	0.33
317.815	0.23
318.026	0.2
318.238	0.22
318.449	0.32
318.661	0.19
318.872	0.24
319.083	0.24
319.295	0.27
319.506	0.24
319.717	0.31
319.929	0.27
320.14	0.28
320.351	0.33
320.562	0.25
320.774	0.29
320.985	0.29
321.196	0.19
321.407	0.21
321.618	0.3
321.829	0.33
322.041	0.33
322.252	0.29
322.463	0.27
322.674	0.3
322.885	0.25
323.096	0.29
323.307	0.26
323.518	0.28
323.729	0.25
323.94	0.25
324.151	0.26
324.362	0.34
324.573	0.28
324.784	0.28
324.995	0.32
325.206	0.26
325.417	0.29
325.628	0.25
325.838	0.3
326.049	0.27
326.26	0.32
326.471	0.26
326.682	0.28
326.892	0.27
327.103	0.23
327.314	0.2
327.525	0.34
327.735	0.27
327.946	0.33
328.157	0.24
328.368	0.37
328.578	0.24
328.789	0.31
328.999	0.25
329.21	0.27
329.421	0.35
329.631	0.25
329.842	0.21
330.052	0.26
330.263	0.3
330.473	0.29
330.684	0.23
330.894	0.28
331.105	0.3
331.315	0.28
331.526	0.2
331.736	0.31
331.947	0.31
332.157	0.28
332.367	0.23
332.578	0.3
332.788	0.32
332.999	0.27
333.209	0.24
333.419	0.24
333.629	0.27
333.84	0.25
334.05	0.28
334.26	0.35
334.47	0.35
334.681	0.29
334.891	0.25
335.101	0.31
335.311	0.38
335.521	0.26
335.732	0.24
335.942	0.31
336.152	0.29
336.362	0.29
336.572	0.28
336.782	0.3
336.992	0.27
337.202	0.25
337.412	0.25
337.622	0.3
337.832	0.25
338.042	0.26
338.252	0.24
338.462	0.25
338.672	0.29
338.882	0.31
339.092	0.22
339.302	0.34
339.511	0.28
339.721	0.27
339.931	0.25
340.141	0.28
340.351	0.32
340.561	0.29
340.77	0.29
340.98	0.26
341.19	0.28
341.4	0.25
341.609	0.21
341.819	0.26
342.029	0.29
342.238	0.33
342.448	0.25
342.658	0.3
342.867	0.3
343.077	0.28
343.286	0.25
343.496	0.26
343.706	0.29
343.915	0.25
344.125	0.27
344.334	0.29
344.544	0.18
344.753	0.27
344.963	0.24
345.172	0.22
345.381	0.26
345.591	0.23
345.8	0.27
346.01	0.34
346.219	0.3
346.428	0.13
346.638	0.24
346.847	0.26
347.056	0.32
347.266	0.26
347.475	0.27
347.684	0.29
347.893	0.3
348.103	0.28
348.312	0.23
348.521	0.28
348.73	0.27
348.94	0.26
349.149	0.24
349.358	0.26
349.567	0.23
349.776	0.24
349.985	0.21
350.194	0.29
350.403	0.27
350.612	0.17
350.821	0.25
351.03	0.24
351.239	0.22
351.448	0.24
351.657	0.23
351.866	0.39
352.075	0.21
352.284	0.3
352.493	0.24
352.702	0.28
352.911	0.25
353.12	0.28
353.329	0.24
353.538	0.3
353.746	0.27
353.955	0.23
354.164	0.24
354.373	0.22
354.582	0.28
354.79	0.22
354.999	0.25
355.208	0.27
355.416	0.32
355.625	0.17
355.834	0.22
356.042	0.28
356.251	0.24
356.46	0.21
356.668	0.27
356.877	0.34
357.085	0.35
357.294	0.24
357.503	0.32
357.711	0.25
357.92	0.41
358.128	0.26
358.337	0.24
358.545	0.31
358.754	0.25
358.962	0.3
359.17	0.21
359.379	0.27
359.587	0.31
359.796	0.26
360.004	0.29
360.212	0.3
360.421	0.32
360.629	0.26
360.837	0.23
361.046	0.3
361.254	0.36
361.462	0.25
361.67	0.25
361.879	0.21
362.087	0.31
362.295	0.3
362.503	0.22
362.711	0.21
362.92	0.2
363.128	0.25
363.336	0.21
363.544	0.21
363.752	0.27
363.96	0.24
364.168	0.23
364.376	0.26
364.584	0.26
364.792	0.32
365	0.26
365.208	0.25
365.416	0.28
365.624	0.29
365.832	0.23
366.04	0.27
366.248	0.26
366.456	0.25
366.664	0.28
366.872	0.27
367.079	0.23
367.287	0.24
367.495	0.28
367.703	0.27
367.911	0.21
368.118	0.29
368.326	0.25
368.534	0.26
368.742	0.31
368.949	0.19
369.157	0.22
369.365	0.3
369.572	0.21
369.78	0.24
369.988	0.31
370.195	0.28
370.403	0.31
370.61	0.24
370.818	0.27
371.026	0.33
371.233	0.26
371.441	0.27
371.648	0.23
371.856	0.29
372.063	0.29
372.271	0.24
372.478	0.25
372.685	0.23
372.893	0.32
373.1	0.27
373.308	0.29
373.515	0.35
373.722	0.3
373.93	0.23
374.137	0.27
374.344	0.34
374.552	0.32
374.759	0.29
374.966	0.25
375.173	0.27
375.381	0.3
375.588	0.26
375.795	0.19
376.002	0.23
376.209	0.24
376.417	0.27
376.624	0.3
376.831	0.29
377.038	0.26
377.245	0.2
377.452	0.23
377.659	0.24
377.866	0.26
378.073	0.29
378.28	0.25
378.487	0.31
378.694	0.27
378.901	0.3
379.108	0.27
379.315	0.3
379.522	0.38
379.729	0.28
379.936	0.24
380.143	0.27
380.35	0.28
380.557	0.24
380.763	0.27
380.97	0.28
381.177	0.28
381.384	0.3
381.591	0.29
381.797	0.31
382.004	0.32
382.211	0.34
382.418	0.31
382.624	0.28
382.831	0.33
383.038	0.27
383.244	0.29
383.451	0.3
383.658	0.28
383.864	0.3
384.071	0.24
384.277	0.36
384.484	0.25
384.69	0.34
384.897	0.26
385.103	0.27
385.31	0.26
385.516	0.27
385.723	0.25
385.929	0.3
386.136	0.22
386.342	0.3
386.549	0.28
386.755	0.36
386.961	0.34
387.168	0.27
387.374	0.29
387.58	0.33
387.787	0.29
387.993	0.3
388.199	0.32
388.406	0.3
388.612	0.28
388.818	0.24
389.024	0.28
389.231	0.32
389.437	0.38
389.643	0.31
389.849	0.33
390.055	0.27
390.261	0.33
390.467	0.35
390.674	0.32
390.88	0.33
391.086	0.33
391.292	0.25
391.498	0.37
391.704	0.35
391.91	0.33
392.116	0.28
392.322	0.23
392.528	0.32
392.734	0.31
392.94	0.34
393.146	0.34
393.352	0.31
393.557	0.32
393.763	0.29
393.969	0.34
394.175	0.31
394.381	0.36
394.587	0.27
394.792	0.34
394.998	0.35
395.204	0.37
395.41	0.27
395.615	0.37
395.821	0.36
396.027	0.32
396.233	0.33
396.438	0.37
396.644	0.42
396.85	0.4
397.055	0.34
397.261	0.37
397.466	0.43
397.672	0.34
397.878	0.35
398.083	0.33
398.289	0.32
398.494	0.44
398.7	0.35
398.905	0.26
399.111	0.43
399.316	0.3
399.522	0.38
399.727	0.37
399.932	0.37
400.138	0.35
400.343	0.38
400.549	0.35
400.754	0.37
400.959	0.33
401.165	0.32
401.37	0.41
401.575	0.32
401.78	0.39
401.986	0.37
402.191	0.35
402.396	0.39
402.601	0.44
402.807	0.45
403.012	0.42
403.217	0.46
403.422	0.39
403.627	0.44
403.832	0.4
404.037	0.43
404.243	0.45
404.448	0.38
404.653	0.43
404.858	0.46
405.063	0.47
405.268	0.46
405.473	0.45
405.678	0.45
405.883	0.59
406.088	0.5
406.293	0.43
406.498	0.49
406.703	0.5
406.907	0.5
407.112	0.46
407.317	0.53
407.522	0.52
407.727	0.47
407.932	0.52
408.136	0.7
408.341	0.57
408.546	0.6
408.751	0.59
408.956	0.59
409.16	0.62
409.365	0.62
409.57	0.67
409.774	0.66
409.979	0.68
410.184	0.7
410.388	0.64
410.593	0.74
410.798	0.74
411.002	0.76
411.207	0.85
411.411	0.8
411.616	0.74
411.82	0.8
412.025	0.88
412.229	0.9
412.434	0.97
412.638	0.9
412.843	0.9
413.047	0.98
413.252	0.94
413.456	1.02
413.66	1.09
413.865	1.05
414.069	1.2
414.273	1.14
414.478	1.19
414.682	1.18
414.886	1.27
415.091	1.21
415.295	1.19
415.499	1.37
415.703	1.31
415.908	1.5
416.112	1.31
416.316	1.56
416.52	1.52
416.724	1.57
416.929	1.64
417.133	1.87
417.337	1.72
417.541	1.78
417.745	1.83
417.949	1.95
418.153	2
418.357	2.06
418.561	2.23
418.765	2.2
418.969	2.31
419.173	2.45
419.377	2.36
419.581	2.64
419.785	2.65
419.989	2.68
420.193	2.81
420.397	2.88
420.601	3
420.804	3.1
421.008	3.03
421.212	3.23
421.416	3.29
421.62	3.24
421.823	3.35
422.027	3.59
422.231	3.56
422.435	3.52
422.638	3.54
422.842	3.7
423.046	3.85
423.249	3.92
423.453	3.98
423.657	4.07
423.86	4.16
424.064	4.35
424.268	4.47
424.471	4.42
424.675	4.68
424.878	4.77
425.082	4.9
425.285	5.17
425.489	5.14
425.692	5.19
425.896	5.26
426.099	5.46
426.303	5.56
426.506	5.78
426.71	5.92
426.913	6.17
427.116	6.32
427.32	6.34
427.523	6.38
427.726	6.75
427.93	6.79
428.133	7.07
428.336	7.2
428.54	7.4
428.743	7.6
428.946	7.87
429.149	7.85
429.353	7.9
429.556	8.05
429.759	8.06
429.962	8.25
430.165	8.39
430.368	7.92
430.571	8.06
430.775	8.16
430.978	8.04
431.181	8.19
431.384	8.29
431.587	8.36
431.79	8.68
431.993	8.66
432.196	8.88
432.399	9.33
432.602	9.45
432.805	9.5
433.008	10.11
433.211	9.88
433.414	10.32
433.616	10.2
433.819	10.21
434.022	10.55
434.225	10.66
434.428	10.62
434.631	11.18
434.833	10.89
435.036	11.1
435.239	11.34
435.442	11.39
435.645	11.64
435.847	11.61
436.05	11.93
436.253	12.13
436.455	12.17
436.658	12.01
436.861	12.27
437.063	12.43
437.266	12.39
437.468	12.74
437.671	13.07
437.874	13.11
438.076	12.94
438.279	13.34
438.481	13.48
438.684	14.25
438.886	13.82
439.089	14.24
439.291	14.14
439.494	14.57
439.696	14.78
439.899	15.24
440.101	15.65
440.303	15.97
440.506	16.59
440.708	16.27
440.91	16.47
441.113	16.61
441.315	16.9
441.517	16.84
441.72	17.31
441.922	16.96
442.124	16.91
442.326	17.21
442.529	17.42
442.731	17.39
442.933	17.83
443.135	17.4
443.337	17.46
443.539	17.89
443.742	17.68
443.944	18.39
444.146	17.97
444.348	18.01
444.55	17.94
444.752	18.12
444.954	18.04
445.156	18.04
445.358	18.53
445.56	18.75
445.762	18.47
445.964	18.94
446.166	18.73
446.368	18.7
446.57	18.63
446.772	18.28
446.974	17.97
447.175	18.43
447.377	17.99
447.579	18.37
447.781	18.1
447.983	17.91
448.184	17.54
448.386	17.83
448.588	17.33
448.79	17.28
448.991	17.54
449.193	17.54
449.395	16.99
449.597	16.54
449.798	16.54
450	16.13
450.202	15.94
450.403	15.88
450.605	15.84
450.806	15.54
451.008	15.41
451.21	15.14
451.411	14.62
451.613	13.89
451.814	14.24
452.016	14.01
452.217	13.41
452.419	13.34
452.62	13.01
452.821	12.78
453.023	12.72
453.224	12.29
453.426	11.86
453.627	11.13
453.828	11.26
454.03	11.4
454.231	11.39
454.432	11.13
454.634	10.9
454.835	10.6
455.036	10.5
455.238	10.08
455.439	9.87
455.64	9.54
455.841	9.41
456.042	9.55
456.244	9.3
456.445	8.99
456.646	8.72
456.847	8.63
457.048	8.55
457.249	8.58
457.45	8.27
457.651	7.79
457.852	7.62
458.054	7.23
458.255	7.21
458.456	7.35
458.657	7.1
458.858	6.73
459.058	6.75
459.259	6.78
459.46	6.5
459.661	6.49
459.862	6.46
460.063	6.4
460.264	6.29
460.465	6.04
460.666	6.14
460.866	5.79
461.067	5.55
461.268	5.55
461.469	5.59
461.67	5.39
461.87	5.16
462.071	5.21
462.272	5.18
462.473	5.1
462.673	5.31
462.874	5.11
463.075	5.24
463.275	5.23
463.476	5.19
463.676	5.06
463.877	5.02
464.078	4.93
464.278	5.02
464.479	4.86
464.679	4.8
464.88	4.77
465.08	4.67
465.281	4.53
465.481	4.41
465.682	4.17
465.882	4.21
466.083	4.14
466.283	4.06
466.483	3.98
466.684	3.77
466.884	3.69
467.085	3.71
467.285	3.78
467.485	3.65
467.686	3.61
467.886	3.44
468.086	3.43
468.286	3.39
468.487	3.47
468.687	3.27
468.887	3.27
469.087	3.39
469.287	3.3
469.488	3.15
469.688	3.22
469.888	3.19
470.088	3.15
470.288	3.14
470.488	3.03
470.688	2.86
470.888	2.89
471.088	2.73
471.288	2.8
471.488	2.77
471.688	2.73
471.888	2.66
472.088	2.85
472.288	2.72
472.488	2.61
472.688	2.61
472.888	2.59
473.088	2.55
473.288	2.54
473.488	2.47
473.688	2.62
473.887	2.52
474.087	2.45
474.287	2.5
474.487	2.37
474.687	2.46
474.886	2.37
475.086	2.33
475.286	2.35
475.486	2.38
475.685	2.26
475.885	2.23
476.085	2.28
476.284	2.29
476.484	2.27
476.684	2.25
476.883	2.29
477.083	2.18
477.282	2.14
477.482	2.18
477.681	2.21
477.881	2.08
478.08	2.08
478.28	2.05
478.479	2.09
478.679	2.14
478.878	2.04
479.078	2.06
479.277	2.11
479.477	2.04
479.676	2.04
479.875	2
480.075	1.96
480.274	2.05
480.473	2.04
480.673	2.01
480.872	2.08
481.071	2.07
481.271	2.01
481.47	2.01
481.669	2.04
481.868	1.95
482.067	2.01
482.267	1.96
482.466	1.96
482.665	1.95
482.864	1.94
483.063	1.99
483.262	2.03
483.461	2.02
483.661	2.07
483.86	2.02
484.059	2.07
484.258	2.07
484.457	2.04
484.656	2
484.855	2.06
485.054	1.9
485.253	1.96
485.452	1.99
485.651	2.1
485.849	2.02
486.048	2
486.247	2.04
486.446	2.09
486.645	2.09
486.844	2.11
487.043	2.05
487.241	2.11
487.44	2.1
487.639	2.1
487.838	2.13
488.037	2.11
488.235	2.21
488.434	2.17
488.633	2.06
488.831	2.23
489.03	2.21
489.229	2.23
489.427	2.19
489.626	2.26
489.825	2.27
490.023	2.32
490.222	2.28
490.42	2.34
490.619	2.38
490.817	2.39
491.016	2.37
491.214	2.4
491.413	2.4
491.611	2.33
491.81	2.44
492.008	2.48
492.207	2.54
492.405	2.5
492.604	2.46
492.802	2.56
493	2.59
493.199	2.64
493.397	2.61
493.595	2.68
493.794	2.65
493.992	2.77
494.19	2.77
494.388	2.83
494.587	2.72
494.785	2.84
494.983	2.72
495.181	2.88
495.379	2.9
495.578	2.94
495.776	2.95
495.974	2.96
496.172	2.94
496.37	3.07
496.568	3.08
496.766	3.11
496.964	3.21
497.162	3.13
497.36	3.2
497.558	3.23
497.756	3.25
497.954	3.32
498.152	3.34
498.35	3.42
498.548	3.31
498.746	3.38
498.944	3.42
499.142	3.4
499.34	3.51
499.538	3.61
499.736	3.51
499.933	3.62
500.131	3.64
500.329	3.77
500.527	3.76
500.725	3.82
500.922	3.85
501.12	3.85
501.318	3.94
501.516	3.93
501.713	4.01
501.911	3.95
502.109	3.94
502.306	4.08
502.504	4.02
502.701	4.11
