Data from Apollo_Calib_20240827__AbsoluteIrradiance__820__12-49-02-093.txt Node

Date: Wed Aug 28 12:49:02 BST 2024
User: biology
Spectrometer: FLMT08252
Trigger mode: 0
Integration Time (sec): 5.000000E-1
Scans to average: 5
Electric dark correction enabled: true
Nonlinearity correction enabled: false
Boxcar width: 0
XAxis mode: Wavelengths
Number of Pixels in Spectrum: 3648
>>>>>Begin Spectral Data<<<<<
179.588	-0
179.809	-0
180.03	-0
180.251	-0
180.473	-0
180.694	0
180.915	0
181.136	-0
181.357	0
181.578	-0
181.799	0
182.02	-0
182.241	-0
182.462	-0
182.683	0
182.904	-0
183.125	-0
183.346	0
183.567	0
183.788	0
184.009	0
184.23	0
184.451	0
184.672	0
184.892	0
185.113	0
185.334	0
185.555	0
185.776	0
185.996	0
186.217	0
186.438	0
186.659	0
186.879	0
187.1	0
187.321	0
187.541	0
187.762	0
187.983	0
188.203	0
188.424	0
188.644	0
188.865	0
189.086	0
189.306	0
189.527	0
189.747	0
189.968	0
190.188	0
190.409	0
190.629	0
190.849	0
191.07	0
191.29	0
191.511	0
191.731	0
191.951	0
192.172	0
192.392	0
192.612	0
192.833	0
193.053	0
193.273	0
193.493	0
193.714	0
193.934	0
194.154	0
194.374	0
194.594	0
194.815	0
195.035	0
195.255	0
195.475	0
195.695	0
195.915	0
196.135	0
196.355	0
196.575	0
196.795	0
197.015	0
197.235	0
197.455	0
197.675	0
197.895	0
198.115	0
198.335	0
198.555	0
198.775	0
198.995	0
199.214	0
199.434	0
199.654	0
199.874	0
200.094	3.71
200.313	2.49
200.533	1.67
200.753	1.26
200.973	3.73
201.192	4.07
201.412	0.87
201.632	1.76
201.851	3.25
202.071	1.56
202.291	1.63
202.51	0.88
202.73	3.23
202.95	1.6
203.169	1.31
203.389	1.86
203.608	2.26
203.828	1.78
204.047	1.4
204.267	2.12
204.486	1.93
204.706	2.31
204.925	1.34
205.145	1.45
205.364	2.33
205.583	2.73
205.803	0.99
206.022	0.83
206.242	1.62
206.461	1.33
206.68	1.24
206.9	1.73
207.119	2.57
207.338	2.16
207.557	1.28
207.777	1.34
207.996	1.41
208.215	2.02
208.434	1.28
208.654	0.77
208.873	1.41
209.092	2.21
209.311	0.97
209.53	1.21
209.749	1.1
209.968	1.19
210.187	0.89
210.407	0.78
210.626	1.2
210.845	1.44
211.064	1.05
211.283	0.72
211.502	1.53
211.721	0.95
211.94	0.83
212.159	1.41
212.377	1.27
212.596	1.49
212.815	1.05
213.034	1.05
213.253	1.31
213.472	1.21
213.691	0.83
213.91	0.62
214.128	0.77
214.347	1.3
214.566	0.56
214.785	0.55
215.003	1.3
215.222	1.16
215.441	1
215.66	0.59
215.878	1
216.097	1.39
216.316	0.68
216.534	0.74
216.753	1.14
216.972	0.92
217.19	0.74
217.409	0.57
217.627	0.64
217.846	0.75
218.064	0.97
218.283	0.52
218.501	1.26
218.72	1.07
218.938	0.54
219.157	0.57
219.375	1.02
219.594	0.98
219.812	0.5
220.031	0.48
220.249	0.97
220.467	1.26
220.686	0.45
220.904	0.5
221.122	0.72
221.341	1.15
221.559	0.74
221.777	0.45
221.995	0.64
222.214	0.95
222.432	0.55
222.65	0.79
222.868	0.82
223.086	0.76
223.305	0.9
223.523	0.6
223.741	1.04
223.959	0.68
224.177	0.23
224.395	0.54
224.613	0.83
224.831	0.85
225.049	0.49
225.267	0.55
225.485	0.77
225.703	0.68
225.921	0.53
226.139	0.39
226.357	0.86
226.575	0.77
226.793	0.47
227.011	1.48
227.229	0.76
227.447	0.78
227.665	0.53
227.883	0.29
228.1	0.79
228.318	0.8
228.536	0.25
228.754	0.38
228.972	0.76
229.189	0.59
229.407	0.45
229.625	0.55
229.843	0.78
230.06	0.74
230.278	0.45
230.496	0.59
230.713	0.71
230.931	0.83
231.149	0.44
231.366	0.31
231.584	0.52
231.801	0.97
232.019	0.44
232.236	0.32
232.454	0.41
232.671	0.66
232.889	0.43
233.106	0.37
233.324	0.55
233.541	0.43
233.759	0.4
233.976	0.31
234.194	0.48
234.411	0.46
234.628	0.34
234.846	0.35
235.063	0.48
235.28	0.62
235.498	0.51
235.715	0.4
235.932	0.76
236.149	0.49
236.367	0.44
236.584	0.47
236.801	0.43
237.018	0.7
237.236	0.5
237.453	0.25
237.67	0.75
237.887	0.52
238.104	0.42
238.321	0.33
238.538	0.28
238.755	0.76
238.973	0.29
239.19	0.5
239.407	0.56
239.624	0.51
239.841	0.42
240.058	0.41
240.275	0.61
240.492	0.55
240.709	0.46
240.925	0.41
241.142	0.44
241.359	0.31
241.576	0.3
241.793	0.36
242.01	0.47
242.227	0.53
242.444	0.45
242.66	0.57
242.877	0.55
243.094	0.3
243.311	0.39
243.527	0.35
243.744	0.48
243.961	0.52
244.178	0.35
244.394	0.39
244.611	0.6
244.828	0.79
245.044	0.33
245.261	0.28
245.477	0.51
245.694	0.56
245.911	0.24
246.127	0.48
246.344	0.64
246.56	0.55
246.777	0.42
246.993	0.38
247.21	0.49
247.426	0.58
247.643	0.31
247.859	0.35
248.076	0.36
248.292	0.73
248.508	0.3
248.725	0.36
248.941	0.58
249.157	0.58
249.374	0.25
249.59	0.38
249.806	0.42
250.023	0.46
250.239	0.36
250.455	0.32
250.671	0.44
250.888	0.43
251.104	0.49
251.32	0.32
251.536	0.45
251.752	0.41
251.969	0.38
252.185	0.39
252.401	0.6
252.617	0.42
252.833	0.29
253.049	0.41
253.265	0.43
253.481	0.4
253.697	0.29
253.913	0.32
254.129	0.43
254.345	0.45
254.561	0.3
254.777	0.37
254.993	0.42
255.209	0.52
255.425	0.37
255.641	0.32
255.857	0.48
256.073	0.44
256.288	0.22
256.504	0.25
256.72	0.42
256.936	0.51
257.152	0.34
257.367	0.34
257.583	0.42
257.799	0.5
258.015	0.31
258.23	0.28
258.446	0.58
258.662	0.36
258.877	0.3
259.093	0.26
259.309	0.37
259.524	0.49
259.74	0.25
259.955	0.27
260.171	0.35
260.387	0.4
260.602	0.36
260.818	0.4
261.033	0.25
261.249	0.4
261.464	0.27
261.68	0.19
261.895	0.42
262.11	0.45
262.326	0.28
262.541	0.23
262.757	0.54
262.972	0.38
263.187	0.35
263.403	0.38
263.618	0.44
263.833	0.36
264.049	0.22
264.264	0.26
264.479	0.37
264.694	0.48
264.91	0.21
265.125	0.29
265.34	0.36
265.555	0.56
265.77	0.31
265.986	0.26
266.201	0.46
266.416	0.47
266.631	0.3
266.846	0.35
267.061	0.38
267.276	0.39
267.491	0.19
267.706	0.3
267.921	0.42
268.136	0.33
268.351	0.34
268.566	0.26
268.781	0.4
268.996	0.45
269.211	0.3
269.426	0.23
269.641	0.28
269.856	0.48
270.071	0.23
270.285	0.26
270.5	0.46
270.715	0.44
270.93	0.26
271.145	0.33
271.359	0.43
271.574	0.28
271.789	0.27
272.004	0.28
272.218	0.32
272.433	0.37
272.648	0.23
272.862	0.36
273.077	0.36
273.292	0.29
273.506	0.27
273.721	0.23
273.936	0.47
274.15	0.38
274.365	0.3
274.579	0.36
274.794	0.35
275.008	0.36
275.223	0.2
275.437	0.35
275.652	0.47
275.866	0.36
276.081	0.31
276.295	0.37
276.509	0.32
276.724	0.37
276.938	0.29
277.153	0.33
277.367	0.35
277.581	0.22
277.796	0.29
278.01	0.25
278.224	0.46
278.438	0.47
278.653	0.23
278.867	0.19
279.081	0.19
279.295	0.26
279.51	0.28
279.724	0.13
279.938	0.37
280.152	0.35
280.366	0.23
280.58	0.35
280.794	0.39
281.008	0.4
281.222	0.31
281.437	0.45
281.651	0.3
281.865	0.37
282.079	0.24
282.293	0.14
282.507	0.34
282.721	0.25
282.935	0.29
283.148	0.16
283.362	0.27
283.576	0.22
283.79	0.24
284.004	0.22
284.218	0.4
284.432	0.22
284.646	0.3
284.859	0.27
285.073	0.29
285.287	0.32
285.501	0.28
285.714	0.28
285.928	0.24
286.142	0.33
286.356	0.22
286.569	0.24
286.783	0.34
286.997	0.41
287.21	0.3
287.424	0.29
287.637	0.29
287.851	0.3
288.065	0.34
288.278	0.25
288.492	0.33
288.705	0.29
288.919	0.31
289.132	0.22
289.346	0.31
289.559	0.18
289.773	0.21
289.986	0.21
290.2	0.27
290.413	0.33
290.626	0.25
290.84	0.23
291.053	0.25
291.267	0.35
291.48	0.26
291.693	0.25
291.906	0.24
292.12	0.23
292.333	0.21
292.546	0.24
292.76	0.36
292.973	0.3
293.186	0.34
293.399	0.2
293.612	0.32
293.826	0.25
294.039	0.26
294.252	0.27
294.465	0.37
294.678	0.3
294.891	0.25
295.104	0.16
295.317	0.29
295.53	0.29
295.743	0.23
295.956	0.24
296.169	0.37
296.382	0.27
296.595	0.25
296.808	0.16
297.021	0.39
297.234	0.32
297.447	0.18
297.66	0.29
297.873	0.33
298.086	0.33
298.299	0.27
298.511	0.14
298.724	0.21
298.937	0.23
299.15	0.2
299.363	0.23
299.575	0.29
299.788	0.3
300.001	0.21
300.213	0.18
300.426	0.23
300.639	0.23
300.852	0.24
301.064	0.27
301.277	0.34
301.489	0.32
301.702	0.27
301.915	0.25
302.127	0.23
302.34	0.24
302.552	0.3
302.765	0.18
302.977	0.31
303.19	0.22
303.402	0.22
303.615	0.19
303.827	0.22
304.04	0.23
304.252	0.3
304.464	0.26
304.677	0.41
304.889	0.3
305.102	0.21
305.314	0.21
305.526	0.27
305.739	0.3
305.951	0.2
306.163	0.23
306.375	0.32
306.588	0.2
306.8	0.22
307.012	0.15
307.224	0.28
307.436	0.35
307.649	0.15
307.861	0.23
308.073	0.31
308.285	0.21
308.497	0.2
308.709	0.2
308.921	0.26
309.133	0.29
309.346	0.23
309.558	0.2
309.77	0.34
309.982	0.34
310.194	0.29
310.406	0.2
310.617	0.39
310.829	0.24
311.041	0.3
311.253	0.2
311.465	0.26
311.677	0.25
311.889	0.24
312.101	0.2
312.313	0.3
312.524	0.31
312.736	0.15
312.948	0.25
313.16	0.35
313.372	0.29
313.583	0.28
313.795	0.23
314.007	0.25
314.218	0.29
314.43	0.27
314.642	0.2
314.853	0.17
315.065	0.36
315.277	0.24
315.488	0.25
315.7	0.31
315.912	0.28
316.123	0.25
316.335	0.25
316.546	0.38
316.758	0.25
316.969	0.21
317.181	0.25
317.392	0.26
317.604	0.31
317.815	0.22
318.026	0.19
318.238	0.23
318.449	0.28
318.661	0.15
318.872	0.22
319.083	0.19
319.295	0.28
319.506	0.24
319.717	0.25
319.929	0.28
320.14	0.24
320.351	0.24
320.562	0.2
320.774	0.28
320.985	0.24
321.196	0.21
321.407	0.14
321.618	0.29
321.829	0.28
322.041	0.24
322.252	0.24
322.463	0.26
322.674	0.24
322.885	0.23
323.096	0.22
323.307	0.24
323.518	0.29
323.729	0.23
323.94	0.24
324.151	0.25
324.362	0.27
324.573	0.26
324.784	0.23
324.995	0.31
325.206	0.26
325.417	0.22
325.628	0.2
325.838	0.22
326.049	0.3
326.26	0.28
326.471	0.21
326.682	0.29
326.892	0.24
327.103	0.15
327.314	0.18
327.525	0.28
327.735	0.29
327.946	0.23
328.157	0.22
328.368	0.3
328.578	0.21
328.789	0.27
328.999	0.25
329.21	0.22
329.421	0.33
329.631	0.22
329.842	0.2
330.052	0.27
330.263	0.3
330.473	0.25
330.684	0.22
330.894	0.23
331.105	0.24
331.315	0.22
331.526	0.19
331.736	0.37
331.947	0.24
332.157	0.27
332.367	0.19
332.578	0.28
332.788	0.35
332.999	0.26
333.209	0.22
333.419	0.16
333.629	0.32
333.84	0.28
334.05	0.21
334.26	0.37
334.47	0.3
334.681	0.25
334.891	0.19
335.101	0.29
335.311	0.35
335.521	0.21
335.732	0.21
335.942	0.37
336.152	0.31
336.362	0.22
336.572	0.3
336.782	0.32
336.992	0.27
337.202	0.27
337.412	0.21
337.622	0.32
337.832	0.23
338.042	0.24
338.252	0.18
338.462	0.23
338.672	0.28
338.882	0.26
339.092	0.22
339.302	0.34
339.511	0.25
339.721	0.2
339.931	0.19
340.141	0.3
340.351	0.32
340.561	0.25
340.77	0.26
340.98	0.29
341.19	0.26
341.4	0.18
341.609	0.18
341.819	0.21
342.029	0.22
342.238	0.29
342.448	0.24
342.658	0.32
342.867	0.24
343.077	0.23
343.286	0.24
343.496	0.29
343.706	0.31
343.915	0.2
344.125	0.23
344.334	0.25
344.544	0.16
344.753	0.22
344.963	0.21
345.172	0.23
345.381	0.29
345.591	0.2
345.8	0.24
346.01	0.33
346.219	0.29
346.428	0.22
346.638	0.25
346.847	0.24
347.056	0.32
347.266	0.25
347.475	0.24
347.684	0.25
347.893	0.35
348.103	0.26
348.312	0.17
348.521	0.23
348.73	0.22
348.94	0.24
349.149	0.22
349.358	0.29
349.567	0.22
349.776	0.13
349.985	0.22
350.194	0.3
350.403	0.3
350.612	0.17
350.821	0.19
351.03	0.22
351.239	0.15
351.448	0.21
351.657	0.21
351.866	0.34
352.075	0.24
352.284	0.22
352.493	0.22
352.702	0.31
352.911	0.25
353.12	0.24
353.329	0.18
353.538	0.25
353.746	0.22
353.955	0.23
354.164	0.26
354.373	0.23
354.582	0.27
354.79	0.21
354.999	0.29
355.208	0.21
355.416	0.3
355.625	0.16
355.834	0.22
356.042	0.22
356.251	0.2
356.46	0.18
356.668	0.23
356.877	0.34
357.085	0.27
357.294	0.18
357.503	0.26
357.711	0.22
357.92	0.37
358.128	0.28
358.337	0.21
358.545	0.28
358.754	0.21
358.962	0.31
359.17	0.2
359.379	0.24
359.587	0.28
359.796	0.22
360.004	0.27
360.212	0.26
360.421	0.3
360.629	0.19
360.837	0.23
361.046	0.27
361.254	0.42
361.462	0.23
361.67	0.21
361.879	0.27
362.087	0.33
362.295	0.26
362.503	0.22
362.711	0.19
362.92	0.22
363.128	0.19
363.336	0.19
363.544	0.21
363.752	0.22
363.96	0.21
364.168	0.2
364.376	0.2
364.584	0.27
364.792	0.31
365	0.23
365.208	0.23
365.416	0.24
365.624	0.25
365.832	0.21
366.04	0.37
366.248	0.25
366.456	0.24
366.664	0.22
366.872	0.25
367.079	0.25
367.287	0.24
367.495	0.25
367.703	0.24
367.911	0.25
368.118	0.22
368.326	0.23
368.534	0.22
368.742	0.33
368.949	0.16
369.157	0.22
369.365	0.26
369.572	0.22
369.78	0.14
369.988	0.3
370.195	0.25
370.403	0.32
370.61	0.2
370.818	0.24
371.026	0.35
371.233	0.21
371.441	0.23
371.648	0.24
371.856	0.27
372.063	0.26
372.271	0.19
372.478	0.22
372.685	0.22
372.893	0.31
373.1	0.28
373.308	0.24
373.515	0.37
373.722	0.3
373.93	0.22
374.137	0.28
374.344	0.3
374.552	0.29
374.759	0.29
374.966	0.24
375.173	0.21
375.381	0.35
375.588	0.23
375.795	0.17
376.002	0.22
376.209	0.18
376.417	0.28
376.624	0.27
376.831	0.3
377.038	0.26
377.245	0.17
377.452	0.21
377.659	0.25
377.866	0.2
378.073	0.22
378.28	0.23
378.487	0.32
378.694	0.33
378.901	0.26
379.108	0.23
379.315	0.31
379.522	0.33
379.729	0.28
379.936	0.24
380.143	0.27
380.35	0.27
380.557	0.25
380.763	0.24
380.97	0.28
381.177	0.31
381.384	0.27
381.591	0.26
381.797	0.32
382.004	0.3
382.211	0.28
382.418	0.2
382.624	0.26
382.831	0.34
383.038	0.26
383.244	0.25
383.451	0.3
383.658	0.3
383.864	0.23
384.071	0.23
384.277	0.35
384.484	0.24
384.69	0.35
384.897	0.26
385.103	0.29
385.31	0.2
385.516	0.25
385.723	0.25
385.929	0.29
386.136	0.25
386.342	0.34
386.549	0.24
386.755	0.35
386.961	0.29
387.168	0.24
387.374	0.28
387.58	0.33
387.787	0.28
387.993	0.3
388.199	0.29
388.406	0.22
388.612	0.25
388.818	0.24
389.024	0.18
389.231	0.31
389.437	0.38
389.643	0.34
389.849	0.24
390.055	0.29
390.261	0.3
390.467	0.31
390.674	0.22
390.88	0.32
391.086	0.35
391.292	0.25
391.498	0.29
391.704	0.26
391.91	0.27
392.116	0.28
392.322	0.15
392.528	0.35
392.734	0.25
392.94	0.32
393.146	0.25
393.352	0.31
393.557	0.25
393.763	0.3
393.969	0.33
394.175	0.32
394.381	0.31
394.587	0.23
394.792	0.3
394.998	0.35
395.204	0.35
395.41	0.23
395.615	0.34
395.821	0.37
396.027	0.32
396.233	0.31
396.438	0.36
396.644	0.36
396.85	0.32
397.055	0.28
397.261	0.33
397.466	0.31
397.672	0.35
397.878	0.34
398.083	0.35
398.289	0.28
398.494	0.41
398.7	0.41
398.905	0.24
399.111	0.45
399.316	0.29
399.522	0.3
399.727	0.29
399.932	0.31
400.138	0.29
400.343	0.34
400.549	0.35
400.754	0.36
400.959	0.36
401.165	0.34
401.37	0.34
401.575	0.39
401.78	0.31
401.986	0.31
402.191	0.35
402.396	0.41
402.601	0.42
402.807	0.45
403.012	0.39
403.217	0.43
403.422	0.44
403.627	0.42
403.832	0.33
404.037	0.43
404.243	0.4
404.448	0.35
404.653	0.41
404.858	0.43
405.063	0.45
405.268	0.42
405.473	0.35
405.678	0.39
405.883	0.65
406.088	0.51
406.293	0.38
406.498	0.48
406.703	0.53
406.907	0.41
407.112	0.37
407.317	0.46
407.522	0.61
407.727	0.43
407.932	0.53
408.136	0.62
408.341	0.49
408.546	0.53
408.751	0.51
408.956	0.54
409.16	0.65
409.365	0.57
409.57	0.55
409.774	0.6
409.979	0.66
410.184	0.64
410.388	0.64
410.593	0.7
410.798	0.7
411.002	0.65
411.207	0.81
411.411	0.76
411.616	0.72
411.82	0.8
412.025	0.81
412.229	0.81
412.434	0.93
412.638	0.9
412.843	0.84
413.047	0.89
413.252	0.9
413.456	0.98
413.66	1.04
413.865	1
414.069	1.09
414.273	0.97
414.478	1.05
414.682	1.06
414.886	1.18
415.091	1.12
415.295	1.15
415.499	1.37
415.703	1.27
415.908	1.36
416.112	1.35
416.316	1.52
416.52	1.48
416.724	1.43
416.929	1.49
417.133	1.74
417.337	1.63
417.541	1.69
417.745	1.71
417.949	1.86
418.153	1.86
418.357	1.89
418.561	2.17
418.765	2.08
418.969	2.27
419.173	2.33
419.377	2.2
419.581	2.49
419.785	2.5
419.989	2.5
420.193	2.63
420.397	2.73
420.601	2.87
420.804	2.9
421.008	2.87
421.212	3.08
421.416	3.09
421.62	3.07
421.823	3.1
422.027	3.38
422.231	3.33
422.435	3.27
422.638	3.3
422.842	3.48
423.046	3.45
423.249	3.78
423.453	3.74
423.657	3.85
423.86	3.99
424.064	4.04
424.268	4.17
424.471	4.26
424.675	4.43
424.878	4.45
425.082	4.61
425.285	4.91
425.489	4.77
425.692	4.92
425.896	4.89
426.099	5.19
426.303	5.26
426.506	5.42
426.71	5.58
426.913	5.81
427.116	5.98
427.32	5.9
427.523	5.94
427.726	6.43
427.93	6.51
428.133	6.74
428.336	6.85
428.54	6.96
428.743	7.27
428.946	7.48
429.149	7.46
429.353	7.5
429.556	7.64
429.759	7.65
429.962	7.72
430.165	8.03
430.368	7.61
430.571	7.75
430.775	7.78
430.978	7.76
431.181	7.78
431.384	7.9
431.587	8.01
431.79	8.4
431.993	8.36
432.196	8.62
432.399	8.89
432.602	9.07
432.805	9.2
433.008	9.71
433.211	9.61
433.414	9.98
433.616	9.89
433.819	9.88
434.022	10.07
434.225	10.31
434.428	10.23
434.631	10.66
434.833	10.51
435.036	10.78
435.239	10.89
435.442	10.99
435.645	11.18
435.847	11.16
436.05	11.61
436.253	11.86
436.455	11.72
436.658	11.79
436.861	11.96
437.063	11.99
437.266	12.13
437.468	12.39
437.671	12.72
437.874	12.75
438.076	12.61
438.279	12.96
438.481	13.07
438.684	13.81
438.886	13.39
439.089	13.68
439.291	13.86
439.494	14.08
439.696	14.27
439.899	14.78
440.101	15.23
440.303	15.33
440.506	15.97
440.708	15.76
440.91	15.99
441.113	16.15
441.315	16.46
441.517	16.33
441.72	16.8
441.922	16.45
442.124	16.16
442.326	16.61
442.529	17.04
442.731	16.94
442.933	17.25
443.135	17
443.337	16.99
443.539	17.55
443.742	17.13
443.944	17.84
444.146	17.69
444.348	17.55
444.55	17.49
444.752	17.69
444.954	17.67
445.156	17.44
445.358	18.07
445.56	18.21
445.762	18.12
445.964	18.49
446.166	18.18
446.368	18.28
446.57	18.28
446.772	17.9
446.974	17.7
447.175	17.92
447.377	17.76
447.579	18.07
447.781	17.83
447.983	17.59
448.184	17.37
448.386	17.62
448.588	17.14
448.79	17.09
448.991	17.56
449.193	17.5
449.395	16.78
449.597	16.45
449.798	16.39
450	15.84
450.202	15.79
450.403	15.95
450.605	15.85
450.806	15.39
451.008	15.22
451.21	15.16
451.411	14.6
451.613	14.01
451.814	14.17
452.016	14.21
452.217	13.57
452.419	13.47
452.62	13.11
452.821	13.07
453.023	12.85
453.224	12.46
453.426	12.12
453.627	11.3
453.828	11.38
454.03	11.55
454.231	11.56
454.432	11.31
454.634	11.17
454.835	10.81
455.036	10.61
455.238	10.32
455.439	10.04
455.64	9.76
455.841	9.61
456.042	9.82
456.244	9.46
456.445	9.23
456.646	8.8
456.847	8.77
457.048	8.75
457.249	8.72
457.45	8.51
457.651	7.9
457.852	7.89
458.054	7.51
458.255	7.44
458.456	7.5
458.657	7.36
458.858	6.92
459.058	6.93
459.259	6.86
459.46	6.57
459.661	6.6
459.862	6.59
460.063	6.5
460.264	6.45
460.465	6.15
460.666	6.2
460.866	5.88
461.067	5.75
461.268	5.64
461.469	5.56
461.67	5.54
461.87	5.35
462.071	5.34
462.272	5.28
462.473	5.22
462.673	5.42
462.874	5.25
463.075	5.33
463.275	5.22
463.476	5.26
463.676	5.24
463.877	5.03
464.078	5.04
464.278	5.13
464.479	4.92
464.679	4.82
464.88	4.9
465.08	4.82
465.281	4.6
465.481	4.45
465.682	4.26
465.882	4.25
466.083	4.14
466.283	4.12
466.483	3.97
466.684	3.77
466.884	3.78
467.085	3.83
467.285	3.88
467.485	3.65
467.686	3.62
467.886	3.54
468.086	3.49
468.286	3.46
468.487	3.55
468.687	3.4
468.887	3.35
469.087	3.46
469.287	3.37
469.488	3.17
469.688	3.31
469.888	3.2
470.088	3.2
470.288	3.16
470.488	3.17
470.688	2.94
470.888	2.91
471.088	2.77
471.288	2.91
471.488	2.88
471.688	2.81
471.888	2.78
472.088	2.94
472.288	2.83
472.488	2.68
472.688	2.59
472.888	2.71
473.088	2.62
473.288	2.61
473.488	2.49
473.688	2.69
473.887	2.53
474.087	2.45
474.287	2.51
474.487	2.48
474.687	2.49
474.886	2.45
475.086	2.35
475.286	2.38
475.486	2.33
475.685	2.32
475.885	2.26
476.085	2.33
476.284	2.33
476.484	2.22
476.684	2.22
476.883	2.35
477.083	2.26
477.282	2.19
477.482	2.22
477.681	2.19
477.881	2.09
478.08	2.15
478.28	2.09
478.479	2.15
478.679	2.19
478.878	2.1
479.078	2.07
479.277	2.13
479.477	2.09
479.676	2.09
479.875	2.05
480.075	1.97
480.274	2.11
480.473	2.11
480.673	2.05
480.872	2.17
481.071	2.06
481.271	2.12
481.47	2.04
481.669	2.06
481.868	1.99
482.067	2.03
482.267	1.98
482.466	1.97
482.665	1.97
482.864	1.94
483.063	1.97
483.262	2.09
483.461	2.06
483.661	2.14
483.86	2.06
484.059	2.09
484.258	2.09
484.457	2.06
484.656	2.04
484.855	2.11
485.054	1.95
485.253	2
485.452	1.97
485.651	2.1
485.849	2.07
486.048	2.04
486.247	2.04
486.446	2.1
486.645	2.06
486.844	2.1
487.043	2.11
487.241	2.13
487.44	2.14
487.639	2.14
487.838	2.16
488.037	2.16
488.235	2.24
488.434	2.17
488.633	2.07
488.831	2.23
489.03	2.28
489.229	2.25
489.427	2.23
489.626	2.31
489.825	2.31
490.023	2.3
490.222	2.3
490.42	2.33
490.619	2.36
490.817	2.38
491.016	2.37
491.214	2.47
491.413	2.45
491.611	2.37
491.81	2.41
492.008	2.47
492.207	2.53
492.405	2.56
492.604	2.45
492.802	2.53
493	2.59
493.199	2.62
493.397	2.63
493.595	2.68
493.794	2.63
493.992	2.79
494.19	2.76
494.388	2.86
494.587	2.75
494.785	2.81
494.983	2.76
495.181	2.87
495.379	2.88
495.578	2.95
495.776	2.98
495.974	2.91
496.172	2.94
496.37	3.04
496.568	3.1
496.766	3.03
496.964	3.17
497.162	3.16
497.36	3.19
497.558	3.23
497.756	3.28
497.954	3.26
498.152	3.34
498.35	3.41
498.548	3.37
498.746	3.38
498.944	3.38
499.142	3.41
499.34	3.55
499.538	3.61
499.736	3.52
499.933	3.6
500.131	3.63
500.329	3.74
500.527	3.73
500.725	3.85
500.922	3.81
501.12	3.83
501.318	3.92
501.516	3.89
501.713	3.97
501.911	3.96
502.109	3.92
502.306	4.09
502.504	4
502.701	4.07
