Data from Apollo_Calib_20240827__AbsoluteIrradiance__796__12-25-02-147.txt Node

Date: Wed Aug 28 12:25:02 BST 2024
User: biology
Spectrometer: FLMT08252
Trigger mode: 0
Integration Time (sec): 5.000000E-1
Scans to average: 5
Electric dark correction enabled: true
Nonlinearity correction enabled: false
Boxcar width: 0
XAxis mode: Wavelengths
Number of Pixels in Spectrum: 3648
>>>>>Begin Spectral Data<<<<<
179.588	-0
179.809	-0
180.03	-0
180.251	-0
180.473	-0
180.694	0
180.915	0
181.136	-0
181.357	0
181.578	-0
181.799	0
182.02	-0
182.241	-0
182.462	0
182.683	0
182.904	-0
183.125	-0
183.346	0
183.567	0
183.788	0
184.009	0
184.23	0
184.451	0
184.672	0
184.892	0
185.113	0
185.334	0
185.555	0
185.776	0
185.996	0
186.217	0
186.438	0
186.659	0
186.879	0
187.1	0
187.321	0
187.541	0
187.762	0
187.983	0
188.203	0
188.424	0
188.644	0
188.865	0
189.086	0
189.306	0
189.527	0
189.747	0
189.968	0
190.188	0
190.409	0
190.629	0
190.849	0
191.07	0
191.29	0
191.511	0
191.731	0
191.951	0
192.172	0
192.392	0
192.612	0
192.833	0
193.053	0
193.273	0
193.493	0
193.714	0
193.934	0
194.154	0
194.374	0
194.594	0
194.815	0
195.035	0
195.255	0
195.475	0
195.695	0
195.915	0
196.135	0
196.355	0
196.575	0
196.795	0
197.015	0
197.235	0
197.455	0
197.675	0
197.895	0
198.115	0
198.335	0
198.555	0
198.775	0
198.995	0
199.214	0
199.434	0
199.654	0
199.874	0
200.094	4.56
200.313	1.85
200.533	1.64
200.753	1.39
200.973	3.38
201.192	2.92
201.412	0.82
201.632	1.48
201.851	3.34
202.071	1.79
202.291	1.63
202.51	1.45
202.73	2.3
202.95	1.69
203.169	1.11
203.389	1.68
203.608	2.02
203.828	1.68
204.047	1.51
204.267	2.19
204.486	2.22
204.706	2.17
204.925	1.79
205.145	1.29
205.364	1.89
205.583	2.28
205.803	1.36
206.022	0.99
206.242	1.74
206.461	1.42
206.68	1.15
206.9	1.58
207.119	2.19
207.338	2.32
207.557	1.07
207.777	1.42
207.996	1.4
208.215	2.07
208.434	0.95
208.654	0.86
208.873	1.3
209.092	1.89
209.311	0.83
209.53	1.17
209.749	1.27
209.968	1.24
210.187	0.95
210.407	0.6
210.626	1.16
210.845	1.51
211.064	1.11
211.283	0.52
211.502	1.46
211.721	1.06
211.94	0.97
212.159	1.08
212.377	1.21
212.596	1.63
212.815	1.11
213.034	1.18
213.253	1.32
213.472	1.25
213.691	0.79
213.91	0.73
214.128	0.6
214.347	1.5
214.566	0.47
214.785	0.41
215.003	1.24
215.222	1.16
215.441	0.97
215.66	0.38
215.878	0.92
216.097	1.13
216.316	0.71
216.534	0.8
216.753	0.99
216.972	0.89
217.19	0.93
217.409	0.59
217.627	0.74
217.846	0.6
218.064	0.82
218.283	0.68
218.501	1.4
218.72	1.15
218.938	0.66
219.157	0.57
219.375	1.03
219.594	0.91
219.812	0.53
220.031	0.64
220.249	1.14
220.467	1.14
220.686	0.59
220.904	0.28
221.122	0.58
221.341	1.06
221.559	0.77
221.777	0.47
221.995	0.75
222.214	0.94
222.432	0.52
222.65	0.75
222.868	0.75
223.086	0.96
223.305	0.79
223.523	0.6
223.741	1.05
223.959	0.8
224.177	0.34
224.395	0.63
224.613	0.75
224.831	0.81
225.049	0.37
225.267	0.5
225.485	0.78
225.703	0.66
225.921	0.44
226.139	0.31
226.357	0.7
226.575	0.66
226.793	0.46
227.011	1.53
227.229	0.75
227.447	0.9
227.665	0.41
227.883	0.34
228.1	0.54
228.318	0.79
228.536	0.22
228.754	0.41
228.972	0.59
229.189	0.73
229.407	0.44
229.625	0.64
229.843	0.75
230.06	0.89
230.278	0.48
230.496	0.52
230.713	0.59
230.931	0.82
231.149	0.46
231.366	0.31
231.584	0.51
231.801	1.05
232.019	0.43
232.236	0.3
232.454	0.38
232.671	0.58
232.889	0.4
233.106	0.41
233.324	0.6
233.541	0.46
233.759	0.46
233.976	0.46
234.194	0.43
234.411	0.47
234.628	0.26
234.846	0.34
235.063	0.45
235.28	0.45
235.498	0.48
235.715	0.37
235.932	0.72
236.149	0.55
236.367	0.28
236.584	0.52
236.801	0.42
237.018	0.64
237.236	0.46
237.453	0.32
237.67	0.67
237.887	0.51
238.104	0.37
238.321	0.39
238.538	0.34
238.755	0.69
238.973	0.3
239.19	0.49
239.407	0.55
239.624	0.49
239.841	0.31
240.058	0.31
240.275	0.43
240.492	0.42
240.709	0.42
240.925	0.37
241.142	0.41
241.359	0.36
241.576	0.31
241.793	0.4
242.01	0.41
242.227	0.59
242.444	0.54
242.66	0.58
242.877	0.48
243.094	0.4
243.311	0.41
243.527	0.4
243.744	0.46
243.961	0.48
244.178	0.35
244.394	0.43
244.611	0.54
244.828	0.61
245.044	0.35
245.261	0.4
245.477	0.51
245.694	0.56
245.911	0.33
246.127	0.43
246.344	0.55
246.56	0.57
246.777	0.34
246.993	0.39
247.21	0.47
247.426	0.55
247.643	0.35
247.859	0.26
248.076	0.31
248.292	0.68
248.508	0.37
248.725	0.42
248.941	0.47
249.157	0.59
249.374	0.28
249.59	0.32
249.806	0.35
250.023	0.46
250.239	0.39
250.455	0.34
250.671	0.43
250.888	0.43
251.104	0.48
251.32	0.32
251.536	0.43
251.752	0.43
251.969	0.37
252.185	0.32
252.401	0.62
252.617	0.46
252.833	0.24
253.049	0.37
253.265	0.39
253.481	0.49
253.697	0.3
253.913	0.33
254.129	0.54
254.345	0.38
254.561	0.35
254.777	0.35
254.993	0.46
255.209	0.49
255.425	0.32
255.641	0.28
255.857	0.49
256.073	0.4
256.288	0.21
256.504	0.27
256.72	0.44
256.936	0.6
257.152	0.27
257.367	0.27
257.583	0.34
257.799	0.48
258.015	0.32
258.23	0.31
258.446	0.54
258.662	0.37
258.877	0.21
259.093	0.31
259.309	0.34
259.524	0.46
259.74	0.32
259.955	0.23
260.171	0.3
260.387	0.32
260.602	0.41
260.818	0.4
261.033	0.28
261.249	0.33
261.464	0.28
261.68	0.24
261.895	0.43
262.11	0.42
262.326	0.29
262.541	0.2
262.757	0.45
262.972	0.4
263.187	0.31
263.403	0.35
263.618	0.45
263.833	0.34
264.049	0.31
264.264	0.36
264.479	0.46
264.694	0.48
264.91	0.27
265.125	0.32
265.34	0.4
265.555	0.45
265.77	0.33
265.986	0.24
266.201	0.4
266.416	0.4
266.631	0.36
266.846	0.3
267.061	0.39
267.276	0.42
267.491	0.18
267.706	0.35
267.921	0.35
268.136	0.29
268.351	0.31
268.566	0.22
268.781	0.43
268.996	0.43
269.211	0.3
269.426	0.26
269.641	0.32
269.856	0.43
270.071	0.25
270.285	0.23
270.5	0.39
270.715	0.42
270.93	0.26
271.145	0.33
271.359	0.39
271.574	0.27
271.789	0.33
272.004	0.26
272.218	0.29
272.433	0.34
272.648	0.25
272.862	0.38
273.077	0.28
273.292	0.28
273.506	0.22
273.721	0.29
273.936	0.42
274.15	0.43
274.365	0.29
274.579	0.32
274.794	0.44
275.008	0.45
275.223	0.16
275.437	0.28
275.652	0.44
275.866	0.32
276.081	0.27
276.295	0.42
276.509	0.35
276.724	0.28
276.938	0.28
277.153	0.34
277.367	0.4
277.581	0.28
277.796	0.28
278.01	0.23
278.224	0.35
278.438	0.43
278.653	0.18
278.867	0.23
279.081	0.39
279.295	0.26
279.51	0.34
279.724	0.16
279.938	0.37
280.152	0.36
280.366	0.22
280.58	0.3
280.794	0.45
281.008	0.37
281.222	0.35
281.437	0.48
281.651	0.34
281.865	0.4
282.079	0.29
282.293	0.11
282.507	0.22
282.721	0.31
282.935	0.28
283.148	0.19
283.362	0.27
283.576	0.21
283.79	0.26
284.004	0.2
284.218	0.41
284.432	0.27
284.646	0.28
284.859	0.25
285.073	0.3
285.287	0.28
285.501	0.29
285.714	0.26
285.928	0.29
286.142	0.33
286.356	0.23
286.569	0.16
286.783	0.39
286.997	0.38
287.21	0.3
287.424	0.24
287.637	0.25
287.851	0.23
288.065	0.29
288.278	0.25
288.492	0.27
288.705	0.23
288.919	0.33
289.132	0.18
289.346	0.36
289.559	0.21
289.773	0.18
289.986	0.27
290.2	0.29
290.413	0.31
290.626	0.25
290.84	0.21
291.053	0.28
291.267	0.33
291.48	0.26
291.693	0.29
291.906	0.24
292.12	0.32
292.333	0.23
292.546	0.21
292.76	0.33
292.973	0.28
293.186	0.29
293.399	0.24
293.612	0.3
293.826	0.27
294.039	0.23
294.252	0.24
294.465	0.37
294.678	0.27
294.891	0.22
295.104	0.23
295.317	0.26
295.53	0.29
295.743	0.25
295.956	0.23
296.169	0.4
296.382	0.33
296.595	0.26
296.808	0.18
297.021	0.36
297.234	0.23
297.447	0.27
297.66	0.34
297.873	0.33
298.086	0.36
298.299	0.2
298.511	0.19
298.724	0.29
298.937	0.15
299.15	0.17
299.363	0.24
299.575	0.29
299.788	0.31
300.001	0.19
300.213	0.25
300.426	0.21
300.639	0.2
300.852	0.19
301.064	0.28
301.277	0.3
301.489	0.3
301.702	0.28
301.915	0.23
302.127	0.28
302.34	0.25
302.552	0.29
302.765	0.18
302.977	0.34
303.19	0.23
303.402	0.23
303.615	0.24
303.827	0.22
304.04	0.24
304.252	0.3
304.464	0.22
304.677	0.41
304.889	0.29
305.102	0.21
305.314	0.21
305.526	0.3
305.739	0.28
305.951	0.24
306.163	0.2
306.375	0.37
306.588	0.21
306.8	0.2
307.012	0.17
307.224	0.27
307.436	0.31
307.649	0.22
307.861	0.23
308.073	0.32
308.285	0.23
308.497	0.19
308.709	0.2
308.921	0.24
309.133	0.31
309.346	0.21
309.558	0.23
309.77	0.32
309.982	0.3
310.194	0.25
310.406	0.17
310.617	0.37
310.829	0.28
311.041	0.26
311.253	0.21
311.465	0.28
311.677	0.26
311.889	0.23
312.101	0.17
312.313	0.29
312.524	0.31
312.736	0.18
312.948	0.21
313.16	0.38
313.372	0.31
313.583	0.26
313.795	0.25
314.007	0.22
314.218	0.33
314.43	0.22
314.642	0.22
314.853	0.16
315.065	0.33
315.277	0.23
315.488	0.26
315.7	0.27
315.912	0.27
316.123	0.25
316.335	0.25
316.546	0.41
316.758	0.24
316.969	0.23
317.181	0.27
317.392	0.28
317.604	0.32
317.815	0.17
318.026	0.22
318.238	0.22
318.449	0.27
318.661	0.17
318.872	0.19
319.083	0.21
319.295	0.28
319.506	0.28
319.717	0.26
319.929	0.27
320.14	0.24
320.351	0.21
320.562	0.21
320.774	0.29
320.985	0.26
321.196	0.19
321.407	0.12
321.618	0.32
321.829	0.28
322.041	0.29
322.252	0.22
322.463	0.32
322.674	0.29
322.885	0.19
323.096	0.2
323.307	0.27
323.518	0.25
323.729	0.21
323.94	0.18
324.151	0.21
324.362	0.29
324.573	0.26
324.784	0.24
324.995	0.28
325.206	0.3
325.417	0.2
325.628	0.22
325.838	0.22
326.049	0.25
326.26	0.3
326.471	0.24
326.682	0.3
326.892	0.27
327.103	0.18
327.314	0.21
327.525	0.32
327.735	0.26
327.946	0.23
328.157	0.19
328.368	0.33
328.578	0.27
328.789	0.24
328.999	0.27
329.21	0.28
329.421	0.32
329.631	0.16
329.842	0.19
330.052	0.25
330.263	0.32
330.473	0.27
330.684	0.24
330.894	0.23
331.105	0.25
331.315	0.21
331.526	0.16
331.736	0.36
331.947	0.23
332.157	0.27
332.367	0.19
332.578	0.3
332.788	0.34
332.999	0.28
333.209	0.22
333.419	0.18
333.629	0.27
333.84	0.25
334.05	0.24
334.26	0.37
334.47	0.3
334.681	0.31
334.891	0.23
335.101	0.26
335.311	0.36
335.521	0.24
335.732	0.2
335.942	0.35
336.152	0.3
336.362	0.22
336.572	0.23
336.782	0.31
336.992	0.24
337.202	0.25
337.412	0.19
337.622	0.24
337.832	0.25
338.042	0.24
338.252	0.16
338.462	0.21
338.672	0.25
338.882	0.21
339.092	0.24
339.302	0.33
339.511	0.3
339.721	0.18
339.931	0.2
340.141	0.32
340.351	0.34
340.561	0.19
340.77	0.25
340.98	0.26
341.19	0.26
341.4	0.24
341.609	0.16
341.819	0.23
342.029	0.2
342.238	0.28
342.448	0.22
342.658	0.35
342.867	0.22
343.077	0.22
343.286	0.26
343.496	0.25
343.706	0.35
343.915	0.24
344.125	0.21
344.334	0.27
344.544	0.15
344.753	0.18
344.963	0.18
345.172	0.23
345.381	0.22
345.591	0.16
345.8	0.24
346.01	0.34
346.219	0.35
346.428	0.15
346.638	0.21
346.847	0.24
347.056	0.3
347.266	0.22
347.475	0.24
347.684	0.28
347.893	0.29
348.103	0.28
348.312	0.22
348.521	0.24
348.73	0.27
348.94	0.2
349.149	0.22
349.358	0.23
349.567	0.2
349.776	0.17
349.985	0.24
350.194	0.27
350.403	0.3
350.612	0.16
350.821	0.19
351.03	0.26
351.239	0.19
351.448	0.23
351.657	0.2
351.866	0.33
352.075	0.24
352.284	0.2
352.493	0.14
352.702	0.31
352.911	0.26
353.12	0.25
353.329	0.21
353.538	0.26
353.746	0.28
353.955	0.17
354.164	0.24
354.373	0.22
354.582	0.27
354.79	0.23
354.999	0.26
355.208	0.23
355.416	0.32
355.625	0.16
355.834	0.23
356.042	0.3
356.251	0.22
356.46	0.18
356.668	0.25
356.877	0.32
357.085	0.3
357.294	0.14
357.503	0.23
357.711	0.21
357.92	0.43
358.128	0.23
358.337	0.22
358.545	0.27
358.754	0.22
358.962	0.29
359.17	0.21
359.379	0.24
359.587	0.3
359.796	0.25
360.004	0.29
360.212	0.26
360.421	0.28
360.629	0.2
360.837	0.23
361.046	0.35
361.254	0.39
361.462	0.21
361.67	0.15
361.879	0.28
362.087	0.35
362.295	0.24
362.503	0.19
362.711	0.17
362.92	0.23
363.128	0.19
363.336	0.16
363.544	0.2
363.752	0.25
363.96	0.22
364.168	0.2
364.376	0.2
364.584	0.29
364.792	0.29
365	0.23
365.208	0.2
365.416	0.25
365.624	0.29
365.832	0.21
366.04	0.3
366.248	0.25
366.456	0.26
366.664	0.22
366.872	0.22
367.079	0.24
367.287	0.25
367.495	0.27
367.703	0.24
367.911	0.2
368.118	0.26
368.326	0.25
368.534	0.18
368.742	0.33
368.949	0.17
369.157	0.19
369.365	0.26
369.572	0.22
369.78	0.17
369.988	0.28
370.195	0.24
370.403	0.25
370.61	0.18
370.818	0.26
371.026	0.32
371.233	0.21
371.441	0.25
371.648	0.22
371.856	0.25
372.063	0.25
372.271	0.2
372.478	0.2
372.685	0.26
372.893	0.26
373.1	0.24
373.308	0.22
373.515	0.31
373.722	0.3
373.93	0.2
374.137	0.27
374.344	0.37
374.552	0.3
374.759	0.24
374.966	0.25
375.173	0.22
375.381	0.28
375.588	0.23
375.795	0.21
376.002	0.23
376.209	0.24
376.417	0.25
376.624	0.26
376.831	0.29
377.038	0.23
377.245	0.14
377.452	0.16
377.659	0.24
377.866	0.25
378.073	0.22
378.28	0.25
378.487	0.34
378.694	0.29
378.901	0.22
379.108	0.24
379.315	0.32
379.522	0.34
379.729	0.27
379.936	0.25
380.143	0.26
380.35	0.26
380.557	0.27
380.763	0.17
380.97	0.25
381.177	0.31
381.384	0.28
381.591	0.19
381.797	0.27
382.004	0.32
382.211	0.27
382.418	0.19
382.624	0.28
382.831	0.38
383.038	0.23
383.244	0.3
383.451	0.24
383.658	0.31
383.864	0.23
384.071	0.17
384.277	0.37
384.484	0.26
384.69	0.31
384.897	0.22
385.103	0.25
385.31	0.24
385.516	0.25
385.723	0.22
385.929	0.28
386.136	0.26
386.342	0.28
386.549	0.24
386.755	0.33
386.961	0.35
387.168	0.24
387.374	0.23
387.58	0.32
387.787	0.27
387.993	0.28
388.199	0.28
388.406	0.24
388.612	0.24
388.818	0.23
389.024	0.23
389.231	0.31
389.437	0.4
389.643	0.34
389.849	0.26
390.055	0.25
390.261	0.31
390.467	0.29
390.674	0.28
390.88	0.24
391.086	0.28
391.292	0.22
391.498	0.31
391.704	0.3
391.91	0.27
392.116	0.26
392.322	0.18
392.528	0.34
392.734	0.33
392.94	0.29
393.146	0.3
393.352	0.31
393.557	0.29
393.763	0.26
393.969	0.32
394.175	0.26
394.381	0.34
394.587	0.25
394.792	0.32
394.998	0.31
395.204	0.37
395.41	0.22
395.615	0.33
395.821	0.35
396.027	0.32
396.233	0.23
396.438	0.33
396.644	0.36
396.85	0.31
397.055	0.3
397.261	0.33
397.466	0.37
397.672	0.32
397.878	0.35
398.083	0.37
398.289	0.28
398.494	0.42
398.7	0.35
398.905	0.25
399.111	0.39
399.316	0.3
399.522	0.34
399.727	0.33
399.932	0.3
400.138	0.3
400.343	0.37
400.549	0.35
400.754	0.39
400.959	0.31
401.165	0.34
401.37	0.4
401.575	0.47
401.78	0.4
401.986	0.4
402.191	0.31
402.396	0.36
402.601	0.39
402.807	0.37
403.012	0.35
403.217	0.43
403.422	0.4
403.627	0.43
403.832	0.37
404.037	0.46
404.243	0.44
404.448	0.39
404.653	0.41
404.858	0.46
405.063	0.44
405.268	0.39
405.473	0.37
405.678	0.38
405.883	0.61
406.088	0.44
406.293	0.39
406.498	0.42
406.703	0.49
406.907	0.5
407.112	0.45
407.317	0.51
407.522	0.55
407.727	0.47
407.932	0.52
408.136	0.63
408.341	0.52
408.546	0.55
408.751	0.55
408.956	0.55
409.16	0.66
409.365	0.59
409.57	0.58
409.774	0.6
409.979	0.64
410.184	0.66
410.388	0.55
410.593	0.74
410.798	0.75
411.002	0.68
411.207	0.77
411.411	0.77
411.616	0.72
411.82	0.7
412.025	0.78
412.229	0.75
412.434	0.93
412.638	0.87
412.843	0.88
413.047	0.96
413.252	0.92
413.456	0.92
413.66	1
413.865	0.97
414.069	1.09
414.273	1.02
414.478	1.11
414.682	1.08
414.886	1.15
415.091	1.15
415.295	1.14
415.499	1.35
415.703	1.27
415.908	1.41
416.112	1.28
416.316	1.53
416.52	1.48
416.724	1.46
416.929	1.54
417.133	1.74
417.337	1.58
417.541	1.69
417.745	1.74
417.949	1.81
418.153	1.84
418.357	1.87
418.561	2.16
418.765	2
418.969	2.23
419.173	2.33
419.377	2.26
419.581	2.48
419.785	2.47
419.989	2.5
420.193	2.6
420.397	2.78
420.601	2.81
420.804	2.93
421.008	2.95
421.212	3.1
421.416	3.08
421.62	3.03
421.823	3.11
422.027	3.3
422.231	3.3
422.435	3.23
422.638	3.36
422.842	3.41
423.046	3.47
423.249	3.69
423.453	3.7
423.657	3.87
423.86	3.98
424.064	4.06
424.268	4.18
424.471	4.14
424.675	4.48
424.878	4.53
425.082	4.62
425.285	4.93
425.489	4.78
425.692	4.99
425.896	4.92
426.099	5.14
426.303	5.21
426.506	5.42
426.71	5.59
426.913	5.73
427.116	5.99
427.32	5.98
427.523	6.11
427.726	6.36
427.93	6.44
428.133	6.71
428.336	6.84
428.54	6.91
428.743	7.23
428.946	7.57
429.149	7.43
429.353	7.44
429.556	7.56
429.759	7.67
429.962	7.78
430.165	7.97
430.368	7.6
430.571	7.67
430.775	7.79
430.978	7.74
431.181	7.73
431.384	7.89
431.587	7.97
431.79	8.3
431.993	8.25
432.196	8.66
432.399	9
432.602	9.16
432.805	9.21
433.008	9.67
433.211	9.57
433.414	9.87
433.616	9.96
433.819	9.88
434.022	10.12
434.225	10.23
434.428	10.25
434.631	10.69
434.833	10.37
435.036	10.75
435.239	10.91
435.442	10.83
435.645	11.13
435.847	11.25
436.05	11.45
436.253	11.82
436.455	11.75
436.658	11.61
436.861	11.91
437.063	12.12
437.266	12.02
437.468	12.33
437.671	12.68
437.874	12.76
438.076	12.59
438.279	13.02
438.481	13.04
438.684	13.87
438.886	13.41
439.089	13.74
439.291	13.7
439.494	14.12
439.696	14.2
439.899	14.71
440.101	15.16
440.303	15.36
440.506	15.96
440.708	15.86
440.91	16.01
441.113	16.26
441.315	16.45
441.517	16.17
441.72	16.85
441.922	16.42
442.124	16.33
442.326	16.64
442.529	16.98
442.731	16.9
442.933	17.18
443.135	17.08
443.337	17.01
443.539	17.54
443.742	17.26
443.944	17.82
444.146	17.7
444.348	17.6
444.55	17.62
444.752	17.73
444.954	17.74
445.156	17.59
445.358	17.93
445.56	18.28
445.762	18.09
445.964	18.5
446.166	18.22
446.368	18.26
446.57	18.3
446.772	17.91
446.974	17.72
447.175	17.86
447.377	17.68
447.579	18.08
447.781	17.83
447.983	17.74
448.184	17.31
448.386	17.67
448.588	17.23
448.79	17.18
448.991	17.57
449.193	17.53
449.395	16.86
449.597	16.5
449.798	16.47
450	15.99
450.202	15.83
450.403	15.95
450.605	15.78
450.806	15.42
451.008	15.4
451.21	15.15
451.411	14.6
451.613	13.95
451.814	14.17
452.016	14.21
452.217	13.62
452.419	13.51
452.62	13.26
452.821	12.96
453.023	12.83
453.224	12.54
453.426	12.28
453.627	11.48
453.828	11.46
454.03	11.54
454.231	11.52
454.432	11.42
454.634	11.16
454.835	10.73
455.036	10.66
455.238	10.39
455.439	10.13
455.64	9.88
455.841	9.64
456.042	9.78
456.244	9.54
456.445	9.12
456.646	8.97
456.847	8.95
457.048	8.83
457.249	8.74
457.45	8.49
457.651	8.02
457.852	7.92
458.054	7.45
458.255	7.45
458.456	7.52
458.657	7.45
458.858	6.94
459.058	6.85
459.259	6.98
459.46	6.75
459.661	6.59
459.862	6.71
460.063	6.57
460.264	6.43
460.465	6.14
460.666	6.32
460.866	6.02
461.067	5.72
461.268	5.74
461.469	5.7
461.67	5.54
461.87	5.39
462.071	5.46
462.272	5.24
462.473	5.29
462.673	5.5
462.874	5.35
463.075	5.27
463.275	5.26
463.476	5.31
463.676	5.25
463.877	5.06
464.078	5.13
464.278	5.15
464.479	5.01
464.679	4.86
464.88	4.85
465.08	4.91
465.281	4.69
465.481	4.44
465.682	4.23
465.882	4.32
466.083	4.26
466.283	4.13
466.483	3.98
466.684	3.8
466.884	3.8
467.085	3.8
467.285	3.88
467.485	3.7
467.686	3.66
467.886	3.6
468.086	3.47
468.286	3.48
468.487	3.53
468.687	3.38
468.887	3.35
469.087	3.42
469.287	3.33
469.488	3.19
469.688	3.3
469.888	3.31
470.088	3.21
470.288	3.16
470.488	3.15
470.688	2.96
470.888	2.94
471.088	2.77
471.288	2.93
471.488	2.87
471.688	2.82
471.888	2.72
472.088	2.94
472.288	2.81
472.488	2.68
472.688	2.67
472.888	2.67
473.088	2.67
473.288	2.61
473.488	2.55
473.688	2.65
473.887	2.58
474.087	2.5
474.287	2.51
474.487	2.44
474.687	2.54
474.886	2.39
475.086	2.34
475.286	2.38
475.486	2.34
475.685	2.34
475.885	2.24
476.085	2.37
476.284	2.3
476.484	2.34
476.684	2.27
476.883	2.38
477.083	2.26
477.282	2.2
477.482	2.26
477.681	2.21
477.881	2.09
478.08	2.18
478.28	2.09
478.479	2.17
478.679	2.21
478.878	2.11
479.078	2.06
479.277	2.12
479.477	2.15
479.676	2.05
479.875	2.07
480.075	1.99
480.274	2.06
480.473	2.13
480.673	2.06
480.872	2.13
481.071	2.07
481.271	2.09
481.47	2.01
481.669	2.02
481.868	2.03
482.067	2.02
482.267	1.96
482.466	1.98
482.665	1.95
482.864	1.98
483.063	1.97
483.262	2.1
483.461	2.11
483.661	2.13
483.86	2.05
484.059	2.13
484.258	2.08
484.457	2.07
484.656	2.09
484.855	2.13
485.054	1.96
485.253	2
485.452	1.98
485.651	2.11
485.849	2.01
486.048	2.07
486.247	2.05
486.446	2.1
486.645	2.06
486.844	2.11
487.043	2.11
487.241	2.14
487.44	2.1
487.639	2.12
487.838	2.15
488.037	2.16
488.235	2.22
488.434	2.16
488.633	2.05
488.831	2.24
489.03	2.29
489.229	2.28
489.427	2.27
489.626	2.34
489.825	2.3
490.023	2.31
490.222	2.28
490.42	2.31
490.619	2.37
490.817	2.4
491.016	2.36
491.214	2.47
491.413	2.43
491.611	2.4
491.81	2.41
492.008	2.47
492.207	2.55
492.405	2.53
492.604	2.49
492.802	2.57
493	2.62
493.199	2.63
493.397	2.64
493.595	2.72
493.794	2.65
493.992	2.81
494.19	2.75
494.388	2.82
494.587	2.76
494.785	2.81
494.983	2.74
495.181	2.88
495.379	2.91
495.578	2.92
495.776	2.96
495.974	2.93
496.172	2.95
496.37	3.12
496.568	3.09
496.766	3.02
496.964	3.19
497.162	3.14
497.36	3.2
497.558	3.27
497.756	3.26
497.954	3.28
498.152	3.36
498.35	3.42
498.548	3.41
498.746	3.37
498.944	3.38
499.142	3.45
499.34	3.47
499.538	3.61
499.736	3.46
499.933	3.68
500.131	3.6
500.329	3.76
500.527	3.73
500.725	3.86
500.922	3.85
501.12	3.83
501.318	3.88
501.516	3.94
501.713	3.97
501.911	3.97
502.109	3.92
502.306	4.14
502.504	4
502.701	4.04
