Data from Apollo_Calib_20240827__AbsoluteIrradiance__836__13-05-02-057.txt Node

Date: Wed Aug 28 13:05:02 BST 2024
User: biology
Spectrometer: FLMT08252
Trigger mode: 0
Integration Time (sec): 5.000000E-1
Scans to average: 5
Electric dark correction enabled: true
Nonlinearity correction enabled: false
Boxcar width: 0
XAxis mode: Wavelengths
Number of Pixels in Spectrum: 3648
>>>>>Begin Spectral Data<<<<<
179.588	-0
179.809	-0
180.03	-0
180.251	-0
180.473	-0
180.694	0
180.915	0
181.136	-0
181.357	0
181.578	0
181.799	-0
182.02	-0
182.241	0
182.462	-0
182.683	0
182.904	-0
183.125	-0
183.346	0
183.567	0
183.788	0
184.009	0
184.23	0
184.451	0
184.672	0
184.892	0
185.113	0
185.334	0
185.555	0
185.776	0
185.996	0
186.217	0
186.438	0
186.659	0
186.879	0
187.1	0
187.321	0
187.541	0
187.762	0
187.983	0
188.203	0
188.424	0
188.644	0
188.865	0
189.086	0
189.306	0
189.527	0
189.747	0
189.968	0
190.188	0
190.409	0
190.629	0
190.849	0
191.07	0
191.29	0
191.511	0
191.731	0
191.951	0
192.172	0
192.392	0
192.612	0
192.833	0
193.053	0
193.273	0
193.493	0
193.714	0
193.934	0
194.154	0
194.374	0
194.594	0
194.815	0
195.035	0
195.255	0
195.475	0
195.695	0
195.915	0
196.135	0
196.355	0
196.575	0
196.795	0
197.015	0
197.235	0
197.455	0
197.675	0
197.895	0
198.115	0
198.335	0
198.555	0
198.775	0
198.995	0
199.214	0
199.434	0
199.654	0
199.874	0
200.094	4.08
200.313	2.29
200.533	1.69
200.753	1.56
200.973	4.06
201.192	2.59
201.412	1.41
201.632	1.92
201.851	3.52
202.071	2.12
202.291	1.61
202.51	1.33
202.73	2.69
202.95	2.15
203.169	1.39
203.389	2.04
203.608	2.19
203.828	1.89
204.047	1.6
204.267	1.89
204.486	2.36
204.706	2.02
204.925	1.78
205.145	1.28
205.364	2.1
205.583	2.38
205.803	1.35
206.022	1.47
206.242	1.63
206.461	2.14
206.68	1.35
206.9	1.39
207.119	2.28
207.338	2.09
207.557	0.95
207.777	1.28
207.996	1.05
208.215	2.24
208.434	0.97
208.654	0.81
208.873	1.55
209.092	2.36
209.311	1.05
209.53	0.9
209.749	1.23
209.968	1.19
210.187	1.04
210.407	0.6
210.626	0.99
210.845	1.77
211.064	1.1
211.283	0.65
211.502	1.45
211.721	1.01
211.94	1.02
212.159	1.42
212.377	1.31
212.596	1.43
212.815	0.92
213.034	1.1
213.253	1.59
213.472	1.37
213.691	1.12
213.91	0.51
214.128	0.68
214.347	1.55
214.566	0.56
214.785	0.44
215.003	1.33
215.222	1.29
215.441	0.69
215.66	0.65
215.878	1.01
216.097	1.21
216.316	0.7
216.534	0.65
216.753	1.15
216.972	0.87
217.19	0.82
217.409	0.66
217.627	0.72
217.846	0.73
218.064	0.93
218.283	0.52
218.501	1.34
218.72	1.08
218.938	0.66
219.157	0.72
219.375	1.06
219.594	0.85
219.812	0.54
220.031	0.57
220.249	1.18
220.467	1.26
220.686	0.51
220.904	0.55
221.122	0.79
221.341	1.14
221.559	0.76
221.777	0.46
221.995	0.81
222.214	0.88
222.432	0.69
222.65	0.76
222.868	0.77
223.086	0.84
223.305	1.02
223.523	0.74
223.741	1.11
223.959	0.65
224.177	0.24
224.395	0.54
224.613	0.84
224.831	1
225.049	0.42
225.267	0.57
225.485	0.81
225.703	0.65
225.921	0.57
226.139	0.41
226.357	0.75
226.575	0.79
226.793	0.54
227.011	1.54
227.229	0.69
227.447	0.96
227.665	0.54
227.883	0.4
228.1	0.69
228.318	0.72
228.536	0.18
228.754	0.38
228.972	0.66
229.189	0.79
229.407	0.52
229.625	0.45
229.843	0.86
230.06	0.78
230.278	0.48
230.496	0.61
230.713	0.69
230.931	0.81
231.149	0.45
231.366	0.33
231.584	0.55
231.801	0.95
232.019	0.35
232.236	0.33
232.454	0.47
232.671	0.62
232.889	0.46
233.106	0.4
233.324	0.51
233.541	0.58
233.759	0.58
233.976	0.5
234.194	0.6
234.411	0.49
234.628	0.45
234.846	0.34
235.063	0.48
235.28	0.57
235.498	0.42
235.715	0.42
235.932	0.7
236.149	0.5
236.367	0.39
236.584	0.51
236.801	0.55
237.018	0.75
237.236	0.48
237.453	0.27
237.67	0.65
237.887	0.54
238.104	0.42
238.321	0.39
238.538	0.36
238.755	0.69
238.973	0.35
239.19	0.54
239.407	0.59
239.624	0.56
239.841	0.35
240.058	0.33
240.275	0.54
240.492	0.55
240.709	0.41
240.925	0.37
241.142	0.57
241.359	0.34
241.576	0.34
241.793	0.32
242.01	0.42
242.227	0.6
242.444	0.47
242.66	0.54
242.877	0.55
243.094	0.41
243.311	0.4
243.527	0.35
243.744	0.45
243.961	0.5
244.178	0.3
244.394	0.45
244.611	0.58
244.828	0.73
245.044	0.41
245.261	0.34
245.477	0.47
245.694	0.57
245.911	0.36
246.127	0.42
246.344	0.71
246.56	0.61
246.777	0.31
246.993	0.41
247.21	0.46
247.426	0.56
247.643	0.28
247.859	0.36
248.076	0.35
248.292	0.61
248.508	0.29
248.725	0.4
248.941	0.52
249.157	0.57
249.374	0.36
249.59	0.37
249.806	0.42
250.023	0.46
250.239	0.41
250.455	0.35
250.671	0.41
250.888	0.47
251.104	0.46
251.32	0.34
251.536	0.45
251.752	0.4
251.969	0.32
252.185	0.41
252.401	0.66
252.617	0.44
252.833	0.32
253.049	0.33
253.265	0.38
253.481	0.44
253.697	0.35
253.913	0.3
254.129	0.47
254.345	0.48
254.561	0.35
254.777	0.33
254.993	0.53
255.209	0.47
255.425	0.36
255.641	0.35
255.857	0.54
256.073	0.41
256.288	0.25
256.504	0.21
256.72	0.4
256.936	0.53
257.152	0.36
257.367	0.35
257.583	0.39
257.799	0.5
258.015	0.36
258.23	0.33
258.446	0.59
258.662	0.37
258.877	0.3
259.093	0.25
259.309	0.42
259.524	0.43
259.74	0.29
259.955	0.18
260.171	0.42
260.387	0.41
260.602	0.46
260.818	0.43
261.033	0.28
261.249	0.35
261.464	0.3
261.68	0.31
261.895	0.44
262.11	0.46
262.326	0.31
262.541	0.19
262.757	0.48
262.972	0.49
263.187	0.37
263.403	0.47
263.618	0.52
263.833	0.39
264.049	0.25
264.264	0.29
264.479	0.39
264.694	0.53
264.91	0.22
265.125	0.27
265.34	0.4
265.555	0.53
265.77	0.38
265.986	0.32
266.201	0.37
266.416	0.46
266.631	0.28
266.846	0.3
267.061	0.5
267.276	0.42
267.491	0.19
267.706	0.4
267.921	0.42
268.136	0.38
268.351	0.37
268.566	0.23
268.781	0.44
268.996	0.49
269.211	0.32
269.426	0.26
269.641	0.32
269.856	0.39
270.071	0.25
270.285	0.19
270.5	0.43
270.715	0.39
270.93	0.27
271.145	0.39
271.359	0.46
271.574	0.35
271.789	0.31
272.004	0.29
272.218	0.32
272.433	0.4
272.648	0.29
272.862	0.38
273.077	0.29
273.292	0.28
273.506	0.25
273.721	0.26
273.936	0.43
274.15	0.44
274.365	0.26
274.579	0.42
274.794	0.35
275.008	0.41
275.223	0.26
275.437	0.33
275.652	0.42
275.866	0.44
276.081	0.28
276.295	0.31
276.509	0.33
276.724	0.36
276.938	0.26
277.153	0.34
277.367	0.42
277.581	0.27
277.796	0.27
278.01	0.21
278.224	0.32
278.438	0.48
278.653	0.22
278.867	0.26
279.081	0.13
279.295	0.32
279.51	0.33
279.724	0.15
279.938	0.39
280.152	0.37
280.366	0.29
280.58	0.33
280.794	0.39
281.008	0.35
281.222	0.35
281.437	0.49
281.651	0.33
281.865	0.43
282.079	0.26
282.293	0.17
282.507	0.26
282.721	0.3
282.935	0.35
283.148	0.15
283.362	0.29
283.576	0.22
283.79	0.27
284.004	0.16
284.218	0.37
284.432	0.23
284.646	0.29
284.859	0.25
285.073	0.27
285.287	0.34
285.501	0.3
285.714	0.24
285.928	0.26
286.142	0.3
286.356	0.17
286.569	0.27
286.783	0.38
286.997	0.34
287.21	0.31
287.424	0.26
287.637	0.27
287.851	0.28
288.065	0.33
288.278	0.28
288.492	0.3
288.705	0.25
288.919	0.32
289.132	0.2
289.346	0.35
289.559	0.22
289.773	0.24
289.986	0.32
290.2	0.29
290.413	0.36
290.626	0.22
290.84	0.25
291.053	0.32
291.267	0.37
291.48	0.24
291.693	0.24
291.906	0.24
292.12	0.26
292.333	0.21
292.546	0.22
292.76	0.4
292.973	0.29
293.186	0.3
293.399	0.24
293.612	0.3
293.826	0.28
294.039	0.26
294.252	0.24
294.465	0.35
294.678	0.26
294.891	0.21
295.104	0.2
295.317	0.27
295.53	0.26
295.743	0.23
295.956	0.25
296.169	0.36
296.382	0.33
296.595	0.25
296.808	0.19
297.021	0.36
297.234	0.34
297.447	0.25
297.66	0.22
297.873	0.36
298.086	0.33
298.299	0.2
298.511	0.18
298.724	0.27
298.937	0.17
299.15	0.16
299.363	0.24
299.575	0.35
299.788	0.3
300.001	0.25
300.213	0.27
300.426	0.29
300.639	0.23
300.852	0.17
301.064	0.28
301.277	0.35
301.489	0.32
301.702	0.26
301.915	0.25
302.127	0.18
302.34	0.29
302.552	0.27
302.765	0.18
302.977	0.3
303.19	0.23
303.402	0.26
303.615	0.19
303.827	0.25
304.04	0.22
304.252	0.31
304.464	0.22
304.677	0.4
304.889	0.28
305.102	0.22
305.314	0.25
305.526	0.27
305.739	0.29
305.951	0.17
306.163	0.23
306.375	0.38
306.588	0.28
306.8	0.2
307.012	0.18
307.224	0.27
307.436	0.39
307.649	0.15
307.861	0.28
308.073	0.31
308.285	0.23
308.497	0.22
308.709	0.21
308.921	0.21
309.133	0.3
309.346	0.25
309.558	0.24
309.77	0.32
309.982	0.36
310.194	0.28
310.406	0.23
310.617	0.35
310.829	0.27
311.041	0.24
311.253	0.2
311.465	0.26
311.677	0.27
311.889	0.26
312.101	0.19
312.313	0.34
312.524	0.33
312.736	0.22
312.948	0.23
313.16	0.35
313.372	0.32
313.583	0.3
313.795	0.2
314.007	0.25
314.218	0.3
314.43	0.24
314.642	0.19
314.853	0.15
315.065	0.29
315.277	0.22
315.488	0.28
315.7	0.31
315.912	0.32
316.123	0.24
316.335	0.2
316.546	0.39
316.758	0.32
316.969	0.22
317.181	0.24
317.392	0.22
317.604	0.31
317.815	0.25
318.026	0.23
318.238	0.21
318.449	0.26
318.661	0.13
318.872	0.19
319.083	0.2
319.295	0.29
319.506	0.24
319.717	0.25
319.929	0.3
320.14	0.26
320.351	0.28
320.562	0.22
320.774	0.27
320.985	0.26
321.196	0.19
321.407	0.16
321.618	0.3
321.829	0.26
322.041	0.27
322.252	0.21
322.463	0.26
322.674	0.31
322.885	0.17
323.096	0.23
323.307	0.26
323.518	0.25
323.729	0.21
323.94	0.22
324.151	0.23
324.362	0.3
324.573	0.27
324.784	0.23
324.995	0.31
325.206	0.31
325.417	0.22
325.628	0.18
325.838	0.29
326.049	0.29
326.26	0.32
326.471	0.22
326.682	0.32
326.892	0.24
327.103	0.18
327.314	0.18
327.525	0.36
327.735	0.28
327.946	0.23
328.157	0.2
328.368	0.33
328.578	0.23
328.789	0.32
328.999	0.3
329.21	0.22
329.421	0.33
329.631	0.2
329.842	0.22
330.052	0.3
330.263	0.27
330.473	0.26
330.684	0.23
330.894	0.27
331.105	0.29
331.315	0.29
331.526	0.22
331.736	0.38
331.947	0.31
332.157	0.25
332.367	0.17
332.578	0.26
332.788	0.28
332.999	0.27
333.209	0.26
333.419	0.18
333.629	0.3
333.84	0.28
334.05	0.19
334.26	0.34
334.47	0.29
334.681	0.32
334.891	0.24
335.101	0.31
335.311	0.36
335.521	0.24
335.732	0.2
335.942	0.27
336.152	0.31
336.362	0.26
336.572	0.27
336.782	0.29
336.992	0.23
337.202	0.2
337.412	0.23
337.622	0.27
337.832	0.26
338.042	0.23
338.252	0.22
338.462	0.22
338.672	0.27
338.882	0.23
339.092	0.26
339.302	0.36
339.511	0.26
339.721	0.21
339.931	0.21
340.141	0.3
340.351	0.31
340.561	0.22
340.77	0.25
340.98	0.3
341.19	0.29
341.4	0.22
341.609	0.18
341.819	0.21
342.029	0.2
342.238	0.3
342.448	0.23
342.658	0.27
342.867	0.29
343.077	0.24
343.286	0.24
343.496	0.29
343.706	0.36
343.915	0.17
344.125	0.24
344.334	0.26
344.544	0.19
344.753	0.25
344.963	0.23
345.172	0.21
345.381	0.22
345.591	0.2
345.8	0.23
346.01	0.3
346.219	0.31
346.428	0.12
346.638	0.22
346.847	0.24
347.056	0.36
347.266	0.22
347.475	0.21
347.684	0.3
347.893	0.3
348.103	0.28
348.312	0.2
348.521	0.24
348.73	0.25
348.94	0.17
349.149	0.18
349.358	0.24
349.567	0.25
349.776	0.18
349.985	0.22
350.194	0.34
350.403	0.32
350.612	0.14
350.821	0.23
351.03	0.23
351.239	0.2
351.448	0.25
351.657	0.2
351.866	0.35
352.075	0.19
352.284	0.28
352.493	0.22
352.702	0.3
352.911	0.25
353.12	0.26
353.329	0.23
353.538	0.24
353.746	0.25
353.955	0.17
354.164	0.23
354.373	0.21
354.582	0.25
354.79	0.26
354.999	0.29
355.208	0.19
355.416	0.35
355.625	0.21
355.834	0.22
356.042	0.29
356.251	0.23
356.46	0.22
356.668	0.31
356.877	0.32
357.085	0.31
357.294	0.15
357.503	0.28
357.711	0.23
357.92	0.41
358.128	0.25
358.337	0.25
358.545	0.24
358.754	0.22
358.962	0.27
359.17	0.22
359.379	0.27
359.587	0.27
359.796	0.23
360.004	0.29
360.212	0.29
360.421	0.33
360.629	0.2
360.837	0.21
361.046	0.31
361.254	0.41
361.462	0.23
361.67	0.21
361.879	0.28
362.087	0.31
362.295	0.24
362.503	0.24
362.711	0.2
362.92	0.2
363.128	0.21
363.336	0.16
363.544	0.21
363.752	0.22
363.96	0.22
364.168	0.19
364.376	0.28
364.584	0.26
364.792	0.34
365	0.26
365.208	0.23
365.416	0.26
365.624	0.3
365.832	0.22
366.04	0.34
366.248	0.26
366.456	0.25
366.664	0.22
366.872	0.24
367.079	0.24
367.287	0.25
367.495	0.28
367.703	0.22
367.911	0.22
368.118	0.23
368.326	0.24
368.534	0.19
368.742	0.32
368.949	0.17
369.157	0.23
369.365	0.28
369.572	0.25
369.78	0.19
369.988	0.3
370.195	0.3
370.403	0.33
370.61	0.25
370.818	0.24
371.026	0.34
371.233	0.21
371.441	0.26
371.648	0.2
371.856	0.26
372.063	0.29
372.271	0.21
372.478	0.19
372.685	0.2
372.893	0.3
373.1	0.24
373.308	0.2
373.515	0.4
373.722	0.3
373.93	0.25
374.137	0.29
374.344	0.34
374.552	0.31
374.759	0.28
374.966	0.22
375.173	0.26
375.381	0.32
375.588	0.25
375.795	0.17
376.002	0.26
376.209	0.23
376.417	0.24
376.624	0.21
376.831	0.28
377.038	0.23
377.245	0.17
377.452	0.23
377.659	0.29
377.866	0.24
378.073	0.24
378.28	0.27
378.487	0.31
378.694	0.32
378.901	0.23
379.108	0.25
379.315	0.32
379.522	0.38
379.729	0.28
379.936	0.27
380.143	0.25
380.35	0.28
380.557	0.24
380.763	0.24
380.97	0.26
381.177	0.29
381.384	0.29
381.591	0.21
381.797	0.29
382.004	0.32
382.211	0.32
382.418	0.23
382.624	0.34
382.831	0.31
383.038	0.26
383.244	0.27
383.451	0.25
383.658	0.32
383.864	0.25
384.071	0.2
384.277	0.35
384.484	0.27
384.69	0.32
384.897	0.24
385.103	0.27
385.31	0.28
385.516	0.31
385.723	0.22
385.929	0.32
386.136	0.27
386.342	0.33
386.549	0.24
386.755	0.36
386.961	0.28
387.168	0.3
387.374	0.27
387.58	0.29
387.787	0.32
387.993	0.29
388.199	0.28
388.406	0.22
388.612	0.27
388.818	0.25
389.024	0.25
389.231	0.32
389.437	0.37
389.643	0.32
389.849	0.3
390.055	0.3
390.261	0.27
390.467	0.3
390.674	0.25
390.88	0.31
391.086	0.33
391.292	0.22
391.498	0.3
391.704	0.32
391.91	0.27
392.116	0.31
392.322	0.16
392.528	0.39
392.734	0.28
392.94	0.3
393.146	0.3
393.352	0.3
393.557	0.27
393.763	0.31
393.969	0.34
394.175	0.33
394.381	0.34
394.587	0.31
394.792	0.29
394.998	0.39
395.204	0.37
395.41	0.28
395.615	0.28
395.821	0.31
396.027	0.36
396.233	0.29
396.438	0.34
396.644	0.37
396.85	0.32
397.055	0.33
397.261	0.37
397.466	0.36
397.672	0.33
397.878	0.37
398.083	0.37
398.289	0.33
398.494	0.37
398.7	0.32
398.905	0.24
399.111	0.45
399.316	0.29
399.522	0.33
399.727	0.36
399.932	0.36
400.138	0.36
400.343	0.38
400.549	0.34
400.754	0.38
400.959	0.37
401.165	0.34
401.37	0.37
401.575	0.34
401.78	0.42
401.986	0.34
402.191	0.35
402.396	0.38
402.601	0.43
402.807	0.4
403.012	0.42
403.217	0.45
403.422	0.41
403.627	0.45
403.832	0.38
404.037	0.45
404.243	0.45
404.448	0.38
404.653	0.38
404.858	0.46
405.063	0.47
405.268	0.39
405.473	0.4
405.678	0.42
405.883	0.64
406.088	0.49
406.293	0.4
406.498	0.51
406.703	0.5
406.907	0.48
407.112	0.45
407.317	0.51
407.522	0.55
407.727	0.45
407.932	0.48
408.136	0.64
408.341	0.46
408.546	0.54
408.751	0.62
408.956	0.59
409.16	0.69
409.365	0.57
409.57	0.62
409.774	0.62
409.979	0.71
410.184	0.65
410.388	0.62
410.593	0.75
410.798	0.71
411.002	0.75
411.207	0.81
411.411	0.77
411.616	0.77
411.82	0.79
412.025	0.86
412.229	0.87
412.434	0.97
412.638	0.93
412.843	0.91
413.047	0.99
413.252	0.94
413.456	1.02
413.66	1.07
413.865	1.02
414.069	1.17
414.273	1.05
414.478	1.11
414.682	1.18
414.886	1.21
415.091	1.19
415.295	1.22
415.499	1.43
415.703	1.36
415.908	1.43
416.112	1.4
416.316	1.61
416.52	1.62
416.724	1.56
416.929	1.64
417.133	1.89
417.337	1.73
417.541	1.83
417.745	1.85
417.949	2.05
418.153	2.04
418.357	1.97
418.561	2.34
418.765	2.24
418.969	2.39
419.173	2.47
419.377	2.42
419.581	2.64
419.785	2.7
419.989	2.64
420.193	2.89
420.397	2.89
420.601	3.09
420.804	3.13
421.008	3.13
421.212	3.23
421.416	3.39
421.62	3.33
421.823	3.43
422.027	3.59
422.231	3.53
422.435	3.6
422.638	3.6
422.842	3.74
423.046	3.89
423.249	4.06
423.453	4.01
423.657	4.21
423.86	4.27
424.064	4.42
424.268	4.57
424.471	4.53
424.675	4.76
424.878	4.8
425.082	5
425.285	5.28
425.489	5.29
425.692	5.39
425.896	5.32
426.099	5.58
426.303	5.6
426.506	5.82
426.71	6.03
426.913	6.35
427.116	6.44
427.32	6.36
427.523	6.52
427.726	6.82
427.93	6.87
428.133	7.25
428.336	7.37
428.54	7.52
428.743	7.77
428.946	8.04
429.149	8.05
429.353	8.03
429.556	8.2
429.759	8.08
429.962	8.28
430.165	8.4
430.368	8.07
430.571	8.16
430.775	8.18
430.978	8.17
431.181	8.18
431.384	8.36
431.587	8.43
431.79	8.77
431.993	8.83
432.196	9.03
432.399	9.45
432.602	9.53
432.805	9.61
433.008	10.11
433.211	9.89
433.414	10.31
433.616	10.4
433.819	10.34
434.022	10.47
434.225	10.6
434.428	10.71
434.631	11.18
434.833	10.99
435.036	11.17
435.239	11.4
435.442	11.43
435.645	11.65
435.847	11.73
436.05	12
436.253	12.17
436.455	12.18
436.658	12.14
436.861	12.5
437.063	12.55
437.266	12.47
437.468	12.86
437.671	13.08
437.874	13.21
438.076	13.07
438.279	13.39
438.481	13.53
438.684	14.35
438.886	13.88
439.089	14.26
439.291	14.39
439.494	14.6
439.696	14.77
439.899	15.24
440.101	15.76
440.303	15.89
440.506	16.6
440.708	16.42
440.91	16.66
441.113	16.91
441.315	17.08
441.517	16.69
441.72	17.35
441.922	17.02
442.124	16.86
442.326	17.32
442.529	17.67
442.731	17.38
442.933	17.74
443.135	17.77
443.337	17.64
443.539	18.08
443.742	17.76
443.944	18.36
444.146	18.28
444.348	18.09
444.55	18.06
444.752	18.31
444.954	18.29
445.156	18.13
445.358	18.48
445.56	18.87
445.762	18.55
445.964	18.86
446.166	18.55
446.368	18.76
446.57	18.59
446.772	18.23
446.974	18.07
447.175	18.24
447.377	18.07
447.579	18.36
447.781	18.06
447.983	17.92
448.184	17.45
448.386	17.76
448.588	17.29
448.79	17.12
448.991	17.4
449.193	17.53
449.395	16.98
449.597	16.42
449.798	16.33
450	15.93
450.202	15.86
450.403	15.89
450.605	15.74
450.806	15.27
451.008	15.15
451.21	15.02
451.411	14.41
451.613	13.81
451.814	13.97
452.016	13.99
452.217	13.24
452.419	13.21
452.62	12.75
452.821	12.63
453.023	12.49
453.224	12.19
453.426	11.68
453.627	11.03
453.828	11.18
454.03	11.2
454.231	11.16
454.432	11.05
454.634	10.67
454.835	10.43
455.036	10.35
455.238	10.01
455.439	9.71
455.64	9.51
455.841	9.36
456.042	9.47
456.244	9.08
456.445	8.75
456.646	8.44
456.847	8.51
457.048	8.36
457.249	8.34
457.45	8.23
457.651	7.65
457.852	7.59
458.054	7.31
458.255	7.16
458.456	7.2
458.657	7.19
458.858	6.61
459.058	6.69
459.259	6.71
459.46	6.37
459.661	6.34
459.862	6.3
460.063	6.3
460.264	6.19
460.465	5.92
460.666	6.08
460.866	5.74
461.067	5.51
461.268	5.56
461.469	5.39
461.67	5.34
461.87	5.21
462.071	5.13
462.272	5.12
462.473	5.07
462.673	5.29
462.874	5.13
463.075	5.16
463.275	5.05
463.476	5.16
463.676	5.03
463.877	4.86
464.078	4.89
464.278	4.92
464.479	4.76
464.679	4.75
464.88	4.61
465.08	4.71
465.281	4.47
465.481	4.3
465.682	4.22
465.882	4.17
466.083	4.08
466.283	4.04
466.483	3.84
466.684	3.76
466.884	3.58
467.085	3.7
467.285	3.74
467.485	3.58
467.686	3.45
467.886	3.39
468.086	3.39
468.286	3.26
468.487	3.38
468.687	3.22
468.887	3.2
469.087	3.37
469.287	3.2
469.488	3.03
469.688	3.2
469.888	3.13
470.088	3.08
470.288	3
470.488	3.01
470.688	2.85
470.888	2.89
471.088	2.67
471.288	2.78
471.488	2.74
471.688	2.77
471.888	2.64
472.088	2.78
472.288	2.67
472.488	2.58
472.688	2.57
472.888	2.55
473.088	2.55
473.288	2.45
473.488	2.42
473.688	2.65
473.887	2.47
474.087	2.39
474.287	2.4
474.487	2.36
474.687	2.44
474.886	2.35
475.086	2.32
475.286	2.32
475.486	2.27
475.685	2.22
475.885	2.2
476.085	2.3
476.284	2.23
476.484	2.24
476.684	2.17
476.883	2.33
477.083	2.19
477.282	2.13
477.482	2.16
477.681	2.11
477.881	2.1
478.08	2.08
478.28	2.02
478.479	2.08
478.679	2.15
478.878	2.05
479.078	1.98
479.277	2.09
479.477	2.03
479.676	2.01
479.875	1.99
480.075	1.94
480.274	2
480.473	2.04
480.673	2
480.872	2.11
481.071	2.02
481.271	2.05
481.47	1.96
481.669	1.99
481.868	1.95
482.067	1.98
482.267	1.87
482.466	1.93
482.665	1.92
482.864	1.95
483.063	1.93
483.262	2.03
483.461	2.04
483.661	2.07
483.86	1.95
484.059	2
484.258	2.04
484.457	2.01
484.656	1.99
484.855	2.06
485.054	1.89
485.253	1.98
485.452	1.97
485.651	2.07
485.849	2.03
486.048	2.03
486.247	2.03
486.446	2.09
486.645	2.01
486.844	2.07
487.043	2.05
487.241	2.04
487.44	2.06
487.639	2.15
487.838	2.1
488.037	2.12
488.235	2.24
488.434	2.15
488.633	2.02
488.831	2.23
489.03	2.19
489.229	2.25
489.427	2.22
489.626	2.29
489.825	2.28
490.023	2.33
490.222	2.22
490.42	2.31
490.619	2.33
490.817	2.35
491.016	2.32
491.214	2.43
491.413	2.38
491.611	2.4
491.81	2.42
492.008	2.44
492.207	2.55
492.405	2.53
492.604	2.4
492.802	2.55
493	2.63
493.199	2.59
493.397	2.63
493.595	2.64
493.794	2.67
493.992	2.76
494.19	2.74
494.388	2.8
494.587	2.75
494.785	2.77
494.983	2.71
495.181	2.91
495.379	2.9
495.578	2.96
495.776	2.94
495.974	2.91
496.172	2.94
496.37	3.11
496.568	3.14
496.766	3.11
496.964	3.17
497.162	3.16
497.36	3.23
497.558	3.26
497.756	3.31
497.954	3.26
498.152	3.4
498.35	3.45
498.548	3.36
498.746	3.42
498.944	3.42
499.142	3.45
499.34	3.55
499.538	3.61
499.736	3.52
499.933	3.66
500.131	3.67
500.329	3.79
500.527	3.76
500.725	3.89
500.922	3.87
501.12	3.85
501.318	3.96
501.516	3.9
501.713	4.01
501.911	3.96
502.109	3.96
502.306	4.09
502.504	4.03
502.701	4.05
