Data from Apollo_Calib_20240827__AbsoluteIrradiance__779__12-08-01-386.txt Node

Date: Wed Aug 28 12:08:01 BST 2024
User: biology
Spectrometer: FLMT08252
Trigger mode: 0
Integration Time (sec): 5.000000E-1
Scans to average: 5
Electric dark correction enabled: true
Nonlinearity correction enabled: false
Boxcar width: 0
XAxis mode: Wavelengths
Number of Pixels in Spectrum: 3648
>>>>>Begin Spectral Data<<<<<
179.588	-0
179.809	-0
180.03	-0
180.251	-0
180.473	-0
180.694	0
180.915	0
181.136	-0
181.357	0
181.578	-0
181.799	0
182.02	-0
182.241	-0
182.462	-0
182.683	0
182.904	-0
183.125	0
183.346	0
183.567	0
183.788	0
184.009	0
184.23	0
184.451	0
184.672	0
184.892	0
185.113	0
185.334	0
185.555	0
185.776	0
185.996	0
186.217	0
186.438	0
186.659	0
186.879	0
187.1	0
187.321	0
187.541	0
187.762	0
187.983	0
188.203	0
188.424	0
188.644	0
188.865	0
189.086	0
189.306	0
189.527	0
189.747	0
189.968	0
190.188	0
190.409	0
190.629	0
190.849	0
191.07	0
191.29	0
191.511	0
191.731	0
191.951	0
192.172	0
192.392	0
192.612	0
192.833	0
193.053	0
193.273	0
193.493	0
193.714	0
193.934	0
194.154	0
194.374	0
194.594	0
194.815	0
195.035	0
195.255	0
195.475	0
195.695	0
195.915	0
196.135	0
196.355	0
196.575	0
196.795	0
197.015	0
197.235	0
197.455	0
197.675	0
197.895	0
198.115	0
198.335	0
198.555	0
198.775	0
198.995	0
199.214	0
199.434	0
199.654	0
199.874	0
200.094	4.28
200.313	2.62
200.533	1.96
200.753	1.79
200.973	3.54
201.192	2.18
201.412	1.53
201.632	2.2
201.851	3.81
202.071	2.18
202.291	1.8
202.51	1.26
202.73	2.71
202.95	2.07
203.169	1.58
203.389	1.81
203.608	2.31
203.828	1.69
204.047	1.45
204.267	2.03
204.486	2.25
204.706	2.38
204.925	1.49
205.145	1.23
205.364	2.33
205.583	2.42
205.803	1.35
206.022	1.1
206.242	1.59
206.461	1.77
206.68	1.28
206.9	1.76
207.119	2.14
207.338	1.98
207.557	1.39
207.777	1.19
207.996	1.2
208.215	1.92
208.434	1.34
208.654	0.93
208.873	1.64
209.092	2.2
209.311	1.07
209.53	1.18
209.749	1.11
209.968	0.9
210.187	0.88
210.407	0.76
210.626	1.16
210.845	1.48
211.064	1.42
211.283	0.75
211.502	1.38
211.721	1.15
211.94	0.93
212.159	1.16
212.377	1.54
212.596	1.52
212.815	1.16
213.034	1.06
213.253	1.38
213.472	1.51
213.691	0.98
213.91	0.83
214.128	0.75
214.347	1.47
214.566	0.5
214.785	0.53
215.003	1.09
215.222	1.04
215.441	0.87
215.66	0.44
215.878	1.06
216.097	1.18
216.316	0.75
216.534	0.95
216.753	1.1
216.972	0.58
217.19	0.91
217.409	0.58
217.627	0.76
217.846	0.79
218.064	0.87
218.283	0.65
218.501	1.1
218.72	1.07
218.938	0.55
219.157	0.56
219.375	0.96
219.594	0.95
219.812	0.48
220.031	0.63
220.249	1.23
220.467	1.14
220.686	0.7
220.904	0.3
221.122	0.73
221.341	1.06
221.559	0.7
221.777	0.57
221.995	0.71
222.214	1.05
222.432	0.65
222.65	0.77
222.868	0.64
223.086	0.83
223.305	0.87
223.523	0.64
223.741	1.26
223.959	0.76
224.177	0.32
224.395	0.56
224.613	0.77
224.831	0.91
225.049	0.49
225.267	0.59
225.485	0.81
225.703	0.51
225.921	0.52
226.139	0.51
226.357	0.77
226.575	0.84
226.793	0.6
227.011	1.45
227.229	0.7
227.447	0.8
227.665	0.5
227.883	0.35
228.1	0.68
228.318	0.83
228.536	0.38
228.754	0.35
228.972	0.77
229.189	0.79
229.407	0.52
229.625	0.5
229.843	0.9
230.06	0.81
230.278	0.54
230.496	0.51
230.713	0.65
230.931	0.8
231.149	0.51
231.366	0.32
231.584	0.64
231.801	0.97
232.019	0.43
232.236	0.34
232.454	0.4
232.671	0.65
232.889	0.53
233.106	0.4
233.324	0.6
233.541	0.55
233.759	0.53
233.976	0.39
234.194	0.5
234.411	0.48
234.628	0.37
234.846	0.44
235.063	0.57
235.28	0.54
235.498	0.47
235.715	0.35
235.932	0.68
236.149	0.47
236.367	0.38
236.584	0.62
236.801	0.5
237.018	0.72
237.236	0.52
237.453	0.3
237.67	0.73
237.887	0.55
238.104	0.53
238.321	0.35
238.538	0.47
238.755	0.73
238.973	0.34
239.19	0.51
239.407	0.64
239.624	0.49
239.841	0.27
240.058	0.4
240.275	0.54
240.492	0.47
240.709	0.38
240.925	0.38
241.142	0.43
241.359	0.37
241.576	0.35
241.793	0.42
242.01	0.44
242.227	0.64
242.444	0.48
242.66	0.63
242.877	0.51
243.094	0.43
243.311	0.55
243.527	0.37
243.744	0.59
243.961	0.52
244.178	0.31
244.394	0.44
244.611	0.66
244.828	0.66
245.044	0.34
245.261	0.45
245.477	0.53
245.694	0.51
245.911	0.41
246.127	0.5
246.344	0.69
246.56	0.56
246.777	0.41
246.993	0.48
247.21	0.49
247.426	0.5
247.643	0.26
247.859	0.33
248.076	0.33
248.292	0.72
248.508	0.32
248.725	0.51
248.941	0.46
249.157	0.6
249.374	0.33
249.59	0.38
249.806	0.44
250.023	0.65
250.239	0.33
250.455	0.33
250.671	0.43
250.888	0.52
251.104	0.43
251.32	0.4
251.536	0.37
251.752	0.41
251.969	0.43
252.185	0.37
252.401	0.67
252.617	0.53
252.833	0.43
253.049	0.34
253.265	0.42
253.481	0.4
253.697	0.37
253.913	0.33
254.129	0.44
254.345	0.49
254.561	0.35
254.777	0.36
254.993	0.46
255.209	0.42
255.425	0.39
255.641	0.27
255.857	0.48
256.073	0.44
256.288	0.31
256.504	0.31
256.72	0.42
256.936	0.64
257.152	0.43
257.367	0.33
257.583	0.39
257.799	0.48
258.015	0.34
258.23	0.39
258.446	0.53
258.662	0.38
258.877	0.27
259.093	0.26
259.309	0.37
259.524	0.44
259.74	0.29
259.955	0.29
260.171	0.38
260.387	0.39
260.602	0.43
260.818	0.38
261.033	0.22
261.249	0.42
261.464	0.32
261.68	0.28
261.895	0.49
262.11	0.51
262.326	0.33
262.541	0.32
262.757	0.47
262.972	0.52
263.187	0.43
263.403	0.42
263.618	0.46
263.833	0.42
264.049	0.26
264.264	0.41
264.479	0.4
264.694	0.48
264.91	0.26
265.125	0.39
265.34	0.44
265.555	0.63
265.77	0.3
265.986	0.27
266.201	0.45
266.416	0.52
266.631	0.37
266.846	0.33
267.061	0.42
267.276	0.48
267.491	0.14
267.706	0.35
267.921	0.41
268.136	0.43
268.351	0.36
268.566	0.25
268.781	0.45
268.996	0.38
269.211	0.3
269.426	0.28
269.641	0.29
269.856	0.45
270.071	0.31
270.285	0.24
270.5	0.44
270.715	0.48
270.93	0.33
271.145	0.36
271.359	0.46
271.574	0.34
271.789	0.4
272.004	0.32
272.218	0.31
272.433	0.37
272.648	0.32
272.862	0.38
273.077	0.42
273.292	0.34
273.506	0.27
273.721	0.28
273.936	0.43
274.15	0.41
274.365	0.28
274.579	0.4
274.794	0.41
275.008	0.4
275.223	0.24
275.437	0.32
275.652	0.4
275.866	0.37
276.081	0.31
276.295	0.39
276.509	0.3
276.724	0.39
276.938	0.34
277.153	0.32
277.367	0.35
277.581	0.33
277.796	0.27
278.01	0.21
278.224	0.41
278.438	0.51
278.653	0.25
278.867	0.27
279.081	0.38
279.295	0.35
279.51	0.34
279.724	0.26
279.938	0.4
280.152	0.34
280.366	0.28
280.58	0.3
280.794	0.43
281.008	0.37
281.222	0.36
281.437	0.47
281.651	0.4
281.865	0.38
282.079	0.3
282.293	0.21
282.507	0.3
282.721	0.31
282.935	0.31
283.148	0.2
283.362	0.28
283.576	0.27
283.79	0.29
284.004	0.24
284.218	0.41
284.432	0.27
284.646	0.32
284.859	0.24
285.073	0.3
285.287	0.37
285.501	0.32
285.714	0.31
285.928	0.35
286.142	0.31
286.356	0.26
286.569	0.2
286.783	0.38
286.997	0.36
287.21	0.29
287.424	0.3
287.637	0.29
287.851	0.29
288.065	0.39
288.278	0.29
288.492	0.35
288.705	0.23
288.919	0.29
289.132	0.22
289.346	0.36
289.559	0.19
289.773	0.23
289.986	0.3
290.2	0.25
290.413	0.38
290.626	0.28
290.84	0.27
291.053	0.31
291.267	0.41
291.48	0.29
291.693	0.3
291.906	0.23
292.12	0.3
292.333	0.22
292.546	0.21
292.76	0.39
292.973	0.29
293.186	0.34
293.399	0.25
293.612	0.37
293.826	0.31
294.039	0.28
294.252	0.24
294.465	0.31
294.678	0.28
294.891	0.27
295.104	0.25
295.317	0.28
295.53	0.34
295.743	0.28
295.956	0.25
296.169	0.38
296.382	0.31
296.595	0.26
296.808	0.22
297.021	0.35
297.234	0.33
297.447	0.3
297.66	0.28
297.873	0.35
298.086	0.33
298.299	0.23
298.511	0.16
298.724	0.27
298.937	0.23
299.15	0.2
299.363	0.25
299.575	0.33
299.788	0.3
300.001	0.26
300.213	0.22
300.426	0.24
300.639	0.24
300.852	0.18
301.064	0.33
301.277	0.33
301.489	0.28
301.702	0.27
301.915	0.25
302.127	0.24
302.34	0.29
302.552	0.26
302.765	0.22
302.977	0.31
303.19	0.21
303.402	0.24
303.615	0.25
303.827	0.21
304.04	0.25
304.252	0.29
304.464	0.21
304.677	0.4
304.889	0.29
305.102	0.23
305.314	0.24
305.526	0.28
305.739	0.29
305.951	0.21
306.163	0.23
306.375	0.33
306.588	0.24
306.8	0.21
307.012	0.21
307.224	0.25
307.436	0.29
307.649	0.19
307.861	0.28
308.073	0.32
308.285	0.25
308.497	0.21
308.709	0.2
308.921	0.27
309.133	0.32
309.346	0.22
309.558	0.24
309.77	0.32
309.982	0.38
310.194	0.28
310.406	0.23
310.617	0.4
310.829	0.27
311.041	0.28
311.253	0.18
311.465	0.25
311.677	0.24
311.889	0.22
312.101	0.17
312.313	0.32
312.524	0.4
312.736	0.19
312.948	0.25
313.16	0.35
313.372	0.28
313.583	0.27
313.795	0.24
314.007	0.24
314.218	0.29
314.43	0.26
314.642	0.24
314.853	0.18
315.065	0.31
315.277	0.25
315.488	0.25
315.7	0.35
315.912	0.27
316.123	0.22
316.335	0.25
316.546	0.39
316.758	0.26
316.969	0.25
317.181	0.24
317.392	0.26
317.604	0.31
317.815	0.23
318.026	0.23
318.238	0.23
318.449	0.28
318.661	0.19
318.872	0.18
319.083	0.2
319.295	0.31
319.506	0.23
319.717	0.28
319.929	0.3
320.14	0.25
320.351	0.27
320.562	0.22
320.774	0.28
320.985	0.27
321.196	0.18
321.407	0.17
321.618	0.31
321.829	0.33
322.041	0.27
322.252	0.22
322.463	0.28
322.674	0.36
322.885	0.2
323.096	0.26
323.307	0.28
323.518	0.28
323.729	0.25
323.94	0.27
324.151	0.23
324.362	0.28
324.573	0.25
324.784	0.23
324.995	0.33
325.206	0.3
325.417	0.25
325.628	0.22
325.838	0.27
326.049	0.29
326.26	0.31
326.471	0.24
326.682	0.3
326.892	0.28
327.103	0.21
327.314	0.19
327.525	0.37
327.735	0.29
327.946	0.25
328.157	0.22
328.368	0.28
328.578	0.29
328.789	0.36
328.999	0.23
329.21	0.25
329.421	0.35
329.631	0.21
329.842	0.23
330.052	0.24
330.263	0.34
330.473	0.31
330.684	0.25
330.894	0.25
331.105	0.3
331.315	0.25
331.526	0.17
331.736	0.34
331.947	0.24
332.157	0.26
332.367	0.17
332.578	0.29
332.788	0.33
332.999	0.33
333.209	0.27
333.419	0.18
333.629	0.25
333.84	0.31
334.05	0.28
334.26	0.34
334.47	0.27
334.681	0.3
334.891	0.23
335.101	0.29
335.311	0.37
335.521	0.26
335.732	0.23
335.942	0.37
336.152	0.26
336.362	0.25
336.572	0.25
336.782	0.29
336.992	0.24
337.202	0.23
337.412	0.24
337.622	0.22
337.832	0.19
338.042	0.22
338.252	0.23
338.462	0.22
338.672	0.27
338.882	0.27
339.092	0.23
339.302	0.33
339.511	0.34
339.721	0.24
339.931	0.19
340.141	0.32
340.351	0.31
340.561	0.25
340.77	0.25
340.98	0.28
341.19	0.29
341.4	0.23
341.609	0.2
341.819	0.24
342.029	0.24
342.238	0.26
342.448	0.22
342.658	0.28
342.867	0.22
343.077	0.24
343.286	0.27
343.496	0.27
343.706	0.31
343.915	0.23
344.125	0.26
344.334	0.31
344.544	0.19
344.753	0.24
344.963	0.23
345.172	0.18
345.381	0.22
345.591	0.21
345.8	0.25
346.01	0.3
346.219	0.31
346.428	0.13
346.638	0.23
346.847	0.24
347.056	0.37
347.266	0.22
347.475	0.25
347.684	0.34
347.893	0.3
348.103	0.24
348.312	0.22
348.521	0.26
348.73	0.28
348.94	0.25
349.149	0.24
349.358	0.25
349.567	0.22
349.776	0.19
349.985	0.22
350.194	0.34
350.403	0.32
350.612	0.18
350.821	0.24
351.03	0.26
351.239	0.16
351.448	0.27
351.657	0.23
351.866	0.36
352.075	0.26
352.284	0.22
352.493	0.22
352.702	0.31
352.911	0.26
353.12	0.28
353.329	0.22
353.538	0.26
353.746	0.27
353.955	0.21
354.164	0.29
354.373	0.25
354.582	0.28
354.79	0.26
354.999	0.27
355.208	0.25
355.416	0.33
355.625	0.18
355.834	0.21
356.042	0.3
356.251	0.26
356.46	0.2
356.668	0.25
356.877	0.36
357.085	0.31
357.294	0.12
357.503	0.23
357.711	0.23
357.92	0.43
358.128	0.27
358.337	0.22
358.545	0.27
358.754	0.21
358.962	0.3
359.17	0.27
359.379	0.27
359.587	0.28
359.796	0.24
360.004	0.28
360.212	0.27
360.421	0.31
360.629	0.23
360.837	0.23
361.046	0.32
361.254	0.4
361.462	0.23
361.67	0.25
361.879	0.28
362.087	0.36
362.295	0.25
362.503	0.23
362.711	0.25
362.92	0.23
363.128	0.2
363.336	0.23
363.544	0.16
363.752	0.27
363.96	0.23
364.168	0.24
364.376	0.26
364.584	0.26
364.792	0.32
365	0.27
365.208	0.24
365.416	0.29
365.624	0.3
365.832	0.21
366.04	0.33
366.248	0.28
366.456	0.26
366.664	0.28
366.872	0.24
367.079	0.23
367.287	0.22
367.495	0.28
367.703	0.21
367.911	0.19
368.118	0.26
368.326	0.27
368.534	0.22
368.742	0.34
368.949	0.17
369.157	0.27
369.365	0.29
369.572	0.27
369.78	0.16
369.988	0.3
370.195	0.27
370.403	0.3
370.61	0.21
370.818	0.22
371.026	0.36
371.233	0.2
371.441	0.23
371.648	0.23
371.856	0.27
372.063	0.27
372.271	0.24
372.478	0.22
372.685	0.25
372.893	0.32
373.1	0.27
373.308	0.18
373.515	0.38
373.722	0.29
373.93	0.27
374.137	0.3
374.344	0.29
374.552	0.34
374.759	0.32
374.966	0.27
375.173	0.21
375.381	0.33
375.588	0.2
375.795	0.19
376.002	0.23
376.209	0.19
376.417	0.26
376.624	0.24
376.831	0.31
377.038	0.25
377.245	0.17
377.452	0.26
377.659	0.28
377.866	0.25
378.073	0.26
378.28	0.24
378.487	0.32
378.694	0.3
378.901	0.28
379.108	0.23
379.315	0.3
379.522	0.37
379.729	0.27
379.936	0.23
380.143	0.32
380.35	0.28
380.557	0.25
380.763	0.26
380.97	0.29
381.177	0.3
381.384	0.33
381.591	0.2
381.797	0.29
382.004	0.32
382.211	0.28
382.418	0.22
382.624	0.29
382.831	0.33
383.038	0.24
383.244	0.32
383.451	0.3
383.658	0.32
383.864	0.26
384.071	0.21
384.277	0.36
384.484	0.29
384.69	0.32
384.897	0.27
385.103	0.3
385.31	0.23
385.516	0.26
385.723	0.2
385.929	0.24
386.136	0.31
386.342	0.3
386.549	0.24
386.755	0.35
386.961	0.32
387.168	0.28
387.374	0.24
387.58	0.31
387.787	0.3
387.993	0.32
388.199	0.28
388.406	0.26
388.612	0.28
388.818	0.23
389.024	0.24
389.231	0.32
389.437	0.42
389.643	0.33
389.849	0.24
390.055	0.27
390.261	0.3
390.467	0.33
390.674	0.27
390.88	0.34
391.086	0.34
391.292	0.28
391.498	0.32
391.704	0.33
391.91	0.27
392.116	0.26
392.322	0.14
392.528	0.3
392.734	0.32
392.94	0.37
393.146	0.28
393.352	0.36
393.557	0.3
393.763	0.28
393.969	0.35
394.175	0.28
394.381	0.3
394.587	0.23
394.792	0.31
394.998	0.39
395.204	0.4
395.41	0.27
395.615	0.34
395.821	0.32
396.027	0.35
396.233	0.25
396.438	0.35
396.644	0.38
396.85	0.37
397.055	0.31
397.261	0.37
397.466	0.4
397.672	0.36
397.878	0.38
398.083	0.39
398.289	0.36
398.494	0.44
398.7	0.35
398.905	0.24
399.111	0.43
399.316	0.34
399.522	0.32
399.727	0.31
399.932	0.33
400.138	0.32
400.343	0.36
400.549	0.33
400.754	0.38
400.959	0.37
401.165	0.33
401.37	0.38
401.575	0.46
401.78	0.38
401.986	0.36
402.191	0.37
402.396	0.39
402.601	0.37
402.807	0.42
403.012	0.39
403.217	0.44
403.422	0.4
403.627	0.44
403.832	0.41
404.037	0.42
404.243	0.42
404.448	0.42
404.653	0.4
404.858	0.47
405.063	0.46
405.268	0.38
405.473	0.37
405.678	0.44
405.883	0.65
406.088	0.49
406.293	0.4
406.498	0.5
406.703	0.55
406.907	0.49
407.112	0.46
407.317	0.51
407.522	0.6
407.727	0.5
407.932	0.51
408.136	0.66
408.341	0.59
408.546	0.57
408.751	0.56
408.956	0.59
409.16	0.71
409.365	0.63
409.57	0.61
409.774	0.67
409.979	0.72
410.184	0.71
410.388	0.61
410.593	0.84
410.798	0.74
411.002	0.72
411.207	0.77
411.411	0.8
411.616	0.75
411.82	0.85
412.025	0.87
412.229	0.9
412.434	1.05
412.638	0.94
412.843	0.93
413.047	1
413.252	0.96
413.456	1.03
413.66	1.08
413.865	1.1
414.069	1.17
414.273	1.14
414.478	1.12
414.682	1.22
414.886	1.2
415.091	1.21
415.295	1.22
415.499	1.41
415.703	1.35
415.908	1.48
416.112	1.39
416.316	1.68
416.52	1.59
416.724	1.56
416.929	1.64
417.133	1.9
417.337	1.79
417.541	1.82
417.745	1.86
417.949	2.01
418.153	2.07
418.357	2.06
418.561	2.36
418.765	2.27
418.969	2.41
419.173	2.44
419.377	2.44
419.581	2.67
419.785	2.69
419.989	2.74
420.193	2.82
420.397	2.97
420.601	3.14
420.804	3.2
421.008	3.13
421.212	3.31
421.416	3.27
421.62	3.32
421.823	3.46
422.027	3.63
422.231	3.59
422.435	3.59
422.638	3.69
422.842	3.72
423.046	3.83
423.249	4.09
423.453	4.05
423.657	4.14
423.86	4.28
424.064	4.45
424.268	4.58
424.471	4.49
424.675	4.78
424.878	4.89
425.082	4.98
425.285	5.3
425.489	5.14
425.692	5.32
425.896	5.35
426.099	5.66
426.303	5.69
426.506	5.8
426.71	6.11
426.913	6.35
427.116	6.37
427.32	6.39
427.523	6.49
427.726	6.87
427.93	6.9
428.133	7.28
428.336	7.36
428.54	7.53
428.743	7.74
428.946	8.01
429.149	8.07
429.353	8.03
429.556	8.14
429.759	8.21
429.962	8.3
430.165	8.41
430.368	8.04
430.571	8.16
430.775	8.2
430.978	8.12
431.181	8.31
431.384	8.38
431.587	8.47
431.79	8.82
431.993	8.8
432.196	9.08
432.399	9.45
432.602	9.48
432.805	9.64
433.008	10.24
433.211	10.01
433.414	10.46
433.616	10.4
433.819	10.37
434.022	10.57
434.225	10.77
434.428	10.65
434.631	11.15
434.833	10.91
435.036	11.21
435.239	11.39
435.442	11.45
435.645	11.56
435.847	11.77
436.05	12.06
436.253	12.28
436.455	12.3
436.658	12.14
436.861	12.44
437.063	12.62
437.266	12.5
437.468	12.88
437.671	13.28
437.874	13.24
438.076	13.13
438.279	13.61
438.481	13.62
438.684	14.5
438.886	14.06
439.089	14.34
439.291	14.34
439.494	14.62
439.696	14.76
439.899	15.29
440.101	15.67
440.303	15.94
440.506	16.67
440.708	16.45
440.91	16.73
441.113	16.87
441.315	17.06
441.517	16.85
441.72	17.28
441.922	16.98
442.124	16.91
442.326	17.41
442.529	17.47
442.731	17.48
442.933	17.84
443.135	17.49
443.337	17.6
443.539	18.13
443.742	17.88
443.944	18.39
444.146	18.19
444.348	18.12
444.55	18.02
444.752	18.18
444.954	18.17
445.156	18.05
445.358	18.47
445.56	18.77
445.762	18.62
445.964	18.95
446.166	18.53
446.368	18.64
446.57	18.59
446.772	18.39
446.974	17.99
447.175	18.33
447.377	18
447.579	18.44
447.781	17.91
447.983	17.71
448.184	17.4
448.386	17.86
448.588	17.26
448.79	17.17
448.991	17.49
449.193	17.54
449.395	16.73
449.597	16.51
449.798	16.37
450	15.9
450.202	15.75
450.403	15.86
450.605	15.6
450.806	15.25
451.008	15.09
451.21	14.88
451.411	14.54
451.613	13.79
451.814	14.05
452.016	13.92
452.217	13.15
452.419	13.25
452.62	12.93
452.821	12.7
453.023	12.44
453.224	12.17
453.426	11.76
453.627	11.02
453.828	11.15
454.03	11.24
454.231	11.18
454.432	10.93
454.634	10.76
454.835	10.45
455.036	10.31
455.238	9.94
455.439	9.64
455.64	9.48
455.841	9.31
456.042	9.35
456.244	9.12
456.445	8.78
456.646	8.55
456.847	8.48
457.048	8.37
457.249	8.41
457.45	8.27
457.651	7.62
457.852	7.5
458.054	7.29
458.255	7.17
458.456	7.26
458.657	7.03
458.858	6.68
459.058	6.6
459.259	6.66
459.46	6.39
459.661	6.34
459.862	6.36
460.063	6.28
460.264	6.19
460.465	5.93
460.666	6.05
460.866	5.66
461.067	5.45
461.268	5.49
461.469	5.42
461.67	5.3
461.87	5.2
462.071	5.2
462.272	5.09
462.473	5.03
462.673	5.18
462.874	5
463.075	5.12
463.275	5.08
463.476	5.06
463.676	5.03
463.877	4.85
464.078	4.95
464.278	5.03
464.479	4.85
464.679	4.68
464.88	4.71
465.08	4.64
465.281	4.51
465.481	4.22
465.682	4.08
465.882	4.18
466.083	3.98
466.283	4.01
466.483	3.82
466.684	3.71
466.884	3.62
467.085	3.7
467.285	3.74
467.485	3.61
467.686	3.55
467.886	3.4
468.086	3.4
468.286	3.32
468.487	3.44
468.687	3.24
468.887	3.13
469.087	3.4
469.287	3.16
469.488	3.03
469.688	3.16
469.888	3.14
470.088	3.12
470.288	3.07
470.488	3
470.688	2.8
470.888	2.85
471.088	2.7
471.288	2.78
471.488	2.77
471.688	2.68
471.888	2.66
472.088	2.8
472.288	2.69
472.488	2.55
472.688	2.55
472.888	2.63
473.088	2.55
473.288	2.42
473.488	2.39
473.688	2.61
473.887	2.47
474.087	2.45
474.287	2.49
474.487	2.38
474.687	2.36
474.886	2.36
475.086	2.28
475.286	2.28
475.486	2.21
475.685	2.22
475.885	2.22
476.085	2.2
476.284	2.24
476.484	2.21
476.684	2.22
476.883	2.28
477.083	2.19
477.282	2.08
477.482	2.18
477.681	2.16
477.881	2.06
478.08	2.05
478.28	2.04
478.479	2.13
478.679	2.14
478.878	2.01
479.078	2.03
479.277	2.06
479.477	2.01
479.676	2.01
479.875	2.02
480.075	1.97
480.274	2.02
480.473	2.08
480.673	2.02
480.872	2.08
481.071	2.04
481.271	2.02
481.47	1.94
481.669	1.98
481.868	1.94
482.067	2
482.267	1.88
482.466	1.94
482.665	1.93
482.864	1.96
483.063	1.9
483.262	2.05
483.461	2.05
483.661	2.04
483.86	2.01
484.059	2.01
484.258	1.98
484.457	2.03
484.656	1.99
484.855	2.08
485.054	1.9
485.253	1.98
485.452	1.95
485.651	2.07
485.849	2
486.048	2
486.247	2.04
486.446	2.1
486.645	2.01
486.844	2.05
487.043	2.03
487.241	2.09
487.44	2.07
487.639	2.17
487.838	2.14
488.037	2.1
488.235	2.21
488.434	2.13
488.633	2.07
488.831	2.25
489.03	2.25
489.229	2.24
489.427	2.22
489.626	2.25
489.825	2.31
490.023	2.3
490.222	2.28
490.42	2.31
490.619	2.34
490.817	2.37
491.016	2.37
491.214	2.44
491.413	2.41
491.611	2.38
491.81	2.41
492.008	2.45
492.207	2.56
492.405	2.51
492.604	2.47
492.802	2.53
493	2.61
493.199	2.6
493.397	2.63
493.595	2.7
493.794	2.68
493.992	2.76
494.19	2.75
494.388	2.79
494.587	2.74
494.785	2.76
494.983	2.74
495.181	2.85
495.379	2.88
495.578	2.93
495.776	2.97
495.974	2.93
496.172	3.01
496.37	3.08
496.568	3.08
496.766	3.06
496.964	3.16
497.162	3.16
497.36	3.22
497.558	3.27
497.756	3.32
497.954	3.28
498.152	3.35
498.35	3.46
498.548	3.38
498.746	3.37
498.944	3.42
499.142	3.47
499.34	3.58
499.538	3.62
499.736	3.53
499.933	3.65
500.131	3.62
500.329	3.84
500.527	3.73
500.725	3.92
500.922	3.87
501.12	3.89
501.318	3.95
501.516	3.95
501.713	3.99
501.911	4.03
502.109	3.95
502.306	4.09
502.504	4.04
502.701	4.11
