Data from Apollo_Calib_20240827__AbsoluteIrradiance__732__11-21-02-292.txt Node

Date: Wed Aug 28 11:21:02 BST 2024
User: biology
Spectrometer: FLMT08252
Trigger mode: 0
Integration Time (sec): 5.000000E-1
Scans to average: 5
Electric dark correction enabled: true
Nonlinearity correction enabled: false
Boxcar width: 0
XAxis mode: Wavelengths
Number of Pixels in Spectrum: 3648
>>>>>Begin Spectral Data<<<<<
179.588	-0
179.809	-0
180.03	-0
180.251	-0
180.473	-0
180.694	0
180.915	0
181.136	-0
181.357	-0
181.578	-0
181.799	-0
182.02	-0
182.241	0
182.462	-0
182.683	0
182.904	-0
183.125	0
183.346	0
183.567	0
183.788	0
184.009	-0
184.23	0
184.451	0
184.672	0
184.892	0
185.113	0
185.334	0
185.555	0
185.776	0
185.996	0
186.217	0
186.438	0
186.659	0
186.879	0
187.1	0
187.321	0
187.541	0
187.762	0
187.983	0
188.203	0
188.424	0
188.644	0
188.865	0
189.086	0
189.306	0
189.527	0
189.747	0
189.968	0
190.188	0
190.409	0
190.629	0
190.849	0
191.07	0
191.29	0
191.511	0
191.731	0
191.951	0
192.172	0
192.392	0
192.612	0
192.833	0
193.053	0
193.273	0
193.493	0
193.714	0
193.934	0
194.154	0
194.374	0
194.594	0
194.815	0
195.035	0
195.255	0
195.475	0
195.695	0
195.915	0
196.135	0
196.355	0
196.575	0
196.795	0
197.015	0
197.235	0
197.455	0
197.675	0
197.895	0
198.115	0
198.335	0
198.555	0
198.775	0
198.995	0
199.214	0
199.434	0
199.654	0
199.874	0
200.094	2.21
200.313	0.91
200.533	0.74
200.753	0.31
200.973	2.13
201.192	2.24
201.412	0.6
201.632	0.85
201.851	1.93
202.071	0.35
202.291	0.24
202.51	0.32
202.73	1.42
202.95	0.81
203.169	0.18
203.389	0.52
203.608	1.27
203.828	-0.03
204.047	0.66
204.267	1.06
204.486	0.9
204.706	0.87
204.925	0.76
205.145	0.56
205.364	1.52
205.583	1.38
205.803	0.38
206.022	0.47
206.242	0.36
206.461	0.79
206.68	0.54
206.9	0.93
207.119	1.49
207.338	0.94
207.557	0.25
207.777	0.38
207.996	0.51
208.215	1.2
208.434	0.19
208.654	0.37
208.873	0.54
209.092	1.23
209.311	0.58
209.53	0.74
209.749	0.73
209.968	0.34
210.187	0.5
210.407	0.32
210.626	0.36
210.845	0.71
211.064	0.71
211.283	0.12
211.502	0.75
211.721	0.59
211.94	0.4
212.159	0.61
212.377	0.68
212.596	0.97
212.815	0.32
213.034	0.64
213.253	0.57
213.472	0.63
213.691	0.39
213.91	0.1
214.128	0.22
214.347	0.73
214.566	0.06
214.785	0.19
215.003	0.52
215.222	0.5
215.441	0.39
215.66	0.12
215.878	0.43
216.097	0.71
216.316	0.08
216.534	0.24
216.753	0.54
216.972	0.51
217.19	0.54
217.409	0.31
217.627	0.2
217.846	0.34
218.064	0.24
218.283	0.31
218.501	0.66
218.72	0.6
218.938	0.18
219.157	0.25
219.375	0.66
219.594	0.52
219.812	0.16
220.031	0.28
220.249	0.78
220.467	0.67
220.686	0.21
220.904	0.22
221.122	0.19
221.341	0.73
221.559	0.22
221.777	0.22
221.995	0.38
222.214	0.5
222.432	0.24
222.65	0.41
222.868	0.43
223.086	0.45
223.305	0.46
223.523	0.28
223.741	0.71
223.959	0.24
224.177	0.12
224.395	0.2
224.613	0.4
224.831	0.37
225.049	0.16
225.267	0.22
225.485	0.32
225.703	0.28
225.921	0.26
226.139	0.22
226.357	0.46
226.575	0.32
226.793	0.25
227.011	0.92
227.229	0.41
227.447	0.52
227.665	0.27
227.883	0.11
228.1	0.3
228.318	0.35
228.536	0.07
228.754	0.13
228.972	0.41
229.189	0.51
229.407	0.25
229.625	0.18
229.843	0.35
230.06	0.44
230.278	0.17
230.496	0.22
230.713	0.42
230.931	0.25
231.149	0.2
231.366	0.02
231.584	0.14
231.801	0.63
232.019	0.19
232.236	0.06
232.454	0.14
232.671	0.34
232.889	0.26
233.106	0.16
233.324	0.32
233.541	0.16
233.759	0.22
233.976	0.18
234.194	0.23
234.411	0.23
234.628	0.09
234.846	0.22
235.063	0.2
235.28	0.23
235.498	0.25
235.715	0.13
235.932	0.4
236.149	0.15
236.367	0.1
236.584	0.24
236.801	0
237.018	0.37
237.236	0.23
237.453	0.15
237.67	0.39
237.887	0.17
238.104	0.16
238.321	0.03
238.538	0.08
238.755	0.38
238.973	0.12
239.19	0.22
239.407	0.3
239.624	0.19
239.841	0.02
240.058	0.12
240.275	0.15
240.492	0.16
240.709	0.18
240.925	0.21
241.142	0.21
241.359	0.16
241.576	0.03
241.793	0.06
242.01	0.18
242.227	0.33
242.444	0.19
242.66	0.2
242.877	0.26
243.094	0.16
243.311	0.23
243.527	0.15
243.744	0.22
243.961	0.22
244.178	0.21
244.394	0.14
244.611	0.29
244.828	0.37
245.044	0.11
245.261	0.23
245.477	0.22
245.694	0.24
245.911	0.2
246.127	0.18
246.344	0.35
246.56	0.32
246.777	0.2
246.993	0.23
247.21	0.21
247.426	0.27
247.643	0.12
247.859	0.11
248.076	0.14
248.292	0.44
248.508	0.13
248.725	0.17
248.941	0.27
249.157	0.31
249.374	0.08
249.59	0.2
249.806	0.25
250.023	0.26
250.239	0.1
250.455	0.06
250.671	0.18
250.888	0.19
251.104	0.31
251.32	0.18
251.536	0.14
251.752	0.18
251.969	0.22
252.185	0.13
252.401	0.42
252.617	0.17
252.833	0.17
253.049	0.13
253.265	0.12
253.481	0.19
253.697	0.16
253.913	0.1
254.129	0.17
254.345	0.22
254.561	0.18
254.777	0.18
254.993	0.25
255.209	0.24
255.425	0.16
255.641	0.08
255.857	0.32
256.073	0.17
256.288	0.04
256.504	0.15
256.72	0.18
256.936	0.28
257.152	0.11
257.367	0.1
257.583	0.22
257.799	0.26
258.015	0.13
258.23	0.15
258.446	0.31
258.662	0.17
258.877	0.15
259.093	0.06
259.309	0.09
259.524	0.2
259.74	0.1
259.955	0.01
260.171	0.2
260.387	0.18
260.602	0.24
260.818	0.16
261.033	0.09
261.249	0.14
261.464	0.04
261.68	0.02
261.895	0.16
262.11	0.28
262.326	0.09
262.541	0.05
262.757	0.26
262.972	0.19
263.187	0.22
263.403	0.13
263.618	0.25
263.833	0.2
264.049	0.11
264.264	0.1
264.479	0.14
264.694	0.23
264.91	0.06
265.125	0.17
265.34	0.19
265.555	0.32
265.77	0.22
265.986	0.16
266.201	0.17
266.416	0.21
266.631	0.12
266.846	0.16
267.061	0.23
267.276	0.23
267.491	0.04
267.706	0.27
267.921	0.22
268.136	0.13
268.351	0.1
268.566	0.08
268.781	0.28
268.996	0.24
269.211	0.08
269.426	0.06
269.641	0.18
269.856	0.2
270.071	0.08
270.285	0.08
270.5	0.21
270.715	0.25
270.93	0.12
271.145	0.16
271.359	0.24
271.574	0.18
271.789	0.11
272.004	0.07
272.218	0.15
272.433	0.24
272.648	0.09
272.862	0.24
273.077	0.12
273.292	0.19
273.506	0.1
273.721	0.15
273.936	0.15
274.15	0.19
274.365	0.09
274.579	0.17
274.794	0.15
275.008	0.2
275.223	0.08
275.437	0.15
275.652	0.21
275.866	0.19
276.081	0.14
276.295	0.16
276.509	0.18
276.724	0.15
276.938	0.15
277.153	0.19
277.367	0.24
277.581	0.15
277.796	0.05
278.01	0.07
278.224	0.23
278.438	0.24
278.653	0.14
278.867	0.08
279.081	-0.03
279.295	0.07
279.51	0.13
279.724	0.03
279.938	0.21
280.152	0.15
280.366	0.12
280.58	0.19
280.794	0.25
281.008	0.16
281.222	0.21
281.437	0.25
281.651	0.12
281.865	0.23
282.079	0.14
282.293	0.03
282.507	0.07
282.721	0.13
282.935	0.16
283.148	0.11
283.362	0.11
283.576	0.09
283.79	0.13
284.004	0.07
284.218	0.23
284.432	0.12
284.646	0.16
284.859	0.12
285.073	0.09
285.287	0.17
285.501	0.16
285.714	0.16
285.928	0.16
286.142	0.12
286.356	0.11
286.569	0.11
286.783	0.21
286.997	0.14
287.21	0.15
287.424	0.13
287.637	0.17
287.851	0.09
288.065	0.15
288.278	0.15
288.492	0.13
288.705	0.14
288.919	0.16
289.132	0.04
289.346	0.17
289.559	0.01
289.773	0.07
289.986	0.09
290.2	0.1
290.413	0.17
290.626	0.05
290.84	0.09
291.053	0.14
291.267	0.2
291.48	0.13
291.693	0.09
291.906	0.1
292.12	0.11
292.333	0.07
292.546	0.11
292.76	0.21
292.973	0.16
293.186	0.17
293.399	0.08
293.612	0.18
293.826	0.1
294.039	0.11
294.252	0.15
294.465	0.13
294.678	0.16
294.891	0.12
295.104	0.08
295.317	0.14
295.53	0.15
295.743	0.12
295.956	0.13
296.169	0.19
296.382	0.13
296.595	0.17
296.808	0.07
297.021	0.18
297.234	0.17
297.447	0.12
297.66	0.08
297.873	0.17
298.086	0.15
298.299	0.1
298.511	0.07
298.724	0.09
298.937	0.08
299.15	0.09
299.363	0.11
299.575	0.13
299.788	0.12
300.001	0.11
300.213	0.1
300.426	0.12
300.639	0.09
300.852	0.07
301.064	0.16
301.277	0.21
301.489	0.18
301.702	0.12
301.915	0.14
302.127	0.14
302.34	0.14
302.552	0.13
302.765	0.12
302.977	0.16
303.19	0.1
303.402	0.08
303.615	0.08
303.827	0.13
304.04	0.11
304.252	0.17
304.464	0.12
304.677	0.22
304.889	0.2
305.102	0.12
305.314	0.1
305.526	0.11
305.739	0.13
305.951	0.06
306.163	0.09
306.375	0.18
306.588	0.08
306.8	0.11
307.012	0.06
307.224	0.13
307.436	0.18
307.649	0.03
307.861	0.12
308.073	0.14
308.285	0.09
308.497	0.03
308.709	0.09
308.921	0.12
309.133	0.17
309.346	0.08
309.558	0.13
309.77	0.16
309.982	0.23
310.194	0.19
310.406	0.13
310.617	0.19
310.829	0.13
311.041	0.14
311.253	0.05
311.465	0.08
311.677	0.15
311.889	0.13
312.101	0.12
312.313	0.16
312.524	0.21
312.736	0.06
312.948	0.11
313.16	0.17
313.372	0.17
313.583	0.15
313.795	0.08
314.007	0.1
314.218	0.13
314.43	0.11
314.642	0.09
314.853	0.02
315.065	0.15
315.277	0.11
315.488	0.13
315.7	0.17
315.912	0.11
316.123	0.1
316.335	0.12
316.546	0.27
316.758	0.13
316.969	0.1
317.181	0.13
317.392	0.11
317.604	0.17
317.815	0.07
318.026	0.07
318.238	0.09
318.449	0.14
318.661	0.06
318.872	0.07
319.083	0.07
319.295	0.15
319.506	0.07
319.717	0.09
319.929	0.14
320.14	0.11
320.351	0.11
320.562	0.09
320.774	0.09
320.985	0.12
321.196	0.12
321.407	0.03
321.618	0.15
321.829	0.17
322.041	0.14
322.252	0.08
322.463	0.12
322.674	0.13
322.885	0.05
323.096	0.13
323.307	0.13
323.518	0.15
323.729	0.1
323.94	0.08
324.151	0.1
324.362	0.11
324.573	0.13
324.784	0.09
324.995	0.16
325.206	0.13
325.417	0.09
325.628	0.1
325.838	0.09
326.049	0.1
326.26	0.17
326.471	0.06
326.682	0.13
326.892	0.13
327.103	0.05
327.314	0.06
327.525	0.17
327.735	0.12
327.946	0.11
328.157	0.04
328.368	0.15
328.578	0.11
328.789	0.19
328.999	0.1
329.21	0.12
329.421	0.16
329.631	0.06
329.842	0.1
330.052	0.13
330.263	0.2
330.473	0.12
330.684	0.1
330.894	0.14
331.105	0.15
331.315	0.11
331.526	0.06
331.736	0.21
331.947	0.11
332.157	0.12
332.367	0.03
332.578	0.16
332.788	0.2
332.999	0.16
333.209	0.11
333.419	0.1
333.629	0.16
333.84	0.16
334.05	0.09
334.26	0.18
334.47	0.11
334.681	0.21
334.891	0.08
335.101	0.13
335.311	0.22
335.521	0.1
335.732	0.06
335.942	0.18
336.152	0.14
336.362	0.1
336.572	0.1
336.782	0.14
336.992	0.07
337.202	0.1
337.412	0.11
337.622	0.11
337.832	0.13
338.042	0.14
338.252	0.09
338.462	0.08
338.672	0.14
338.882	0.05
339.092	0.12
339.302	0.17
339.511	0.2
339.721	0.1
339.931	0.06
340.141	0.16
340.351	0.21
340.561	0.12
340.77	0.11
340.98	0.12
341.19	0.13
341.4	0.07
341.609	0.03
341.819	0.1
342.029	0.07
342.238	0.11
342.448	0.08
342.658	0.09
342.867	0.12
343.077	0.14
343.286	0.12
343.496	0.12
343.706	0.19
343.915	0.06
344.125	0.13
344.334	0.17
344.544	0.07
344.753	0.07
344.963	0.08
345.172	0.11
345.381	0.05
345.591	0.11
345.8	0.13
346.01	0.15
346.219	0.17
346.428	-0.01
346.638	0.1
346.847	0.09
347.056	0.19
347.266	0.11
347.475	0.08
347.684	0.15
347.893	0.18
348.103	0.12
348.312	0.07
348.521	0.09
348.73	0.08
348.94	0.12
349.149	0.08
349.358	0.13
349.567	0.13
349.776	0.03
349.985	0.1
350.194	0.13
350.403	0.12
350.612	0.04
350.821	0.06
351.03	0.11
351.239	0.06
351.448	0.13
351.657	0.07
351.866	0.2
352.075	0.08
352.284	0.17
352.493	0.05
352.702	0.16
352.911	0.14
353.12	0.14
353.329	0.08
353.538	0.14
353.746	0.08
353.955	0.09
354.164	0.14
354.373	0.11
354.582	0.17
354.79	0.04
354.999	0.11
355.208	0.09
355.416	0.2
355.625	0.03
355.834	0.1
356.042	0.09
356.251	0.1
356.46	0.07
356.668	0.15
356.877	0.17
357.085	0.09
357.294	0.05
357.503	0.15
357.711	0.11
357.92	0.22
358.128	0.13
358.337	0.09
358.545	0.14
358.754	0.05
358.962	0.14
359.17	0.12
359.379	0.09
359.587	0.15
359.796	0.08
360.004	0.16
360.212	0.17
360.421	0.15
360.629	0.11
360.837	0.07
361.046	0.14
361.254	0.24
361.462	0.09
361.67	0.1
361.879	0.13
362.087	0.16
362.295	0.13
362.503	0.08
362.711	0.07
362.92	0.05
363.128	0.05
363.336	0.11
363.544	0.06
363.752	0.1
363.96	0.07
364.168	0.08
364.376	0.14
364.584	0.07
364.792	0.15
365	0.12
365.208	0.14
365.416	0.14
365.624	0.13
365.832	0.08
366.04	0.17
366.248	0.1
366.456	0.09
366.664	0.12
366.872	0.1
367.079	0.09
367.287	0.13
367.495	0.17
367.703	0.1
367.911	0.08
368.118	0.07
368.326	0.11
368.534	0.05
368.742	0.16
368.949	0.11
369.157	0.1
369.365	0.16
369.572	0.14
369.78	0.08
369.988	0.15
370.195	0.12
370.403	0.15
370.61	0.09
370.818	0.1
371.026	0.17
371.233	0.08
371.441	0.16
371.648	0.12
371.856	0.11
372.063	0.1
372.271	0.1
372.478	0.11
372.685	0.09
372.893	0.11
373.1	0.12
373.308	0.09
373.515	0.19
373.722	0.2
373.93	0.12
374.137	0.12
374.344	0.19
374.552	0.19
374.759	0.12
374.966	0.11
375.173	0.11
375.381	0.2
375.588	0.1
375.795	0.05
376.002	0.07
376.209	0.1
376.417	0.1
376.624	0.13
376.831	0.15
377.038	0.1
377.245	0.07
377.452	0.07
377.659	0.09
377.866	0.06
378.073	0.12
378.28	0.13
378.487	0.2
378.694	0.15
378.901	0.12
379.108	0.14
379.315	0.15
379.522	0.16
379.729	0.14
379.936	0.12
380.143	0.09
380.35	0.14
380.557	0.1
380.763	0.13
380.97	0.11
381.177	0.17
381.384	0.13
381.591	0.08
381.797	0.11
382.004	0.13
382.211	0.17
382.418	0.07
382.624	0.15
382.831	0.14
383.038	0.08
383.244	0.16
383.451	0.14
383.658	0.14
383.864	0.12
384.071	0.11
384.277	0.18
384.484	0.06
384.69	0.19
384.897	0.07
385.103	0.09
385.31	0.13
385.516	0.15
385.723	0.1
385.929	0.11
386.136	0.11
386.342	0.15
386.549	0.11
386.755	0.14
386.961	0.12
387.168	0.1
387.374	0.09
387.58	0.14
387.787	0.12
387.993	0.18
388.199	0.14
388.406	0.09
388.612	0.17
388.818	0.1
389.024	0.1
389.231	0.11
389.437	0.18
389.643	0.14
389.849	0.14
390.055	0.18
390.261	0.09
390.467	0.15
390.674	0.12
390.88	0.1
391.086	0.1
391.292	0.11
391.498	0.2
391.704	0.15
391.91	0.15
392.116	0.08
392.322	0.02
392.528	0.16
392.734	0.13
392.94	0.12
393.146	0.13
393.352	0.15
393.557	0.11
393.763	0.12
393.969	0.2
394.175	0.1
394.381	0.18
394.587	0.08
394.792	0.14
394.998	0.19
395.204	0.21
395.41	0.09
395.615	0.19
395.821	0.11
396.027	0.17
396.233	0.11
396.438	0.17
396.644	0.17
396.85	0.13
397.055	0.13
397.261	0.15
397.466	0.23
397.672	0.12
397.878	0.2
398.083	0.18
398.289	0.13
398.494	0.17
398.7	0.2
398.905	0.05
399.111	0.17
399.316	0.08
399.522	0.12
399.727	0.12
399.932	0.15
400.138	0.12
400.343	0.18
400.549	0.17
400.754	0.15
400.959	0.17
401.165	0.13
401.37	0.17
401.575	0.21
401.78	0.15
401.986	0.13
402.191	0.14
402.396	0.15
402.601	0.18
402.807	0.15
403.012	0.17
403.217	0.23
403.422	0.17
403.627	0.17
403.832	0.2
404.037	0.2
404.243	0.2
404.448	0.14
404.653	0.15
404.858	0.22
405.063	0.24
405.268	0.13
405.473	0.13
405.678	0.16
405.883	0.38
406.088	0.19
406.293	0.16
406.498	0.16
406.703	0.24
406.907	0.21
407.112	0.14
407.317	0.2
407.522	0.2
407.727	0.16
407.932	0.28
408.136	0.3
408.341	0.24
408.546	0.24
408.751	0.3
408.956	0.22
409.16	0.31
409.365	0.24
409.57	0.25
409.774	0.26
409.979	0.3
410.184	0.25
410.388	0.25
410.593	0.33
410.798	0.31
411.002	0.27
411.207	0.34
411.411	0.34
411.616	0.25
411.82	0.32
412.025	0.32
412.229	0.35
412.434	0.48
412.638	0.39
412.843	0.35
413.047	0.39
413.252	0.37
413.456	0.35
413.66	0.43
413.865	0.41
414.069	0.49
414.273	0.43
414.478	0.41
414.682	0.41
414.886	0.42
415.091	0.43
415.295	0.44
415.499	0.55
415.703	0.47
415.908	0.57
416.112	0.47
416.316	0.66
416.52	0.65
416.724	0.5
416.929	0.59
417.133	0.74
417.337	0.65
417.541	0.68
417.745	0.68
417.949	0.77
418.153	0.74
418.357	0.72
418.561	0.88
418.765	0.86
418.969	0.96
419.173	0.98
419.377	0.91
419.581	1.09
419.785	1.01
419.989	1.03
420.193	1.13
420.397	1.15
420.601	1.21
420.804	1.24
421.008	1.18
421.212	1.26
421.416	1.33
421.62	1.28
421.823	1.27
422.027	1.41
422.231	1.4
422.435	1.41
422.638	1.43
422.842	1.5
423.046	1.48
423.249	1.58
423.453	1.58
423.657	1.73
423.86	1.65
424.064	1.7
424.268	1.87
424.471	1.77
424.675	1.94
424.878	2
425.082	1.98
425.285	2.08
425.489	2
425.692	2.03
425.896	2.06
426.099	2.19
426.303	2.29
426.506	2.18
426.71	2.37
426.913	2.49
427.116	2.52
427.32	2.49
427.523	2.51
427.726	2.73
427.93	2.64
428.133	2.83
428.336	2.88
428.54	2.92
428.743	3.09
428.946	3.13
429.149	3.14
429.353	3.2
429.556	3.21
429.759	3.16
429.962	3.17
430.165	3.3
430.368	3.17
430.571	3.15
430.775	3.22
430.978	3.17
431.181	3.25
431.384	3.24
431.587	3.29
431.79	3.4
431.993	3.44
432.196	3.49
432.399	3.62
432.602	3.77
432.805	3.78
433.008	3.97
433.211	3.91
433.414	4.05
433.616	4.2
433.819	4.05
434.022	4.05
434.225	4.3
434.428	4.25
434.631	4.42
434.833	4.3
435.036	4.43
435.239	4.57
435.442	4.54
435.645	4.54
435.847	4.63
436.05	4.75
436.253	4.9
436.455	4.83
436.658	4.74
436.861	4.97
437.063	5
437.266	5.01
437.468	5.2
437.671	5.42
437.874	5.29
438.076	5.22
438.279	5.51
438.481	5.5
438.684	5.76
438.886	5.66
439.089	5.83
439.291	5.82
439.494	6.1
439.696	6.06
439.899	6.33
440.101	6.48
440.303	6.43
440.506	6.97
440.708	6.85
440.91	7
441.113	7.08
441.315	7.19
441.517	7.1
441.72	7.36
441.922	7.15
442.124	7.21
442.326	7.39
442.529	7.5
442.731	7.52
442.933	7.77
443.135	7.62
443.337	7.54
443.539	7.84
443.742	7.71
443.944	8.07
444.146	7.96
444.348	7.96
444.55	7.96
444.752	8.07
444.954	8.1
445.156	8.12
445.358	8.24
445.56	8.4
445.762	8.39
445.964	8.47
446.166	8.39
446.368	8.45
446.57	8.47
446.772	8.29
446.974	8.38
447.175	8.32
447.377	8.35
447.579	8.37
447.781	8.26
447.983	8.25
448.184	8.01
448.386	8.16
448.588	7.97
448.79	7.99
448.991	8.12
449.193	8.14
449.395	7.88
449.597	7.77
449.798	7.78
450	7.43
450.202	7.43
450.403	7.44
450.605	7.42
450.806	7.17
451.008	7.07
451.21	7.01
451.411	6.83
451.613	6.46
451.814	6.61
452.016	6.53
452.217	6.2
452.419	6.2
452.62	6.05
452.821	5.91
453.023	5.92
453.224	5.68
453.426	5.51
453.627	5.09
453.828	5.23
454.03	5.25
454.231	5.26
454.432	5.15
454.634	5.06
454.835	4.88
455.036	4.72
455.238	4.65
455.439	4.56
455.64	4.29
455.841	4.25
456.042	4.4
456.244	4.17
456.445	3.98
456.646	3.83
456.847	3.83
457.048	3.83
457.249	3.91
457.45	3.8
457.651	3.48
457.852	3.37
458.054	3.24
458.255	3.25
458.456	3.25
458.657	3.18
458.858	2.94
459.058	2.95
459.259	3
459.46	2.87
459.661	2.89
459.862	2.94
460.063	2.8
460.264	2.76
460.465	2.62
460.666	2.73
460.866	2.59
461.067	2.36
461.268	2.45
461.469	2.42
461.67	2.36
461.87	2.28
462.071	2.3
462.272	2.27
462.473	2.27
462.673	2.31
462.874	2.22
463.075	2.27
463.275	2.26
463.476	2.31
463.676	2.3
463.877	2.24
464.078	2.17
464.278	2.26
464.479	2.13
464.679	2.08
464.88	2.04
465.08	2.13
465.281	2.02
465.481	1.85
465.682	1.78
465.882	1.89
466.083	1.82
466.283	1.82
466.483	1.72
466.684	1.55
466.884	1.59
467.085	1.61
467.285	1.63
467.485	1.57
467.686	1.55
467.886	1.43
468.086	1.5
468.286	1.49
468.487	1.52
468.687	1.44
468.887	1.39
469.087	1.51
469.287	1.42
469.488	1.28
469.688	1.4
469.888	1.41
470.088	1.36
470.288	1.36
470.488	1.33
470.688	1.26
470.888	1.18
471.088	1.15
471.288	1.2
471.488	1.2
471.688	1.23
471.888	1.15
472.088	1.23
472.288	1.22
472.488	1.09
472.688	1.09
472.888	1.09
473.088	1.13
473.288	1.06
473.488	1.06
473.688	1.19
473.887	1.02
474.087	1.01
474.287	1.06
474.487	1
474.687	1.07
474.886	0.99
475.086	1
475.286	1
475.486	0.97
475.685	0.95
475.885	0.9
476.085	0.97
476.284	1
476.484	0.93
476.684	0.97
476.883	1.03
477.083	0.92
477.282	0.87
477.482	1.02
477.681	0.93
477.881	0.89
478.08	0.88
478.28	0.85
478.479	0.95
478.679	0.99
478.878	0.89
479.078	0.84
479.277	0.86
479.477	0.87
479.676	0.86
479.875	0.86
480.075	0.8
480.274	0.87
480.473	0.91
480.673	0.83
480.872	0.9
481.071	0.88
481.271	0.88
481.47	0.84
481.669	0.87
481.868	0.82
482.067	0.83
482.267	0.82
482.466	0.8
482.665	0.81
482.864	0.79
483.063	0.79
483.262	0.88
483.461	0.9
483.661	0.9
483.86	0.86
484.059	0.88
484.258	0.88
484.457	0.84
484.656	0.86
484.855	0.89
485.054	0.82
485.253	0.83
485.452	0.83
485.651	0.86
485.849	0.84
486.048	0.83
486.247	0.88
486.446	0.9
486.645	0.86
486.844	0.85
487.043	0.87
487.241	0.92
487.44	0.88
487.639	0.94
487.838	0.9
488.037	0.9
488.235	1
488.434	0.88
488.633	0.86
488.831	0.97
489.03	0.98
489.229	0.98
489.427	0.94
489.626	0.99
489.825	1.02
490.023	0.98
490.222	0.97
490.42	1
490.619	1.01
490.817	1.04
491.016	1
491.214	1.04
491.413	1.06
491.611	1.04
491.81	1.02
492.008	1.07
492.207	1.12
492.405	1.09
492.604	1.02
492.802	1.11
493	1.16
493.199	1.14
493.397	1.14
493.595	1.19
493.794	1.12
493.992	1.23
494.19	1.2
494.388	1.25
494.587	1.2
494.785	1.21
494.983	1.19
495.181	1.26
495.379	1.27
495.578	1.31
495.776	1.32
495.974	1.28
496.172	1.31
496.37	1.33
496.568	1.36
496.766	1.33
496.964	1.42
497.162	1.4
497.36	1.41
497.558	1.45
497.756	1.47
497.954	1.48
498.152	1.49
498.35	1.51
498.548	1.47
498.746	1.51
498.944	1.5
499.142	1.53
499.34	1.56
499.538	1.61
499.736	1.58
499.933	1.63
500.131	1.63
500.329	1.68
500.527	1.68
500.725	1.75
500.922	1.73
501.12	1.74
501.318	1.77
501.516	1.78
501.713	1.81
501.911	1.8
502.109	1.76
502.306	1.85
502.504	1.8
502.701	1.83
502.899	1.87
503.097	1.98
503.294	1.91
503.492	1.95
503.689	1.97
503.887	1.98
504.084	2.04
504.282	2.02
504.479	1.96
504.677	2.06
