Data from Apollo_Calib_20240827__AbsoluteIrradiance__797__12-26-02-945.txt Node

Date: Wed Aug 28 12:26:02 BST 2024
User: biology
Spectrometer: FLMT08252
Trigger mode: 0
Integration Time (sec): 5.000000E-1
Scans to average: 5
Electric dark correction enabled: true
Nonlinearity correction enabled: false
Boxcar width: 0
XAxis mode: Wavelengths
Number of Pixels in Spectrum: 3648
>>>>>Begin Spectral Data<<<<<
179.588	-0
179.809	-0
180.03	-0
180.251	-0
180.473	-0
180.694	0
180.915	0
181.136	-0
181.357	0
181.578	-0
181.799	-0
182.02	-0
182.241	-0
182.462	-0
182.683	0
182.904	-0
183.125	0
183.346	0
183.567	0
183.788	0
184.009	0
184.23	0
184.451	0
184.672	0
184.892	0
185.113	0
185.334	0
185.555	0
185.776	0
185.996	0
186.217	0
186.438	0
186.659	0
186.879	0
187.1	0
187.321	0
187.541	0
187.762	0
187.983	0
188.203	0
188.424	0
188.644	0
188.865	0
189.086	0
189.306	0
189.527	0
189.747	0
189.968	0
190.188	0
190.409	0
190.629	0
190.849	0
191.07	0
191.29	0
191.511	0
191.731	0
191.951	0
192.172	0
192.392	0
192.612	0
192.833	0
193.053	0
193.273	0
193.493	0
193.714	0
193.934	0
194.154	0
194.374	0
194.594	0
194.815	0
195.035	0
195.255	0
195.475	0
195.695	0
195.915	0
196.135	0
196.355	0
196.575	0
196.795	0
197.015	0
197.235	0
197.455	0
197.675	0
197.895	0
198.115	0
198.335	0
198.555	0
198.775	0
198.995	0
199.214	0
199.434	0
199.654	0
199.874	0
200.094	4.17
200.313	3.13
200.533	2.45
200.753	1.65
200.973	3.68
201.192	4.04
201.412	1.4
201.632	1.81
201.851	3.66
202.071	2.02
202.291	1.93
202.51	1.12
202.73	2.57
202.95	2.06
203.169	1.5
203.389	1.51
203.608	2.15
203.828	1.13
204.047	1.52
204.267	2.14
204.486	2.21
204.706	2.42
204.925	1.93
205.145	1.2
205.364	2.41
205.583	3.41
205.803	1.34
206.022	1.21
206.242	1.81
206.461	1.64
206.68	1.05
206.9	1.64
207.119	2.77
207.338	1.84
207.557	1.14
207.777	1.27
207.996	1.45
208.215	2.28
208.434	1.17
208.654	0.71
208.873	1.46
209.092	2.17
209.311	1.23
209.53	1.18
209.749	0.94
209.968	1.06
210.187	0.72
210.407	0.54
210.626	1.19
210.845	1.45
211.064	1.14
211.283	0.78
211.502	1.58
211.721	1.11
211.94	1.2
212.159	1.24
212.377	1.69
212.596	1.47
212.815	1.1
213.034	1.39
213.253	1.28
213.472	1.25
213.691	0.99
213.91	0.47
214.128	0.83
214.347	1.45
214.566	0.55
214.785	0.26
215.003	1.35
215.222	1.28
215.441	0.97
215.66	0.56
215.878	0.96
216.097	1.18
216.316	0.71
216.534	0.76
216.753	1.09
216.972	0.8
217.19	0.87
217.409	0.66
217.627	0.72
217.846	0.74
218.064	0.93
218.283	0.55
218.501	1.49
218.72	1.2
218.938	0.7
219.157	0.61
219.375	1.05
219.594	1.1
219.812	0.71
220.031	0.42
220.249	1.23
220.467	1.27
220.686	0.71
220.904	0.54
221.122	0.73
221.341	1.16
221.559	0.85
221.777	0.43
221.995	0.58
222.214	1.01
222.432	0.52
222.65	0.86
222.868	0.71
223.086	0.86
223.305	0.85
223.523	0.69
223.741	1.18
223.959	0.66
224.177	0.41
224.395	0.44
224.613	0.86
224.831	0.95
225.049	0.44
225.267	0.51
225.485	0.91
225.703	0.56
225.921	0.64
226.139	0.51
226.357	0.73
226.575	0.86
226.793	0.59
227.011	1.58
227.229	0.83
227.447	0.8
227.665	0.49
227.883	0.29
228.1	0.72
228.318	0.76
228.536	0.17
228.754	0.37
228.972	0.8
229.189	0.77
229.407	0.6
229.625	0.56
229.843	0.84
230.06	0.7
230.278	0.43
230.496	0.57
230.713	0.72
230.931	1
231.149	0.4
231.366	0.28
231.584	0.45
231.801	0.92
232.019	0.45
232.236	0.36
232.454	0.49
232.671	0.64
232.889	0.4
233.106	0.4
233.324	0.57
233.541	0.51
233.759	0.5
233.976	0.34
234.194	0.55
234.411	0.57
234.628	0.36
234.846	0.55
235.063	0.56
235.28	0.55
235.498	0.61
235.715	0.3
235.932	0.67
236.149	0.51
236.367	0.38
236.584	0.55
236.801	0.49
237.018	0.67
237.236	0.5
237.453	0.32
237.67	0.69
237.887	0.66
238.104	0.49
238.321	0.37
238.538	0.37
238.755	0.69
238.973	0.29
239.19	0.44
239.407	0.62
239.624	0.46
239.841	0.28
240.058	0.3
240.275	0.52
240.492	0.47
240.709	0.4
240.925	0.4
241.142	0.52
241.359	0.35
241.576	0.36
241.793	0.35
242.01	0.54
242.227	0.65
242.444	0.51
242.66	0.53
242.877	0.54
243.094	0.36
243.311	0.38
243.527	0.44
243.744	0.56
243.961	0.6
244.178	0.39
244.394	0.4
244.611	0.55
244.828	0.71
245.044	0.4
245.261	0.44
245.477	0.48
245.694	0.59
245.911	0.38
246.127	0.51
246.344	0.67
246.56	0.57
246.777	0.42
246.993	0.4
247.21	0.47
247.426	0.48
247.643	0.33
247.859	0.31
248.076	0.32
248.292	0.7
248.508	0.42
248.725	0.48
248.941	0.46
249.157	0.61
249.374	0.37
249.59	0.38
249.806	0.39
250.023	0.51
250.239	0.37
250.455	0.28
250.671	0.47
250.888	0.5
251.104	0.41
251.32	0.4
251.536	0.37
251.752	0.44
251.969	0.41
252.185	0.31
252.401	0.71
252.617	0.44
252.833	0.3
253.049	0.4
253.265	0.41
253.481	0.38
253.697	0.37
253.913	0.36
254.129	0.5
254.345	0.48
254.561	0.38
254.777	0.35
254.993	0.45
255.209	0.37
255.425	0.35
255.641	0.33
255.857	0.47
256.073	0.46
256.288	0.28
256.504	0.35
256.72	0.46
256.936	0.55
257.152	0.29
257.367	0.31
257.583	0.37
257.799	0.46
258.015	0.3
258.23	0.29
258.446	0.51
258.662	0.34
258.877	0.29
259.093	0.27
259.309	0.43
259.524	0.35
259.74	0.33
259.955	0.25
260.171	0.37
260.387	0.45
260.602	0.45
260.818	0.45
261.033	0.35
261.249	0.43
261.464	0.32
261.68	0.26
261.895	0.46
262.11	0.42
262.326	0.31
262.541	0.21
262.757	0.52
262.972	0.5
263.187	0.33
263.403	0.39
263.618	0.47
263.833	0.36
264.049	0.25
264.264	0.36
264.479	0.38
264.694	0.49
264.91	0.25
265.125	0.33
265.34	0.45
265.555	0.55
265.77	0.35
265.986	0.26
266.201	0.42
266.416	0.47
266.631	0.28
266.846	0.29
267.061	0.47
267.276	0.41
267.491	0.2
267.706	0.4
267.921	0.36
268.136	0.32
268.351	0.29
268.566	0.22
268.781	0.49
268.996	0.49
269.211	0.36
269.426	0.28
269.641	0.38
269.856	0.45
270.071	0.24
270.285	0.27
270.5	0.41
270.715	0.45
270.93	0.31
271.145	0.33
271.359	0.45
271.574	0.31
271.789	0.33
272.004	0.26
272.218	0.31
272.433	0.46
272.648	0.25
272.862	0.36
273.077	0.42
273.292	0.38
273.506	0.26
273.721	0.3
273.936	0.39
274.15	0.38
274.365	0.29
274.579	0.37
274.794	0.36
275.008	0.46
275.223	0.19
275.437	0.34
275.652	0.38
275.866	0.41
276.081	0.27
276.295	0.39
276.509	0.36
276.724	0.32
276.938	0.29
277.153	0.39
277.367	0.38
277.581	0.26
277.796	0.25
278.01	0.19
278.224	0.4
278.438	0.47
278.653	0.25
278.867	0.25
279.081	0.39
279.295	0.3
279.51	0.39
279.724	0.2
279.938	0.36
280.152	0.33
280.366	0.31
280.58	0.34
280.794	0.4
281.008	0.36
281.222	0.37
281.437	0.45
281.651	0.32
281.865	0.39
282.079	0.33
282.293	0.17
282.507	0.26
282.721	0.33
282.935	0.29
283.148	0.22
283.362	0.31
283.576	0.23
283.79	0.28
284.004	0.23
284.218	0.4
284.432	0.23
284.646	0.32
284.859	0.25
285.073	0.27
285.287	0.32
285.501	0.28
285.714	0.29
285.928	0.32
286.142	0.34
286.356	0.24
286.569	0.22
286.783	0.4
286.997	0.4
287.21	0.26
287.424	0.25
287.637	0.28
287.851	0.27
288.065	0.34
288.278	0.3
288.492	0.31
288.705	0.28
288.919	0.36
289.132	0.15
289.346	0.34
289.559	0.15
289.773	0.21
289.986	0.25
290.2	0.23
290.413	0.37
290.626	0.22
290.84	0.27
291.053	0.33
291.267	0.37
291.48	0.31
291.693	0.28
291.906	0.25
292.12	0.24
292.333	0.26
292.546	0.22
292.76	0.42
292.973	0.28
293.186	0.27
293.399	0.22
293.612	0.38
293.826	0.31
294.039	0.25
294.252	0.24
294.465	0.36
294.678	0.31
294.891	0.26
295.104	0.26
295.317	0.2
295.53	0.26
295.743	0.27
295.956	0.23
296.169	0.34
296.382	0.33
296.595	0.24
296.808	0.2
297.021	0.38
297.234	0.33
297.447	0.25
297.66	0.29
297.873	0.34
298.086	0.32
298.299	0.23
298.511	0.15
298.724	0.3
298.937	0.22
299.15	0.21
299.363	0.26
299.575	0.4
299.788	0.29
300.001	0.24
300.213	0.22
300.426	0.26
300.639	0.21
300.852	0.18
301.064	0.31
301.277	0.32
301.489	0.28
301.702	0.27
301.915	0.25
302.127	0.26
302.34	0.3
302.552	0.29
302.765	0.22
302.977	0.34
303.19	0.23
303.402	0.23
303.615	0.21
303.827	0.27
304.04	0.23
304.252	0.26
304.464	0.25
304.677	0.38
304.889	0.25
305.102	0.25
305.314	0.18
305.526	0.24
305.739	0.3
305.951	0.18
306.163	0.21
306.375	0.39
306.588	0.21
306.8	0.21
307.012	0.21
307.224	0.28
307.436	0.35
307.649	0.2
307.861	0.24
308.073	0.32
308.285	0.23
308.497	0.17
308.709	0.22
308.921	0.25
309.133	0.33
309.346	0.21
309.558	0.22
309.77	0.32
309.982	0.33
310.194	0.3
310.406	0.2
310.617	0.36
310.829	0.28
311.041	0.34
311.253	0.21
311.465	0.27
311.677	0.29
311.889	0.29
312.101	0.22
312.313	0.33
312.524	0.33
312.736	0.16
312.948	0.24
313.16	0.32
313.372	0.32
313.583	0.3
313.795	0.26
314.007	0.2
314.218	0.3
314.43	0.29
314.642	0.22
314.853	0.17
315.065	0.32
315.277	0.19
315.488	0.29
315.7	0.37
315.912	0.3
316.123	0.26
316.335	0.24
316.546	0.43
316.758	0.23
316.969	0.25
317.181	0.26
317.392	0.26
317.604	0.3
317.815	0.17
318.026	0.17
318.238	0.22
318.449	0.28
318.661	0.19
318.872	0.19
319.083	0.21
319.295	0.27
319.506	0.21
319.717	0.25
319.929	0.29
320.14	0.29
320.351	0.26
320.562	0.19
320.774	0.26
320.985	0.28
321.196	0.25
321.407	0.14
321.618	0.32
321.829	0.31
322.041	0.28
322.252	0.27
322.463	0.28
322.674	0.28
322.885	0.2
323.096	0.29
323.307	0.25
323.518	0.26
323.729	0.26
323.94	0.19
324.151	0.27
324.362	0.28
324.573	0.25
324.784	0.27
324.995	0.33
325.206	0.29
325.417	0.2
325.628	0.22
325.838	0.27
326.049	0.31
326.26	0.29
326.471	0.2
326.682	0.27
326.892	0.27
327.103	0.22
327.314	0.21
327.525	0.32
327.735	0.27
327.946	0.25
328.157	0.21
328.368	0.32
328.578	0.26
328.789	0.32
328.999	0.28
329.21	0.23
329.421	0.32
329.631	0.25
329.842	0.22
330.052	0.25
330.263	0.29
330.473	0.27
330.684	0.23
330.894	0.28
331.105	0.28
331.315	0.24
331.526	0.2
331.736	0.36
331.947	0.31
332.157	0.31
332.367	0.18
332.578	0.28
332.788	0.35
332.999	0.27
333.209	0.25
333.419	0.25
333.629	0.31
333.84	0.28
334.05	0.26
334.26	0.33
334.47	0.26
334.681	0.32
334.891	0.19
335.101	0.28
335.311	0.37
335.521	0.25
335.732	0.21
335.942	0.32
336.152	0.28
336.362	0.26
336.572	0.28
336.782	0.3
336.992	0.2
337.202	0.24
337.412	0.21
337.622	0.29
337.832	0.26
338.042	0.27
338.252	0.21
338.462	0.26
338.672	0.26
338.882	0.25
339.092	0.28
339.302	0.31
339.511	0.29
339.721	0.23
339.931	0.21
340.141	0.31
340.351	0.34
340.561	0.28
340.77	0.28
340.98	0.3
341.19	0.3
341.4	0.23
341.609	0.25
341.819	0.24
342.029	0.24
342.238	0.3
342.448	0.21
342.658	0.33
342.867	0.24
343.077	0.27
343.286	0.26
343.496	0.26
343.706	0.33
343.915	0.2
344.125	0.28
344.334	0.3
344.544	0.21
344.753	0.21
344.963	0.23
345.172	0.2
345.381	0.22
345.591	0.23
345.8	0.2
346.01	0.34
346.219	0.33
346.428	0.12
346.638	0.28
346.847	0.29
347.056	0.34
347.266	0.27
347.475	0.23
347.684	0.29
347.893	0.27
348.103	0.24
348.312	0.2
348.521	0.25
348.73	0.26
348.94	0.26
349.149	0.22
349.358	0.26
349.567	0.23
349.776	0.2
349.985	0.23
350.194	0.35
350.403	0.32
350.612	0.12
350.821	0.19
351.03	0.24
351.239	0.19
351.448	0.24
351.657	0.26
351.866	0.36
352.075	0.3
352.284	0.21
352.493	0.18
352.702	0.34
352.911	0.28
353.12	0.24
353.329	0.22
353.538	0.33
353.746	0.22
353.955	0.24
354.164	0.26
354.373	0.22
354.582	0.29
354.79	0.24
354.999	0.29
355.208	0.26
355.416	0.36
355.625	0.16
355.834	0.23
356.042	0.28
356.251	0.21
356.46	0.18
356.668	0.24
356.877	0.35
357.085	0.29
357.294	0.14
357.503	0.26
357.711	0.26
357.92	0.42
358.128	0.25
358.337	0.22
358.545	0.26
358.754	0.22
358.962	0.31
359.17	0.22
359.379	0.24
359.587	0.29
359.796	0.28
360.004	0.32
360.212	0.29
360.421	0.31
360.629	0.27
360.837	0.22
361.046	0.26
361.254	0.44
361.462	0.24
361.67	0.18
361.879	0.29
362.087	0.3
362.295	0.23
362.503	0.2
362.711	0.14
362.92	0.21
363.128	0.23
363.336	0.21
363.544	0.19
363.752	0.23
363.96	0.18
364.168	0.18
364.376	0.26
364.584	0.3
364.792	0.29
365	0.29
365.208	0.27
365.416	0.32
365.624	0.27
365.832	0.22
366.04	0.34
366.248	0.28
366.456	0.3
366.664	0.24
366.872	0.24
367.079	0.24
367.287	0.23
367.495	0.26
367.703	0.23
367.911	0.21
368.118	0.23
368.326	0.24
368.534	0.21
368.742	0.33
368.949	0.2
369.157	0.2
369.365	0.3
369.572	0.24
369.78	0.23
369.988	0.31
370.195	0.28
370.403	0.28
370.61	0.25
370.818	0.22
371.026	0.31
371.233	0.25
371.441	0.26
371.648	0.23
371.856	0.33
372.063	0.25
372.271	0.27
372.478	0.23
372.685	0.24
372.893	0.3
373.1	0.24
373.308	0.23
373.515	0.35
373.722	0.31
373.93	0.24
374.137	0.31
374.344	0.36
374.552	0.34
374.759	0.28
374.966	0.22
375.173	0.23
375.381	0.31
375.588	0.23
375.795	0.16
376.002	0.22
376.209	0.22
376.417	0.28
376.624	0.29
376.831	0.33
377.038	0.24
377.245	0.15
377.452	0.23
377.659	0.29
377.866	0.24
378.073	0.27
378.28	0.25
378.487	0.33
378.694	0.31
378.901	0.24
379.108	0.28
379.315	0.29
379.522	0.37
379.729	0.28
379.936	0.22
380.143	0.29
380.35	0.22
380.557	0.26
380.763	0.26
380.97	0.29
381.177	0.3
381.384	0.27
381.591	0.21
381.797	0.29
382.004	0.3
382.211	0.29
382.418	0.29
382.624	0.31
382.831	0.35
383.038	0.28
383.244	0.26
383.451	0.24
383.658	0.3
383.864	0.28
384.071	0.19
384.277	0.37
384.484	0.29
384.69	0.36
384.897	0.27
385.103	0.23
385.31	0.26
385.516	0.24
385.723	0.21
385.929	0.28
386.136	0.27
386.342	0.31
386.549	0.25
386.755	0.36
386.961	0.28
387.168	0.27
387.374	0.3
387.58	0.31
387.787	0.31
387.993	0.29
388.199	0.26
388.406	0.3
388.612	0.27
388.818	0.26
389.024	0.21
389.231	0.28
389.437	0.39
389.643	0.32
389.849	0.3
390.055	0.29
390.261	0.28
390.467	0.29
390.674	0.28
390.88	0.3
391.086	0.34
391.292	0.26
391.498	0.33
391.704	0.28
391.91	0.3
392.116	0.27
392.322	0.19
392.528	0.33
392.734	0.26
392.94	0.3
393.146	0.29
393.352	0.33
393.557	0.3
393.763	0.3
393.969	0.35
394.175	0.28
394.381	0.28
394.587	0.24
394.792	0.22
394.998	0.4
395.204	0.38
395.41	0.34
395.615	0.29
395.821	0.32
396.027	0.37
396.233	0.3
396.438	0.3
396.644	0.36
396.85	0.34
397.055	0.33
397.261	0.34
397.466	0.34
397.672	0.37
397.878	0.31
398.083	0.35
398.289	0.31
398.494	0.4
398.7	0.4
398.905	0.23
399.111	0.42
399.316	0.28
399.522	0.35
399.727	0.32
399.932	0.31
400.138	0.34
400.343	0.34
400.549	0.33
400.754	0.37
400.959	0.36
401.165	0.35
401.37	0.36
401.575	0.51
401.78	0.44
401.986	0.38
402.191	0.34
402.396	0.34
402.601	0.4
402.807	0.43
403.012	0.39
403.217	0.51
403.422	0.44
403.627	0.39
403.832	0.38
404.037	0.46
404.243	0.46
404.448	0.35
404.653	0.38
404.858	0.45
405.063	0.45
405.268	0.37
405.473	0.38
405.678	0.38
405.883	0.65
406.088	0.51
406.293	0.38
406.498	0.48
406.703	0.51
406.907	0.47
407.112	0.41
407.317	0.48
407.522	0.57
407.727	0.48
407.932	0.53
408.136	0.62
408.341	0.48
408.546	0.63
408.751	0.55
408.956	0.57
409.16	0.69
409.365	0.6
409.57	0.62
409.774	0.59
409.979	0.69
410.184	0.69
410.388	0.61
410.593	0.76
410.798	0.7
411.002	0.67
411.207	0.83
411.411	0.86
411.616	0.74
411.82	0.79
412.025	0.84
412.229	0.82
412.434	0.94
412.638	0.86
412.843	0.86
413.047	0.93
413.252	0.89
413.456	1
413.66	1.04
413.865	0.99
414.069	1.14
414.273	1.07
414.478	1.06
414.682	1.12
414.886	1.2
415.091	1.12
415.295	1.19
415.499	1.39
415.703	1.27
415.908	1.44
416.112	1.34
416.316	1.49
416.52	1.52
416.724	1.45
416.929	1.54
417.133	1.79
417.337	1.65
417.541	1.74
417.745	1.76
417.949	1.87
418.153	1.97
418.357	1.9
418.561	2.12
418.765	2.12
418.969	2.3
419.173	2.27
419.377	2.3
419.581	2.53
419.785	2.5
419.989	2.56
420.193	2.72
420.397	2.78
420.601	2.93
420.804	3.03
421.008	2.94
421.212	3.12
421.416	3.16
421.62	3.12
421.823	3.22
422.027	3.4
422.231	3.31
422.435	3.38
422.638	3.4
422.842	3.57
423.046	3.57
423.249	3.72
423.453	3.76
423.657	3.94
423.86	3.99
424.064	4.19
424.268	4.3
424.471	4.25
424.675	4.56
424.878	4.51
425.082	4.75
425.285	4.97
425.489	4.88
425.692	5.1
425.896	4.99
426.099	5.25
426.303	5.31
426.506	5.57
426.71	5.75
426.913	5.93
427.116	6.15
427.32	6.04
427.523	6.21
427.726	6.46
427.93	6.6
428.133	6.9
428.336	6.98
428.54	7.14
428.743	7.4
428.946	7.59
429.149	7.58
429.353	7.64
429.556	7.78
429.759	7.78
429.962	7.84
430.165	8.07
430.368	7.73
430.571	7.81
430.775	7.88
430.978	7.88
431.181	7.93
431.384	7.93
431.587	8.1
431.79	8.49
431.993	8.41
432.196	8.75
432.399	9.07
432.602	9.3
432.805	9.29
433.008	9.86
433.211	9.7
433.414	10.08
433.616	10.21
433.819	9.97
434.022	10.19
434.225	10.28
434.428	10.35
434.631	10.82
434.833	10.61
435.036	10.86
435.239	11.03
435.442	11.06
435.645	11.26
435.847	11.35
436.05	11.74
436.253	11.82
436.455	11.83
436.658	11.9
436.861	12.12
437.063	12.22
437.266	12.09
437.468	12.45
437.671	12.88
437.874	12.79
438.076	12.57
438.279	13.14
438.481	13.14
438.684	13.99
438.886	13.54
439.089	13.83
439.291	13.93
439.494	14.15
439.696	14.41
439.899	14.91
440.101	15.2
440.303	15.54
440.506	16.06
440.708	15.91
440.91	16.17
441.113	16.32
441.315	16.64
441.517	16.43
441.72	16.93
441.922	16.44
442.124	16.52
442.326	16.85
442.529	17.08
442.731	17.1
442.933	17.32
443.135	17.13
443.337	17.22
443.539	17.62
443.742	17.39
443.944	18.1
444.146	17.67
444.348	17.68
444.55	17.59
444.752	17.83
444.954	17.75
445.156	17.78
445.358	18.24
445.56	18.45
445.762	18.28
445.964	18.6
446.166	18.32
446.368	18.39
446.57	18.23
446.772	17.95
446.974	17.81
447.175	18.14
447.377	17.73
447.579	18.18
447.781	17.96
447.983	17.72
448.184	17.32
448.386	17.73
448.588	17.1
448.79	17.14
448.991	17.58
449.193	17.3
449.395	16.9
449.597	16.53
449.798	16.46
450	15.92
450.202	15.82
450.403	15.97
450.605	15.78
450.806	15.54
451.008	15.26
451.21	15.08
451.411	14.68
451.613	13.88
451.814	14.15
452.016	14.19
452.217	13.49
452.419	13.49
452.62	13.11
452.821	12.93
453.023	12.67
453.224	12.42
453.426	12.03
453.627	11.31
453.828	11.32
454.03	11.56
454.231	11.47
454.432	11.34
454.634	10.99
454.835	10.79
455.036	10.68
455.238	10.22
455.439	10.06
455.64	9.76
455.841	9.58
456.042	9.75
456.244	9.39
456.445	9.01
456.646	8.76
456.847	8.68
457.048	8.66
457.249	8.68
457.45	8.5
457.651	7.86
457.852	7.78
458.054	7.48
458.255	7.38
458.456	7.48
458.657	7.33
458.858	6.84
459.058	6.79
459.259	6.91
459.46	6.6
459.661	6.6
459.862	6.67
460.063	6.46
460.264	6.43
460.465	6.06
460.666	6.24
460.866	5.86
461.067	5.65
461.268	5.71
461.469	5.66
461.67	5.55
461.87	5.29
462.071	5.34
462.272	5.22
462.473	5.21
462.673	5.4
462.874	5.2
463.075	5.27
463.275	5.19
463.476	5.27
463.676	5.22
463.877	5.02
464.078	5.08
464.278	5.13
464.479	4.97
464.679	4.86
464.88	4.75
465.08	4.8
465.281	4.57
465.481	4.53
465.682	4.19
465.882	4.27
466.083	4.27
466.283	4.21
466.483	4.09
466.684	3.79
466.884	3.69
467.085	3.81
467.285	3.87
467.485	3.71
467.686	3.63
467.886	3.48
468.086	3.47
468.286	3.47
468.487	3.6
468.687	3.32
468.887	3.35
469.087	3.49
469.287	3.37
469.488	3.16
469.688	3.24
469.888	3.27
470.088	3.22
470.288	3.17
470.488	3.1
470.688	2.97
470.888	2.98
471.088	2.78
471.288	2.88
471.488	2.85
471.688	2.82
471.888	2.75
472.088	2.9
472.288	2.79
472.488	2.66
472.688	2.64
472.888	2.7
473.088	2.64
473.288	2.52
473.488	2.53
473.688	2.65
473.887	2.56
474.087	2.48
474.287	2.53
474.487	2.43
474.687	2.47
474.886	2.46
475.086	2.35
475.286	2.41
475.486	2.36
475.685	2.28
475.885	2.29
476.085	2.37
476.284	2.28
476.484	2.31
476.684	2.26
476.883	2.34
477.083	2.24
477.282	2.17
477.482	2.18
477.681	2.21
477.881	2.14
478.08	2.15
478.28	2.09
478.479	2.18
478.679	2.23
478.878	2.03
479.078	2.01
479.277	2.13
479.477	2.09
479.676	2.05
479.875	2.07
480.075	2.02
480.274	2.06
480.473	2.08
480.673	2.02
480.872	2.11
481.071	2.1
481.271	2.11
481.47	2.02
481.669	2.05
481.868	1.98
482.067	2.01
482.267	1.93
482.466	1.99
482.665	1.96
482.864	1.95
483.063	1.98
483.262	2.04
483.461	2.05
483.661	2.09
483.86	2.01
484.059	2.08
484.258	2.06
484.457	2.03
484.656	2.03
484.855	2.14
485.054	1.94
485.253	2.02
485.452	2
485.651	2.09
485.849	2.04
486.048	2.03
486.247	2.06
486.446	2.12
486.645	2.07
486.844	2.08
487.043	2.06
487.241	2.07
487.44	2.13
487.639	2.16
487.838	2.12
488.037	2.16
488.235	2.21
488.434	2.18
488.633	2.07
488.831	2.28
489.03	2.26
489.229	2.25
489.427	2.24
489.626	2.31
489.825	2.29
490.023	2.34
490.222	2.3
490.42	2.35
490.619	2.37
490.817	2.37
491.016	2.34
491.214	2.39
491.413	2.46
491.611	2.37
491.81	2.45
492.008	2.48
492.207	2.54
492.405	2.55
492.604	2.44
492.802	2.58
493	2.62
493.199	2.62
493.397	2.63
493.595	2.67
493.794	2.67
493.992	2.8
494.19	2.75
494.388	2.83
494.587	2.75
494.785	2.78
494.983	2.78
495.181	2.85
495.379	2.9
495.578	2.96
495.776	2.95
495.974	2.89
496.172	2.95
496.37	3.08
496.568	3.13
496.766	3.08
496.964	3.17
497.162	3.16
497.36	3.21
497.558	3.23
497.756	3.33
497.954	3.26
498.152	3.36
498.35	3.42
498.548	3.41
498.746	3.41
498.944	3.33
499.142	3.48
499.34	3.55
499.538	3.63
499.736	3.5
499.933	3.58
500.131	3.67
500.329	3.78
500.527	3.77
500.725	3.83
500.922	3.8
501.12	3.83
501.318	3.95
501.516	3.94
501.713	4.03
501.911	3.94
502.109	3.96
502.306	4.09
502.504	3.95
