Data from Apollo_Calib_20240827__AbsoluteIrradiance__895__14-04-01-125.txt Node

Date: Wed Aug 28 14:04:01 BST 2024
User: biology
Spectrometer: FLMT08252
Trigger mode: 0
Integration Time (sec): 5.000000E-1
Scans to average: 5
Electric dark correction enabled: true
Nonlinearity correction enabled: false
Boxcar width: 0
XAxis mode: Wavelengths
Number of Pixels in Spectrum: 3648
>>>>>Begin Spectral Data<<<<<
179.588	-0
179.809	-0
180.03	-0
180.251	-0
180.473	-0
180.694	0
180.915	0
181.136	-0
181.357	0
181.578	-0
181.799	-0
182.02	-0
182.241	0
182.462	-0
182.683	0
182.904	-0
183.125	-0
183.346	0
183.567	0
183.788	0
184.009	0
184.23	0
184.451	0
184.672	0
184.892	0
185.113	0
185.334	0
185.555	0
185.776	0
185.996	0
186.217	0
186.438	0
186.659	0
186.879	0
187.1	0
187.321	0
187.541	0
187.762	0
187.983	0
188.203	0
188.424	0
188.644	0
188.865	0
189.086	0
189.306	0
189.527	0
189.747	0
189.968	0
190.188	0
190.409	0
190.629	0
190.849	0
191.07	0
191.29	0
191.511	0
191.731	0
191.951	0
192.172	0
192.392	0
192.612	0
192.833	0
193.053	0
193.273	0
193.493	0
193.714	0
193.934	0
194.154	0
194.374	0
194.594	0
194.815	0
195.035	0
195.255	0
195.475	0
195.695	0
195.915	0
196.135	0
196.355	0
196.575	0
196.795	0
197.015	0
197.235	0
197.455	0
197.675	0
197.895	0
198.115	0
198.335	0
198.555	0
198.775	0
198.995	0
199.214	0
199.434	0
199.654	0
199.874	0
200.094	4.46
200.313	2.23
200.533	1.46
200.753	1.31
200.973	3.59
201.192	3.27
201.412	1.06
201.632	1.7
201.851	3.62
202.071	1.8
202.291	1.26
202.51	1.47
202.73	2.71
202.95	1.64
203.169	1.09
203.389	1.65
203.608	2.4
203.828	1.66
204.047	1.53
204.267	2.12
204.486	2.01
204.706	2.03
204.925	1.47
205.145	1.08
205.364	2.54
205.583	2.65
205.803	1.36
206.022	0.95
206.242	1.66
206.461	1.79
206.68	0.97
206.9	1.32
207.119	2.63
207.338	2.31
207.557	1.1
207.777	1.14
207.996	1.59
208.215	2.36
208.434	1.13
208.654	0.9
208.873	1.52
209.092	2.55
209.311	1.25
209.53	1.28
209.749	1.27
209.968	1.02
210.187	0.69
210.407	0.57
210.626	1.3
210.845	1.65
211.064	1.03
211.283	0.65
211.502	1.52
211.721	1.06
211.94	0.78
212.159	1.22
212.377	1.3
212.596	1.71
212.815	1.08
213.034	1
213.253	1.48
213.472	1.47
213.691	0.83
213.91	0.69
214.128	0.63
214.347	1.48
214.566	0.47
214.785	0.43
215.003	1.44
215.222	0.95
215.441	0.76
215.66	0.37
215.878	1
216.097	1.17
216.316	0.65
216.534	0.68
216.753	1.03
216.972	0.87
217.19	0.85
217.409	0.69
217.627	0.83
217.846	0.79
218.064	0.82
218.283	0.62
218.501	1.39
218.72	1.19
218.938	0.33
219.157	0.78
219.375	1.11
219.594	1.14
219.812	0.49
220.031	0.42
220.249	1.35
220.467	1.07
220.686	0.71
220.904	0.43
221.122	0.68
221.341	1.18
221.559	0.9
221.777	0.65
221.995	0.82
222.214	0.84
222.432	0.66
222.65	0.89
222.868	0.85
223.086	0.85
223.305	0.83
223.523	0.67
223.741	1.22
223.959	0.81
224.177	0.27
224.395	0.6
224.613	0.91
224.831	0.96
225.049	0.39
225.267	0.47
225.485	0.79
225.703	0.37
225.921	0.4
226.139	0.5
226.357	0.82
226.575	0.84
226.793	0.46
227.011	1.6
227.229	0.69
227.447	0.91
227.665	0.48
227.883	0.35
228.1	0.66
228.318	0.67
228.536	0.25
228.754	0.49
228.972	0.78
229.189	0.74
229.407	0.46
229.625	0.52
229.843	1.03
230.06	0.82
230.278	0.52
230.496	0.6
230.713	0.62
230.931	0.8
231.149	0.38
231.366	0.24
231.584	0.54
231.801	1.13
232.019	0.52
232.236	0.34
232.454	0.38
232.671	0.66
232.889	0.44
233.106	0.45
233.324	0.45
233.541	0.52
233.759	0.63
233.976	0.31
234.194	0.47
234.411	0.61
234.628	0.27
234.846	0.39
235.063	0.49
235.28	0.64
235.498	0.46
235.715	0.25
235.932	0.84
236.149	0.59
236.367	0.43
236.584	0.58
236.801	0.37
237.018	0.61
237.236	0.56
237.453	0.24
237.67	0.62
237.887	0.53
238.104	0.44
238.321	0.27
238.538	0.43
238.755	0.74
238.973	0.26
239.19	0.46
239.407	0.65
239.624	0.58
239.841	0.34
240.058	0.33
240.275	0.52
240.492	0.54
240.709	0.45
240.925	0.4
241.142	0.47
241.359	0.39
241.576	0.35
241.793	0.32
242.01	0.37
242.227	0.66
242.444	0.46
242.66	0.6
242.877	0.53
243.094	0.43
243.311	0.39
243.527	0.39
243.744	0.54
243.961	0.53
244.178	0.31
244.394	0.33
244.611	0.65
244.828	0.74
245.044	0.27
245.261	0.39
245.477	0.49
245.694	0.59
245.911	0.4
246.127	0.44
246.344	0.67
246.56	0.56
246.777	0.31
246.993	0.47
247.21	0.46
247.426	0.55
247.643	0.37
247.859	0.34
248.076	0.37
248.292	0.7
248.508	0.34
248.725	0.42
248.941	0.53
249.157	0.56
249.374	0.31
249.59	0.37
249.806	0.42
250.023	0.39
250.239	0.37
250.455	0.35
250.671	0.42
250.888	0.43
251.104	0.49
251.32	0.33
251.536	0.43
251.752	0.35
251.969	0.36
252.185	0.35
252.401	0.63
252.617	0.49
252.833	0.3
253.049	0.37
253.265	0.43
253.481	0.37
253.697	0.38
253.913	0.33
254.129	0.48
254.345	0.43
254.561	0.34
254.777	0.3
254.993	0.52
255.209	0.4
255.425	0.34
255.641	0.3
255.857	0.48
256.073	0.45
256.288	0.25
256.504	0.31
256.72	0.46
256.936	0.56
257.152	0.39
257.367	0.22
257.583	0.39
257.799	0.48
258.015	0.34
258.23	0.4
258.446	0.66
258.662	0.36
258.877	0.3
259.093	0.28
259.309	0.42
259.524	0.45
259.74	0.29
259.955	0.24
260.171	0.44
260.387	0.37
260.602	0.39
260.818	0.4
261.033	0.29
261.249	0.32
261.464	0.32
261.68	0.21
261.895	0.42
262.11	0.42
262.326	0.28
262.541	0.35
262.757	0.47
262.972	0.47
263.187	0.35
263.403	0.41
263.618	0.44
263.833	0.39
264.049	0.24
264.264	0.3
264.479	0.4
264.694	0.53
264.91	0.22
265.125	0.32
265.34	0.47
265.555	0.55
265.77	0.32
265.986	0.34
266.201	0.39
266.416	0.53
266.631	0.29
266.846	0.33
267.061	0.41
267.276	0.44
267.491	0.23
267.706	0.33
267.921	0.4
268.136	0.44
268.351	0.32
268.566	0.29
268.781	0.43
268.996	0.43
269.211	0.31
269.426	0.25
269.641	0.39
269.856	0.49
270.071	0.27
270.285	0.16
270.5	0.38
270.715	0.37
270.93	0.27
271.145	0.38
271.359	0.48
271.574	0.28
271.789	0.29
272.004	0.26
272.218	0.34
272.433	0.43
272.648	0.26
272.862	0.41
273.077	0.34
273.292	0.35
273.506	0.22
273.721	0.27
273.936	0.43
274.15	0.44
274.365	0.31
274.579	0.41
274.794	0.41
275.008	0.39
275.223	0.26
275.437	0.26
275.652	0.38
275.866	0.44
276.081	0.32
276.295	0.37
276.509	0.3
276.724	0.38
276.938	0.33
277.153	0.41
277.367	0.4
277.581	0.25
277.796	0.24
278.01	0.25
278.224	0.39
278.438	0.47
278.653	0.2
278.867	0.24
279.081	0.16
279.295	0.31
279.51	0.34
279.724	0.24
279.938	0.41
280.152	0.38
280.366	0.24
280.58	0.29
280.794	0.45
281.008	0.39
281.222	0.36
281.437	0.55
281.651	0.3
281.865	0.42
282.079	0.27
282.293	0.18
282.507	0.22
282.721	0.31
282.935	0.24
283.148	0.15
283.362	0.25
283.576	0.24
283.79	0.31
284.004	0.24
284.218	0.45
284.432	0.28
284.646	0.32
284.859	0.26
285.073	0.25
285.287	0.33
285.501	0.3
285.714	0.27
285.928	0.35
286.142	0.31
286.356	0.24
286.569	0.31
286.783	0.38
286.997	0.39
287.21	0.33
287.424	0.31
287.637	0.24
287.851	0.27
288.065	0.37
288.278	0.27
288.492	0.29
288.705	0.3
288.919	0.33
289.132	0.19
289.346	0.38
289.559	0.23
289.773	0.19
289.986	0.27
290.2	0.29
290.413	0.38
290.626	0.22
290.84	0.23
291.053	0.32
291.267	0.4
291.48	0.26
291.693	0.25
291.906	0.26
292.12	0.34
292.333	0.22
292.546	0.24
292.76	0.37
292.973	0.3
293.186	0.33
293.399	0.23
293.612	0.31
293.826	0.24
294.039	0.26
294.252	0.27
294.465	0.33
294.678	0.27
294.891	0.25
295.104	0.21
295.317	0.27
295.53	0.32
295.743	0.27
295.956	0.22
296.169	0.37
296.382	0.35
296.595	0.24
296.808	0.23
297.021	0.36
297.234	0.31
297.447	0.27
297.66	0.23
297.873	0.34
298.086	0.36
298.299	0.21
298.511	0.13
298.724	0.28
298.937	0.24
299.15	0.21
299.363	0.28
299.575	0.31
299.788	0.26
300.001	0.22
300.213	0.25
300.426	0.28
300.639	0.28
300.852	0.18
301.064	0.29
301.277	0.33
301.489	0.33
301.702	0.28
301.915	0.18
302.127	0.26
302.34	0.26
302.552	0.29
302.765	0.18
302.977	0.34
303.19	0.19
303.402	0.23
303.615	0.22
303.827	0.23
304.04	0.24
304.252	0.28
304.464	0.23
304.677	0.44
304.889	0.36
305.102	0.21
305.314	0.2
305.526	0.3
305.739	0.32
305.951	0.19
306.163	0.22
306.375	0.34
306.588	0.22
306.8	0.26
307.012	0.19
307.224	0.31
307.436	0.33
307.649	0.16
307.861	0.26
308.073	0.3
308.285	0.21
308.497	0.17
308.709	0.19
308.921	0.29
309.133	0.33
309.346	0.23
309.558	0.24
309.77	0.29
309.982	0.34
310.194	0.27
310.406	0.21
310.617	0.4
310.829	0.27
311.041	0.3
311.253	0.2
311.465	0.25
311.677	0.26
311.889	0.24
312.101	0.18
312.313	0.31
312.524	0.38
312.736	0.21
312.948	0.19
313.16	0.34
313.372	0.31
313.583	0.24
313.795	0.2
314.007	0.26
314.218	0.37
314.43	0.24
314.642	0.19
314.853	0.2
315.065	0.3
315.277	0.26
315.488	0.24
315.7	0.3
315.912	0.28
316.123	0.25
316.335	0.24
316.546	0.36
316.758	0.27
316.969	0.2
317.181	0.27
317.392	0.23
317.604	0.38
317.815	0.21
318.026	0.23
318.238	0.24
318.449	0.28
318.661	0.19
318.872	0.13
319.083	0.2
319.295	0.25
319.506	0.2
319.717	0.28
319.929	0.29
320.14	0.27
320.351	0.23
320.562	0.2
320.774	0.34
320.985	0.24
321.196	0.24
321.407	0.17
321.618	0.26
321.829	0.29
322.041	0.31
322.252	0.25
322.463	0.35
322.674	0.29
322.885	0.17
323.096	0.24
323.307	0.24
323.518	0.26
323.729	0.23
323.94	0.22
324.151	0.22
324.362	0.33
324.573	0.22
324.784	0.24
324.995	0.28
325.206	0.27
325.417	0.23
325.628	0.2
325.838	0.26
326.049	0.3
326.26	0.26
326.471	0.21
326.682	0.27
326.892	0.27
327.103	0.14
327.314	0.24
327.525	0.3
327.735	0.28
327.946	0.27
328.157	0.15
328.368	0.35
328.578	0.27
328.789	0.31
328.999	0.28
329.21	0.22
329.421	0.34
329.631	0.21
329.842	0.19
330.052	0.3
330.263	0.26
330.473	0.33
330.684	0.23
330.894	0.29
331.105	0.29
331.315	0.27
331.526	0.16
331.736	0.36
331.947	0.31
332.157	0.31
332.367	0.15
332.578	0.31
332.788	0.32
332.999	0.3
333.209	0.24
333.419	0.19
333.629	0.33
333.84	0.28
334.05	0.25
334.26	0.35
334.47	0.28
334.681	0.28
334.891	0.22
335.101	0.27
335.311	0.37
335.521	0.27
335.732	0.19
335.942	0.34
336.152	0.29
336.362	0.28
336.572	0.27
336.782	0.3
336.992	0.23
337.202	0.24
337.412	0.19
337.622	0.3
337.832	0.23
338.042	0.24
338.252	0.2
338.462	0.22
338.672	0.26
338.882	0.16
339.092	0.28
339.302	0.32
339.511	0.31
339.721	0.21
339.931	0.17
340.141	0.35
340.351	0.32
340.561	0.21
340.77	0.28
340.98	0.32
341.19	0.25
341.4	0.23
341.609	0.22
341.819	0.27
342.029	0.22
342.238	0.28
342.448	0.24
342.658	0.29
342.867	0.22
343.077	0.21
343.286	0.24
343.496	0.29
343.706	0.35
343.915	0.17
344.125	0.22
344.334	0.27
344.544	0.21
344.753	0.2
344.963	0.2
345.172	0.2
345.381	0.22
345.591	0.16
345.8	0.25
346.01	0.36
346.219	0.32
346.428	0.14
346.638	0.23
346.847	0.28
347.056	0.31
347.266	0.25
347.475	0.26
347.684	0.27
347.893	0.28
348.103	0.29
348.312	0.2
348.521	0.27
348.73	0.26
348.94	0.28
349.149	0.2
349.358	0.22
349.567	0.21
349.776	0.19
349.985	0.24
350.194	0.32
350.403	0.3
350.612	0.16
350.821	0.2
351.03	0.22
351.239	0.19
351.448	0.23
351.657	0.23
351.866	0.39
352.075	0.29
352.284	0.32
352.493	0.17
352.702	0.35
352.911	0.27
353.12	0.23
353.329	0.28
353.538	0.25
353.746	0.26
353.955	0.16
354.164	0.26
354.373	0.22
354.582	0.32
354.79	0.25
354.999	0.26
355.208	0.24
355.416	0.35
355.625	0.18
355.834	0.25
356.042	0.26
356.251	0.24
356.46	0.23
356.668	0.22
356.877	0.36
357.085	0.31
357.294	0.15
357.503	0.3
357.711	0.26
357.92	0.45
358.128	0.27
358.337	0.22
358.545	0.28
358.754	0.21
358.962	0.29
359.17	0.23
359.379	0.26
359.587	0.27
359.796	0.18
360.004	0.31
360.212	0.3
360.421	0.34
360.629	0.26
360.837	0.25
361.046	0.32
361.254	0.41
361.462	0.23
361.67	0.24
361.879	0.32
362.087	0.32
362.295	0.24
362.503	0.23
362.711	0.24
362.92	0.24
363.128	0.2
363.336	0.22
363.544	0.22
363.752	0.26
363.96	0.24
364.168	0.2
364.376	0.26
364.584	0.32
364.792	0.28
365	0.26
365.208	0.24
365.416	0.29
365.624	0.29
365.832	0.23
366.04	0.38
366.248	0.27
366.456	0.29
366.664	0.23
366.872	0.25
367.079	0.25
367.287	0.22
367.495	0.22
367.703	0.24
367.911	0.24
368.118	0.24
368.326	0.24
368.534	0.24
368.742	0.32
368.949	0.21
369.157	0.22
369.365	0.29
369.572	0.23
369.78	0.18
369.988	0.26
370.195	0.31
370.403	0.26
370.61	0.21
370.818	0.25
371.026	0.34
371.233	0.19
371.441	0.25
371.648	0.25
371.856	0.29
372.063	0.28
372.271	0.21
372.478	0.23
372.685	0.24
372.893	0.28
373.1	0.22
373.308	0.21
373.515	0.4
373.722	0.3
373.93	0.23
374.137	0.28
374.344	0.34
374.552	0.32
374.759	0.27
374.966	0.24
375.173	0.24
375.381	0.37
375.588	0.23
375.795	0.17
376.002	0.27
376.209	0.23
376.417	0.25
376.624	0.28
376.831	0.31
377.038	0.25
377.245	0.2
377.452	0.23
377.659	0.28
377.866	0.28
378.073	0.26
378.28	0.28
378.487	0.35
378.694	0.33
378.901	0.3
379.108	0.26
379.315	0.34
379.522	0.39
379.729	0.31
379.936	0.24
380.143	0.27
380.35	0.27
380.557	0.26
380.763	0.26
380.97	0.28
381.177	0.28
381.384	0.3
381.591	0.25
381.797	0.32
382.004	0.32
382.211	0.29
382.418	0.25
382.624	0.3
382.831	0.29
383.038	0.27
383.244	0.26
383.451	0.27
383.658	0.32
383.864	0.27
384.071	0.23
384.277	0.37
384.484	0.26
384.69	0.36
384.897	0.24
385.103	0.23
385.31	0.24
385.516	0.25
385.723	0.22
385.929	0.31
386.136	0.23
386.342	0.3
386.549	0.2
386.755	0.35
386.961	0.34
387.168	0.27
387.374	0.25
387.58	0.33
387.787	0.27
387.993	0.27
388.199	0.23
388.406	0.23
388.612	0.22
388.818	0.24
389.024	0.25
389.231	0.27
389.437	0.4
389.643	0.29
389.849	0.3
390.055	0.27
390.261	0.3
390.467	0.33
390.674	0.24
390.88	0.31
391.086	0.36
391.292	0.24
391.498	0.33
391.704	0.33
391.91	0.33
392.116	0.27
392.322	0.23
392.528	0.33
392.734	0.32
392.94	0.29
393.146	0.26
393.352	0.3
393.557	0.31
393.763	0.31
393.969	0.33
394.175	0.3
394.381	0.33
394.587	0.26
394.792	0.32
394.998	0.38
395.204	0.38
395.41	0.28
395.615	0.35
395.821	0.34
396.027	0.34
396.233	0.32
396.438	0.34
396.644	0.39
396.85	0.31
397.055	0.32
397.261	0.3
397.466	0.43
397.672	0.37
397.878	0.41
398.083	0.37
398.289	0.29
398.494	0.41
398.7	0.35
398.905	0.21
399.111	0.43
399.316	0.28
399.522	0.36
399.727	0.32
399.932	0.29
400.138	0.31
400.343	0.38
400.549	0.32
400.754	0.35
400.959	0.38
401.165	0.38
401.37	0.39
401.575	0.5
401.78	0.4
401.986	0.36
402.191	0.36
402.396	0.37
402.601	0.45
402.807	0.45
403.012	0.36
403.217	0.44
403.422	0.41
403.627	0.43
403.832	0.4
404.037	0.47
404.243	0.44
404.448	0.42
404.653	0.42
404.858	0.47
405.063	0.45
405.268	0.38
405.473	0.35
405.678	0.44
405.883	0.68
406.088	0.53
406.293	0.42
406.498	0.45
406.703	0.51
406.907	0.44
407.112	0.45
407.317	0.5
407.522	0.56
407.727	0.48
407.932	0.54
408.136	0.69
408.341	0.61
408.546	0.59
408.751	0.57
408.956	0.59
409.16	0.68
409.365	0.62
409.57	0.6
409.774	0.66
409.979	0.76
410.184	0.71
410.388	0.56
410.593	0.76
410.798	0.77
411.002	0.78
411.207	0.79
411.411	0.84
411.616	0.75
411.82	0.82
412.025	0.88
412.229	0.85
412.434	0.94
412.638	0.93
412.843	0.9
413.047	1.03
413.252	0.93
413.456	1.03
413.66	1.06
413.865	1.06
414.069	1.18
414.273	1.09
414.478	1.1
414.682	1.18
414.886	1.25
415.091	1.19
415.295	1.21
415.499	1.44
415.703	1.37
415.908	1.45
416.112	1.37
416.316	1.61
416.52	1.53
416.724	1.59
416.929	1.63
417.133	1.86
417.337	1.75
417.541	1.8
417.745	1.86
417.949	1.99
418.153	2.06
418.357	2.03
418.561	2.32
418.765	2.25
418.969	2.42
419.173	2.44
419.377	2.42
419.581	2.69
419.785	2.71
419.989	2.67
420.193	2.86
420.397	2.98
420.601	3
420.804	3.21
421.008	3.15
421.212	3.36
421.416	3.31
421.62	3.3
421.823	3.36
422.027	3.55
422.231	3.52
422.435	3.47
422.638	3.64
422.842	3.74
423.046	3.75
423.249	4.04
423.453	4.03
423.657	4.19
423.86	4.27
424.064	4.39
424.268	4.55
424.471	4.52
424.675	4.73
424.878	4.86
425.082	4.88
425.285	5.22
425.489	5.14
425.692	5.29
425.896	5.28
426.099	5.53
426.303	5.71
426.506	5.72
426.71	6.09
426.913	6.31
427.116	6.41
427.32	6.34
427.523	6.48
427.726	6.73
427.93	6.84
428.133	7.2
428.336	7.3
428.54	7.44
428.743	7.7
428.946	7.96
429.149	7.98
429.353	7.93
429.556	8.07
429.759	8.15
429.962	8.24
430.165	8.46
430.368	8.04
430.571	8.1
430.775	8.2
430.978	8.04
431.181	8.27
431.384	8.22
431.587	8.42
431.79	8.84
431.993	8.67
432.196	8.95
432.399	9.36
432.602	9.53
432.805	9.65
433.008	10.16
433.211	9.92
433.414	10.33
433.616	10.41
433.819	10.3
434.022	10.54
434.225	10.69
434.428	10.69
434.631	11.1
434.833	10.91
435.036	11.12
435.239	11.44
435.442	11.38
435.645	11.57
435.847	11.7
436.05	11.88
436.253	12.25
436.455	12.24
436.658	12.08
436.861	12.39
437.063	12.51
437.266	12.5
437.468	12.77
437.671	13.15
437.874	13.14
438.076	12.98
438.279	13.5
438.481	13.6
438.684	14.44
438.886	13.88
439.089	14.27
439.291	14.31
439.494	14.53
439.696	14.71
439.899	15.35
440.101	15.77
440.303	15.88
440.506	16.62
440.708	16.3
440.91	16.56
441.113	16.7
441.315	17.09
441.517	16.75
441.72	17.37
441.922	17.01
442.124	16.79
442.326	17.29
442.529	17.49
442.731	17.42
442.933	17.77
443.135	17.47
443.337	17.49
443.539	18.06
443.742	17.71
443.944	18.36
444.146	18.28
444.348	18.06
444.55	18.09
444.752	18.18
444.954	18.16
445.156	18.12
445.358	18.42
445.56	18.7
445.762	18.55
445.964	18.73
446.166	18.47
446.368	18.67
446.57	18.59
446.772	18.17
446.974	18.02
447.175	18.29
447.377	17.99
447.579	18.34
447.781	17.93
447.983	17.7
448.184	17.42
448.386	17.75
448.588	17.18
448.79	17.13
448.991	17.48
449.193	17.44
449.395	16.73
449.597	16.61
449.798	16.51
450	15.97
450.202	15.78
450.403	15.87
450.605	15.67
450.806	15.16
451.008	15.14
451.21	14.97
451.411	14.53
451.613	13.84
451.814	13.99
452.016	14.02
452.217	13.19
452.419	13.22
452.62	13.03
452.821	12.58
453.023	12.59
453.224	12.18
453.426	11.75
453.627	11.06
453.828	11.17
454.03	11.3
454.231	11.13
454.432	10.99
454.634	10.8
454.835	10.46
455.036	10.4
455.238	10.05
455.439	9.81
455.64	9.5
455.841	9.42
456.042	9.52
456.244	9.09
456.445	8.82
456.646	8.54
456.847	8.53
457.048	8.42
457.249	8.36
457.45	8.2
457.651	7.7
457.852	7.56
458.054	7.18
458.255	7.15
458.456	7.24
458.657	7.12
458.858	6.76
459.058	6.65
459.259	6.74
459.46	6.41
459.661	6.28
459.862	6.46
460.063	6.35
460.264	6.16
460.465	5.93
460.666	6.09
460.866	5.76
461.067	5.46
461.268	5.46
461.469	5.44
461.67	5.36
461.87	5.25
462.071	5.28
462.272	5.08
462.473	4.98
462.673	5.32
462.874	5.11
463.075	5.06
463.275	5.06
463.476	5.22
463.676	5.11
463.877	4.96
464.078	4.91
464.278	4.95
464.479	4.79
464.679	4.73
464.88	4.63
465.08	4.73
465.281	4.46
465.481	4.26
465.682	4.09
465.882	4.15
466.083	4.08
466.283	4.06
466.483	3.87
466.684	3.72
466.884	3.57
467.085	3.59
467.285	3.74
467.485	3.62
467.686	3.5
467.886	3.38
468.086	3.36
468.286	3.41
468.487	3.44
468.687	3.23
468.887	3.22
469.087	3.29
469.287	3.18
469.488	3.1
469.688	3.15
469.888	3.16
470.088	3.1
470.288	3.03
470.488	3.04
470.688	2.87
470.888	2.84
471.088	2.67
471.288	2.77
471.488	2.76
471.688	2.77
471.888	2.64
472.088	2.78
472.288	2.7
472.488	2.58
472.688	2.57
472.888	2.6
473.088	2.59
473.288	2.45
473.488	2.45
473.688	2.58
473.887	2.5
474.087	2.39
474.287	2.41
474.487	2.36
474.687	2.42
474.886	2.31
475.086	2.29
475.286	2.26
475.486	2.23
475.685	2.21
475.885	2.19
476.085	2.3
476.284	2.27
476.484	2.27
476.684	2.22
476.883	2.28
477.083	2.15
477.282	2.15
477.482	2.14
477.681	2.17
477.881	2.06
478.08	2.1
478.28	2.04
478.479	2.08
478.679	2.2
478.878	2
479.078	2.03
479.277	2.09
479.477	1.99
479.676	2.03
479.875	2.03
480.075	1.96
480.274	2.06
480.473	2.06
480.673	2
480.872	2.07
481.071	2.06
481.271	2.07
481.47	1.99
481.669	1.97
481.868	1.92
482.067	1.98
482.267	1.91
482.466	1.97
482.665	1.93
482.864	1.9
483.063	1.95
483.262	2.01
483.461	2.03
483.661	2.06
483.86	1.95
484.059	2.06
484.258	2.06
484.457	2.01
484.656	2.05
484.855	2.08
485.054	1.91
485.253	1.95
485.452	1.96
485.651	2.08
485.849	2
486.048	2.01
486.247	2.04
486.446	2.07
486.645	2.01
486.844	2.08
487.043	2.01
487.241	2.06
487.44	2.08
487.639	2.09
487.838	2.1
488.037	2.13
488.235	2.24
488.434	2.18
488.633	2.02
488.831	2.27
489.03	2.21
489.229	2.24
489.427	2.2
489.626	2.23
489.825	2.3
490.023	2.31
490.222	2.26
490.42	2.32
490.619	2.35
490.817	2.37
491.016	2.36
491.214	2.42
491.413	2.37
491.611	2.36
491.81	2.41
492.008	2.43
492.207	2.55
492.405	2.54
492.604	2.42
492.802	2.54
493	2.6
493.199	2.58
493.397	2.63
493.595	2.73
493.794	2.69
493.992	2.79
494.19	2.7
494.388	2.8
494.587	2.74
494.785	2.8
494.983	2.72
495.181	2.88
495.379	2.85
495.578	2.94
495.776	2.98
495.974	2.94
496.172	2.91
496.37	3.1
496.568	3.09
496.766	3.1
496.964	3.18
497.162	3.2
497.36	3.22
497.558	3.22
497.756	3.29
497.954	3.3
498.152	3.34
498.35	3.43
498.548	3.39
498.746	3.39
498.944	3.41
499.142	3.45
499.34	3.54
499.538	3.64
499.736	3.52
499.933	3.65
500.131	3.63
500.329	3.79
500.527	3.74
500.725	3.88
500.922	3.91
501.12	3.87
501.318	3.98
501.516	3.93
501.713	3.98
501.911	4.02
502.109	3.95
502.306	4.12
502.504	3.98
