Data from Apollo_Calib_20240827__AbsoluteIrradiance__37__23-46-00-988.txt Node

Date: Tue Aug 27 23:46:00 BST 2024
User: biology
Spectrometer: FLMT08252
Trigger mode: 0
Integration Time (sec): 5.000000E-1
Scans to average: 5
Electric dark correction enabled: true
Nonlinearity correction enabled: false
Boxcar width: 0
XAxis mode: Wavelengths
Number of Pixels in Spectrum: 3648
>>>>>Begin Spectral Data<<<<<
179.588	-0
179.809	-0
180.03	-0
180.251	-0
180.473	-0
180.694	0
180.915	0
181.136	-0
181.357	0
181.578	-0
181.799	-0
182.02	-0
182.241	0
182.462	0
182.683	0
182.904	-0
183.125	-0
183.346	0
183.567	0
183.788	0
184.009	0
184.23	0
184.451	0
184.672	0
184.892	0
185.113	0
185.334	0
185.555	0
185.776	0
185.996	0
186.217	0
186.438	0
186.659	0
186.879	0
187.1	0
187.321	0
187.541	0
187.762	0
187.983	0
188.203	0
188.424	0
188.644	0
188.865	0
189.086	0
189.306	0
189.527	0
189.747	0
189.968	0
190.188	0
190.409	0
190.629	0
190.849	0
191.07	0
191.29	0
191.511	0
191.731	0
191.951	0
192.172	0
192.392	0
192.612	0
192.833	0
193.053	0
193.273	0
193.493	0
193.714	0
193.934	0
194.154	0
194.374	0
194.594	0
194.815	0
195.035	0
195.255	0
195.475	0
195.695	0
195.915	0
196.135	0
196.355	0
196.575	0
196.795	0
197.015	0
197.235	0
197.455	0
197.675	0
197.895	0
198.115	0
198.335	0
198.555	0
198.775	0
198.995	0
199.214	0
199.434	0
199.654	0
199.874	0
200.094	4.17
200.313	2.48
200.533	1.95
200.753	1.81
200.973	3.91
201.192	3.58
201.412	1.3
201.632	2.17
201.851	3.44
202.071	2.27
202.291	2.47
202.51	1.69
202.73	2.84
202.95	1.54
203.169	1.56
203.389	1.97
203.608	1.97
203.828	1.86
204.047	1.87
204.267	2.21
204.486	2.25
204.706	2.18
204.925	1.75
205.145	1.51
205.364	2.73
205.583	3.07
205.803	1.59
206.022	1.42
206.242	1.85
206.461	2.01
206.68	1.43
206.9	1.58
207.119	2.06
207.338	2.32
207.557	1.28
207.777	1.49
207.996	1.27
208.215	2.17
208.434	1.43
208.654	0.99
208.873	1.53
209.092	2.24
209.311	1.27
209.53	1.19
209.749	1.2
209.968	1.29
210.187	1.44
210.407	0.94
210.626	1.26
210.845	1.39
211.064	1.13
211.283	0.86
211.502	1.56
211.721	1.26
211.94	1.1
212.159	1.39
212.377	1.48
212.596	1.7
212.815	1.22
213.034	1.27
213.253	1.38
213.472	1.51
213.691	1.09
213.91	0.92
214.128	1.15
214.347	1.55
214.566	0.59
214.785	0.92
215.003	1.22
215.222	1.05
215.441	1.06
215.66	0.63
215.878	1.06
216.097	1.15
216.316	0.73
216.534	0.93
216.753	1.14
216.972	1.1
217.19	0.92
217.409	0.79
217.627	0.86
217.846	0.82
218.064	0.89
218.283	0.75
218.501	1.47
218.72	1.14
218.938	0.78
219.157	0.82
219.375	1.24
219.594	0.97
219.812	0.6
220.031	0.64
220.249	1.2
220.467	1.27
220.686	0.82
220.904	0.68
221.122	0.74
221.341	1.06
221.559	0.73
221.777	0.62
221.995	0.62
222.214	0.81
222.432	0.68
222.65	0.78
222.868	0.98
223.086	0.92
223.305	0.92
223.523	0.76
223.741	0.91
223.959	0.45
224.177	0.37
224.395	0.62
224.613	0.81
224.831	0.98
225.049	0.61
225.267	0.62
225.485	0.83
225.703	0.71
225.921	0.62
226.139	0.61
226.357	0.89
226.575	0.77
226.793	0.61
227.011	1.33
227.229	0.67
227.447	0.86
227.665	0.51
227.883	0.43
228.1	0.76
228.318	0.73
228.536	0.4
228.754	0.47
228.972	0.66
229.189	0.72
229.407	0.53
229.625	0.58
229.843	0.85
230.06	0.78
230.278	0.55
230.496	0.61
230.713	0.7
230.931	0.7
231.149	0.6
231.366	0.41
231.584	0.55
231.801	0.98
232.019	0.59
232.236	0.45
232.454	0.49
232.671	0.66
232.889	0.53
233.106	0.43
233.324	0.62
233.541	0.58
233.759	0.53
233.976	0.42
234.194	0.62
234.411	0.59
234.628	0.45
234.846	0.58
235.063	0.6
235.28	0.58
235.498	0.55
235.715	0.44
235.932	0.77
236.149	0.61
236.367	0.51
236.584	0.55
236.801	0.5
237.018	0.74
237.236	0.56
237.453	0.42
237.67	0.73
237.887	0.55
238.104	0.43
238.321	0.42
238.538	0.46
238.755	0.64
238.973	0.32
239.19	0.57
239.407	0.57
239.624	0.51
239.841	0.39
240.058	0.44
240.275	0.61
240.492	0.55
240.709	0.48
240.925	0.57
241.142	0.54
241.359	0.31
241.576	0.4
241.793	0.44
242.01	0.5
242.227	0.56
242.444	0.59
242.66	0.68
242.877	0.48
243.094	0.46
243.311	0.48
243.527	0.5
243.744	0.47
243.961	0.58
244.178	0.47
244.394	0.56
244.611	0.65
244.828	0.68
245.044	0.33
245.261	0.47
245.477	0.48
245.694	0.6
245.911	0.42
246.127	0.5
246.344	0.58
246.56	0.61
246.777	0.42
246.993	0.57
247.21	0.45
247.426	0.4
247.643	0.4
247.859	0.38
248.076	0.36
248.292	0.68
248.508	0.39
248.725	0.47
248.941	0.45
249.157	0.61
249.374	0.34
249.59	0.43
249.806	0.49
250.023	0.48
250.239	0.36
250.455	0.38
250.671	0.49
250.888	0.51
251.104	0.46
251.32	0.35
251.536	0.44
251.752	0.46
251.969	0.49
252.185	0.48
252.401	0.6
252.617	0.47
252.833	0.33
253.049	0.47
253.265	0.36
253.481	0.39
253.697	0.4
253.913	0.3
254.129	0.54
254.345	0.41
254.561	0.37
254.777	0.42
254.993	0.45
255.209	0.44
255.425	0.35
255.641	0.34
255.857	0.46
256.073	0.5
256.288	0.29
256.504	0.41
256.72	0.42
256.936	0.57
257.152	0.4
257.367	0.33
257.583	0.43
257.799	0.42
258.015	0.38
258.23	0.32
258.446	0.56
258.662	0.32
258.877	0.3
259.093	0.27
259.309	0.39
259.524	0.39
259.74	0.38
259.955	0.28
260.171	0.42
260.387	0.42
260.602	0.45
260.818	0.41
261.033	0.31
261.249	0.27
261.464	0.38
261.68	0.19
261.895	0.39
262.11	0.5
262.326	0.39
262.541	0.23
262.757	0.44
262.972	0.49
263.187	0.43
263.403	0.45
263.618	0.43
263.833	0.35
264.049	0.35
264.264	0.33
264.479	0.51
264.694	0.49
264.91	0.31
265.125	0.34
265.34	0.48
265.555	0.63
265.77	0.39
265.986	0.34
266.201	0.39
266.416	0.52
266.631	0.31
266.846	0.36
267.061	0.52
267.276	0.45
267.491	0.21
267.706	0.4
267.921	0.41
268.136	0.41
268.351	0.41
268.566	0.29
268.781	0.46
268.996	0.41
269.211	0.41
269.426	0.28
269.641	0.29
269.856	0.44
270.071	0.29
270.285	0.26
270.5	0.45
270.715	0.45
270.93	0.35
271.145	0.37
271.359	0.43
271.574	0.36
271.789	0.32
272.004	0.37
272.218	0.3
272.433	0.37
272.648	0.3
272.862	0.38
273.077	0.32
273.292	0.35
273.506	0.31
273.721	0.38
273.936	0.45
274.15	0.44
274.365	0.3
274.579	0.37
274.794	0.44
275.008	0.41
275.223	0.26
275.437	0.29
275.652	0.5
275.866	0.36
276.081	0.27
276.295	0.4
276.509	0.34
276.724	0.35
276.938	0.35
277.153	0.33
277.367	0.41
277.581	0.27
277.796	0.31
278.01	0.24
278.224	0.32
278.438	0.49
278.653	0.25
278.867	0.31
279.081	0.14
279.295	0.29
279.51	0.38
279.724	0.21
279.938	0.41
280.152	0.38
280.366	0.3
280.58	0.33
280.794	0.41
281.008	0.32
281.222	0.33
281.437	0.48
281.651	0.34
281.865	0.39
282.079	0.23
282.293	0.19
282.507	0.27
282.721	0.33
282.935	0.36
283.148	0.24
283.362	0.25
283.576	0.3
283.79	0.25
284.004	0.26
284.218	0.42
284.432	0.25
284.646	0.32
284.859	0.27
285.073	0.28
285.287	0.4
285.501	0.3
285.714	0.28
285.928	0.31
286.142	0.29
286.356	0.32
286.569	0.3
286.783	0.38
286.997	0.34
287.21	0.34
287.424	0.28
287.637	0.25
287.851	0.23
288.065	0.37
288.278	0.29
288.492	0.33
288.705	0.28
288.919	0.39
289.132	0.21
289.346	0.36
289.559	0.24
289.773	0.25
289.986	0.32
290.2	0.27
290.413	0.37
290.626	0.27
290.84	0.3
291.053	0.34
291.267	0.38
291.48	0.3
291.693	0.28
291.906	0.26
292.12	0.27
292.333	0.26
292.546	0.29
292.76	0.38
292.973	0.27
293.186	0.34
293.399	0.26
293.612	0.33
293.826	0.25
294.039	0.25
294.252	0.24
294.465	0.36
294.678	0.3
294.891	0.29
295.104	0.21
295.317	0.28
295.53	0.29
295.743	0.22
295.956	0.25
296.169	0.36
296.382	0.3
296.595	0.35
296.808	0.26
297.021	0.36
297.234	0.35
297.447	0.29
297.66	0.28
297.873	0.28
298.086	0.34
298.299	0.24
298.511	0.23
298.724	0.26
298.937	0.22
299.15	0.22
299.363	0.25
299.575	0.31
299.788	0.3
300.001	0.27
300.213	0.27
300.426	0.26
300.639	0.25
300.852	0.21
301.064	0.29
301.277	0.35
301.489	0.34
301.702	0.3
301.915	0.3
302.127	0.29
302.34	0.28
302.552	0.32
302.765	0.21
302.977	0.33
303.19	0.26
303.402	0.28
303.615	0.24
303.827	0.26
304.04	0.24
304.252	0.35
304.464	0.28
304.677	0.34
304.889	0.32
305.102	0.23
305.314	0.26
305.526	0.31
305.739	0.33
305.951	0.22
306.163	0.23
306.375	0.34
306.588	0.24
306.8	0.24
307.012	0.19
307.224	0.33
307.436	0.32
307.649	0.17
307.861	0.27
308.073	0.32
308.285	0.24
308.497	0.25
308.709	0.3
308.921	0.31
309.133	0.35
309.346	0.26
309.558	0.25
309.77	0.33
309.982	0.37
310.194	0.33
310.406	0.21
310.617	0.36
310.829	0.26
311.041	0.25
311.253	0.25
311.465	0.25
311.677	0.25
311.889	0.31
312.101	0.21
312.313	0.31
312.524	0.34
312.736	0.21
312.948	0.23
313.16	0.33
313.372	0.25
313.583	0.28
313.795	0.24
314.007	0.21
314.218	0.29
314.43	0.2
314.642	0.24
314.853	0.22
315.065	0.31
315.277	0.25
315.488	0.28
315.7	0.32
315.912	0.3
316.123	0.26
316.335	0.29
316.546	0.39
316.758	0.23
316.969	0.21
317.181	0.26
317.392	0.24
317.604	0.31
317.815	0.23
318.026	0.21
318.238	0.21
318.449	0.29
318.661	0.17
318.872	0.23
319.083	0.2
319.295	0.33
319.506	0.25
319.717	0.29
319.929	0.32
320.14	0.21
320.351	0.29
320.562	0.21
320.774	0.28
320.985	0.24
321.196	0.24
321.407	0.19
321.618	0.3
321.829	0.28
322.041	0.31
322.252	0.27
322.463	0.32
322.674	0.27
322.885	0.24
323.096	0.23
323.307	0.25
323.518	0.26
323.729	0.25
323.94	0.28
324.151	0.27
324.362	0.24
324.573	0.26
324.784	0.22
324.995	0.3
325.206	0.29
325.417	0.25
325.628	0.28
325.838	0.24
326.049	0.29
326.26	0.3
326.471	0.2
326.682	0.27
326.892	0.3
327.103	0.22
327.314	0.25
327.525	0.33
327.735	0.27
327.946	0.24
328.157	0.22
328.368	0.33
328.578	0.26
328.789	0.32
328.999	0.28
329.21	0.25
329.421	0.24
329.631	0.22
329.842	0.23
330.052	0.28
330.263	0.29
330.473	0.31
330.684	0.26
330.894	0.27
331.105	0.29
331.315	0.26
331.526	0.19
331.736	0.33
331.947	0.3
332.157	0.3
332.367	0.2
332.578	0.3
332.788	0.32
332.999	0.27
333.209	0.27
333.419	0.24
333.629	0.25
333.84	0.27
334.05	0.26
334.26	0.32
334.47	0.3
334.681	0.26
334.891	0.22
335.101	0.31
335.311	0.38
335.521	0.27
335.732	0.19
335.942	0.35
336.152	0.31
336.362	0.27
336.572	0.27
336.782	0.3
336.992	0.22
337.202	0.25
337.412	0.22
337.622	0.27
337.832	0.26
338.042	0.27
338.252	0.23
338.462	0.22
338.672	0.24
338.882	0.29
339.092	0.22
339.302	0.34
339.511	0.3
339.721	0.2
339.931	0.21
340.141	0.34
340.351	0.32
340.561	0.3
340.77	0.3
340.98	0.32
341.19	0.26
341.4	0.27
341.609	0.2
341.819	0.23
342.029	0.25
342.238	0.24
342.448	0.26
342.658	0.31
342.867	0.27
343.077	0.28
343.286	0.28
343.496	0.24
343.706	0.33
343.915	0.26
344.125	0.25
344.334	0.32
344.544	0.2
344.753	0.24
344.963	0.22
345.172	0.25
345.381	0.26
345.591	0.19
345.8	0.23
346.01	0.3
346.219	0.3
346.428	0.15
346.638	0.25
346.847	0.28
347.056	0.34
347.266	0.24
347.475	0.3
347.684	0.31
347.893	0.3
348.103	0.28
348.312	0.26
348.521	0.23
348.73	0.29
348.94	0.3
349.149	0.26
349.358	0.26
349.567	0.23
349.776	0.22
349.985	0.25
350.194	0.26
350.403	0.32
350.612	0.22
350.821	0.25
351.03	0.27
351.239	0.25
351.448	0.27
351.657	0.22
351.866	0.3
352.075	0.29
352.284	0.32
352.493	0.21
352.702	0.33
352.911	0.34
353.12	0.28
353.329	0.26
353.538	0.33
353.746	0.24
353.955	0.21
354.164	0.31
354.373	0.25
354.582	0.31
354.79	0.21
354.999	0.28
355.208	0.29
355.416	0.32
355.625	0.22
355.834	0.23
356.042	0.26
356.251	0.25
356.46	0.23
356.668	0.25
356.877	0.34
357.085	0.31
357.294	0.16
357.503	0.26
357.711	0.26
357.92	0.36
358.128	0.23
358.337	0.25
358.545	0.32
358.754	0.26
358.962	0.29
359.17	0.23
359.379	0.28
359.587	0.23
359.796	0.26
360.004	0.29
360.212	0.28
360.421	0.29
360.629	0.25
360.837	0.24
361.046	0.29
361.254	0.36
361.462	0.22
361.67	0.22
361.879	0.29
362.087	0.3
362.295	0.24
362.503	0.23
362.711	0.22
362.92	0.26
363.128	0.2
363.336	0.21
363.544	0.21
363.752	0.26
363.96	0.23
364.168	0.22
364.376	0.23
364.584	0.26
364.792	0.33
365	0.3
365.208	0.25
365.416	0.27
365.624	0.3
365.832	0.21
366.04	0.35
366.248	0.24
366.456	0.26
366.664	0.29
366.872	0.22
367.079	0.22
367.287	0.26
367.495	0.28
367.703	0.26
367.911	0.25
368.118	0.22
368.326	0.23
368.534	0.17
368.742	0.31
368.949	0.22
369.157	0.23
369.365	0.3
369.572	0.23
369.78	0.26
369.988	0.27
370.195	0.26
370.403	0.29
370.61	0.25
370.818	0.24
371.026	0.33
371.233	0.25
371.441	0.26
371.648	0.26
371.856	0.28
372.063	0.3
372.271	0.21
372.478	0.24
372.685	0.24
372.893	0.31
373.1	0.24
373.308	0.24
373.515	0.31
373.722	0.31
373.93	0.27
374.137	0.28
374.344	0.33
374.552	0.27
374.759	0.33
374.966	0.25
375.173	0.26
375.381	0.33
375.588	0.27
375.795	0.2
376.002	0.26
376.209	0.25
376.417	0.29
376.624	0.28
376.831	0.32
377.038	0.27
377.245	0.17
377.452	0.26
377.659	0.26
377.866	0.24
378.073	0.25
378.28	0.29
378.487	0.29
378.694	0.27
378.901	0.31
379.108	0.25
379.315	0.28
379.522	0.32
379.729	0.27
379.936	0.28
380.143	0.31
380.35	0.24
380.557	0.27
380.763	0.27
380.97	0.26
381.177	0.31
381.384	0.27
381.591	0.25
381.797	0.27
382.004	0.3
382.211	0.32
382.418	0.31
382.624	0.31
382.831	0.3
383.038	0.26
383.244	0.28
383.451	0.25
383.658	0.3
383.864	0.28
384.071	0.29
384.277	0.37
384.484	0.24
384.69	0.36
384.897	0.28
385.103	0.29
385.31	0.28
385.516	0.29
385.723	0.23
385.929	0.3
386.136	0.29
386.342	0.28
386.549	0.27
386.755	0.34
386.961	0.34
387.168	0.28
387.374	0.27
387.58	0.31
387.787	0.31
387.993	0.3
388.199	0.26
388.406	0.23
388.612	0.27
388.818	0.24
389.024	0.25
389.231	0.33
389.437	0.39
389.643	0.33
389.849	0.3
390.055	0.3
390.261	0.33
390.467	0.33
390.674	0.3
390.88	0.3
391.086	0.31
391.292	0.23
391.498	0.37
391.704	0.38
391.91	0.31
392.116	0.32
392.322	0.25
392.528	0.33
392.734	0.33
392.94	0.33
393.146	0.28
393.352	0.3
393.557	0.28
393.763	0.28
393.969	0.34
394.175	0.31
394.381	0.32
394.587	0.26
394.792	0.3
394.998	0.39
395.204	0.38
395.41	0.28
395.615	0.33
395.821	0.33
396.027	0.36
396.233	0.31
396.438	0.31
396.644	0.39
396.85	0.35
397.055	0.36
397.261	0.33
397.466	0.46
397.672	0.35
397.878	0.42
398.083	0.38
398.289	0.33
398.494	0.39
398.7	0.39
398.905	0.27
399.111	0.45
399.316	0.31
399.522	0.37
399.727	0.3
399.932	0.32
400.138	0.32
400.343	0.39
400.549	0.34
400.754	0.41
400.959	0.33
401.165	0.35
401.37	0.35
401.575	0.55
401.78	0.41
401.986	0.37
402.191	0.41
402.396	0.36
402.601	0.42
402.807	0.4
403.012	0.42
403.217	0.44
403.422	0.39
403.627	0.4
403.832	0.43
404.037	0.47
404.243	0.41
404.448	0.42
404.653	0.42
404.858	0.45
405.063	0.45
405.268	0.45
405.473	0.43
405.678	0.41
405.883	0.61
406.088	0.52
406.293	0.42
406.498	0.46
406.703	0.56
406.907	0.47
407.112	0.45
407.317	0.48
407.522	0.51
407.727	0.5
407.932	0.53
408.136	0.63
408.341	0.55
408.546	0.58
408.751	0.55
408.956	0.56
409.16	0.68
409.365	0.61
409.57	0.66
409.774	0.61
409.979	0.69
410.184	0.71
410.388	0.7
410.593	0.75
410.798	0.75
411.002	0.74
411.207	0.82
411.411	0.85
411.616	0.79
411.82	0.83
412.025	0.85
412.229	0.85
412.434	0.9
412.638	0.92
412.843	0.92
413.047	0.95
413.252	0.96
413.456	1.05
413.66	1.04
413.865	1.03
414.069	1.18
414.273	1.15
414.478	1.18
414.682	1.16
414.886	1.21
415.091	1.2
415.295	1.25
415.499	1.42
415.703	1.33
415.908	1.48
416.112	1.42
416.316	1.62
416.52	1.6
416.724	1.58
416.929	1.59
417.133	1.88
417.337	1.73
417.541	1.81
417.745	1.85
417.949	1.99
418.153	2.04
418.357	1.99
418.561	2.28
418.765	2.21
418.969	2.4
419.173	2.48
419.377	2.47
419.581	2.55
419.785	2.64
419.989	2.68
420.193	2.75
420.397	2.95
420.601	3.08
420.804	3.14
421.008	3.09
421.212	3.24
421.416	3.31
421.62	3.32
421.823	3.35
422.027	3.55
422.231	3.5
422.435	3.56
422.638	3.61
422.842	3.63
423.046	3.81
423.249	3.96
423.453	4
423.657	4.14
423.86	4.21
424.064	4.4
424.268	4.5
424.471	4.51
424.675	4.72
424.878	4.83
425.082	4.94
425.285	5.21
425.489	5.19
425.692	5.3
425.896	5.34
426.099	5.41
426.303	5.61
426.506	5.83
426.71	6
426.913	6.2
427.116	6.41
427.32	6.32
427.523	6.57
427.726	6.89
427.93	6.87
428.133	7.12
428.336	7.34
428.54	7.44
428.743	7.67
428.946	7.99
429.149	7.95
429.353	7.94
429.556	8.01
429.759	8.16
429.962	8.24
430.165	8.37
430.368	7.99
430.571	8.1
430.775	8.12
430.978	8.08
431.181	8.17
431.384	8.26
431.587	8.39
431.79	8.73
431.993	8.65
432.196	9
432.399	9.35
432.602	9.48
432.805	9.59
433.008	10.12
433.211	9.87
433.414	10.36
433.616	10.42
433.819	10.33
434.022	10.53
434.225	10.66
434.428	10.7
434.631	11.13
434.833	10.82
435.036	11.12
435.239	11.27
435.442	11.43
435.645	11.54
435.847	11.62
436.05	11.95
436.253	12.15
436.455	12.32
436.658	12.07
436.861	12.31
437.063	12.43
437.266	12.54
437.468	12.78
437.671	13.01
437.874	13.2
438.076	13.13
438.279	13.45
438.481	13.46
438.684	14.44
438.886	13.93
439.089	14.19
439.291	14.17
439.494	14.66
439.696	14.68
439.899	15.23
440.101	15.74
440.303	15.89
440.506	16.6
440.708	16.26
440.91	16.62
441.113	16.82
441.315	17.09
441.517	16.82
441.72	17.37
441.922	17.03
442.124	16.71
442.326	17.28
442.529	17.46
442.731	17.43
442.933	17.77
443.135	17.62
443.337	17.54
443.539	18.11
443.742	17.73
443.944	18.38
444.146	18.14
444.348	18.11
444.55	18.1
444.752	18.08
444.954	18.2
445.156	18.05
445.358	18.65
445.56	18.7
445.762	18.52
445.964	18.88
446.166	18.67
446.368	18.71
446.57	18.65
446.772	18.31
446.974	18.04
447.175	18.38
447.377	18.01
447.579	18.49
447.781	18.06
447.983	17.91
448.184	17.47
448.386	17.85
448.588	17.33
448.79	17.33
448.991	17.63
449.193	17.49
449.395	16.81
449.597	16.67
449.798	16.32
450	16.06
450.202	15.89
450.403	15.88
450.605	15.9
450.806	15.39
451.008	15.35
451.21	15.05
451.411	14.67
451.613	13.77
451.814	14.16
452.016	14.06
452.217	13.37
452.419	13.3
452.62	12.97
452.821	12.83
453.023	12.63
453.224	12.39
453.426	11.9
453.627	11.14
453.828	11.31
454.03	11.39
454.231	11.48
454.432	11.04
454.634	10.82
454.835	10.51
455.036	10.38
455.238	10.12
455.439	9.77
455.64	9.57
455.841	9.37
456.042	9.53
456.244	9.26
456.445	8.94
456.646	8.66
456.847	8.66
457.048	8.44
457.249	8.53
457.45	8.23
457.651	7.76
457.852	7.62
458.054	7.27
458.255	7.24
458.456	7.28
458.657	7.18
458.858	6.77
459.058	6.67
459.259	6.66
459.46	6.4
459.661	6.43
459.862	6.5
460.063	6.41
460.264	6.21
460.465	6.02
460.666	6.06
460.866	5.78
461.067	5.46
461.268	5.55
461.469	5.52
461.67	5.42
461.87	5.21
462.071	5.33
462.272	5.24
462.473	5.09
462.673	5.33
462.874	5.17
463.075	5.08
463.275	5.08
463.476	5.19
463.676	5.09
463.877	5.02
464.078	4.96
464.278	4.98
464.479	4.89
464.679	4.77
464.88	4.73
465.08	4.66
465.281	4.49
465.481	4.26
465.682	4.14
465.882	4.2
466.083	4.12
466.283	3.98
466.483	3.91
466.684	3.78
466.884	3.63
467.085	3.69
467.285	3.75
467.485	3.61
467.686	3.45
467.886	3.47
468.086	3.38
468.286	3.35
468.487	3.44
468.687	3.25
468.887	3.21
469.087	3.37
469.287	3.27
469.488	3.07
469.688	3.24
469.888	3.18
470.088	3.13
470.288	3.03
470.488	2.96
470.688	2.86
470.888	2.85
471.088	2.67
471.288	2.77
471.488	2.79
471.688	2.78
471.888	2.73
472.088	2.81
472.288	2.68
472.488	2.59
472.688	2.61
472.888	2.67
473.088	2.6
473.288	2.52
473.488	2.47
473.688	2.6
473.887	2.44
474.087	2.42
474.287	2.49
474.487	2.43
474.687	2.42
474.886	2.33
475.086	2.25
475.286	2.35
475.486	2.26
475.685	2.22
475.885	2.22
476.085	2.29
476.284	2.27
476.484	2.26
476.684	2.23
476.883	2.32
477.083	2.17
477.282	2.14
477.482	2.16
477.681	2.23
477.881	2.05
478.08	2.07
478.28	2.04
478.479	2.07
478.679	2.1
478.878	2.08
479.078	2.06
479.277	2.11
479.477	2.07
479.676	2.07
479.875	2.03
480.075	1.95
480.274	2
480.473	2.06
480.673	2.03
480.872	2.09
481.071	2.06
481.271	2.06
481.47	1.96
481.669	2.04
481.868	1.95
482.067	1.99
482.267	1.95
482.466	1.93
482.665	1.91
482.864	1.96
483.063	1.93
483.262	1.97
483.461	2.04
483.661	2.08
483.86	2.02
484.059	2.06
484.258	2.02
484.457	2.02
484.656	2.06
484.855	2.04
485.054	1.95
485.253	1.99
485.452	1.97
485.651	2.04
485.849	2
486.048	2
486.247	2.03
486.446	2.05
486.645	1.99
486.844	2.05
487.043	2.04
487.241	2.06
487.44	2.11
487.639	2.12
487.838	2.12
488.037	2.15
488.235	2.2
488.434	2.15
488.633	2.06
488.831	2.23
489.03	2.21
489.229	2.21
489.427	2.21
489.626	2.27
489.825	2.26
490.023	2.34
490.222	2.25
490.42	2.33
490.619	2.39
490.817	2.36
491.016	2.35
491.214	2.39
491.413	2.46
491.611	2.4
491.81	2.39
492.008	2.46
492.207	2.59
492.405	2.51
492.604	2.47
492.802	2.54
493	2.6
493.199	2.6
493.397	2.62
493.595	2.71
493.794	2.69
493.992	2.78
494.19	2.77
494.388	2.83
494.587	2.73
494.785	2.77
494.983	2.71
495.181	2.9
495.379	2.92
495.578	2.94
495.776	2.99
495.974	2.89
496.172	2.94
496.37	3.1
496.568	3.1
496.766	3.1
496.964	3.18
497.162	3.15
497.36	3.21
497.558	3.24
497.756	3.29
497.954	3.3
498.152	3.32
498.35	3.43
498.548	3.35
498.746	3.36
498.944	3.39
499.142	3.45
499.34	3.53
499.538	3.62
499.736	3.5
499.933	3.6
500.131	3.61
500.329	3.78
500.527	3.73
500.725	3.83
500.922	3.86
501.12	3.85
501.318	3.97
501.516	3.9
501.713	4
501.911	4
502.109	3.96
502.306	4.07
502.504	3.98
502.701	4.09
