Data from Apollo_Calib_20240827__AbsoluteIrradiance__863__13-32-01-194.txt Node

Date: Wed Aug 28 13:32:01 BST 2024
User: biology
Spectrometer: FLMT08252
Trigger mode: 0
Integration Time (sec): 5.000000E-1
Scans to average: 5
Electric dark correction enabled: true
Nonlinearity correction enabled: false
Boxcar width: 0
XAxis mode: Wavelengths
Number of Pixels in Spectrum: 3648
>>>>>Begin Spectral Data<<<<<
179.588	-0
179.809	-0
180.03	-0
180.251	-0
180.473	-0
180.694	0
180.915	0
181.136	-0
181.357	0
181.578	0
181.799	0
182.02	-0
182.241	-0
182.462	-0
182.683	0
182.904	-0
183.125	-0
183.346	0
183.567	0
183.788	0
184.009	0
184.23	0
184.451	0
184.672	0
184.892	0
185.113	0
185.334	0
185.555	0
185.776	0
185.996	0
186.217	0
186.438	0
186.659	0
186.879	0
187.1	0
187.321	0
187.541	0
187.762	0
187.983	0
188.203	0
188.424	0
188.644	0
188.865	0
189.086	0
189.306	0
189.527	0
189.747	0
189.968	0
190.188	0
190.409	0
190.629	0
190.849	0
191.07	0
191.29	0
191.511	0
191.731	0
191.951	0
192.172	0
192.392	0
192.612	0
192.833	0
193.053	0
193.273	0
193.493	0
193.714	0
193.934	0
194.154	0
194.374	0
194.594	0
194.815	0
195.035	0
195.255	0
195.475	0
195.695	0
195.915	0
196.135	0
196.355	0
196.575	0
196.795	0
197.015	0
197.235	0
197.455	0
197.675	0
197.895	0
198.115	0
198.335	0
198.555	0
198.775	0
198.995	0
199.214	0
199.434	0
199.654	0
199.874	0
200.094	4
200.313	2.81
200.533	1.92
200.753	1.67
200.973	4.08
201.192	3.29
201.412	1.37
201.632	1.64
201.851	3.05
202.071	1.91
202.291	1.52
202.51	1.33
202.73	2.63
202.95	2.01
203.169	1.66
203.389	1.87
203.608	1.82
203.828	1.76
204.047	1.25
204.267	2.23
204.486	2.11
204.706	2.42
204.925	1.78
205.145	1.67
205.364	2.41
205.583	2.85
205.803	1.29
206.022	0.98
206.242	1.64
206.461	1.6
206.68	1.04
206.9	1.66
207.119	2.57
207.338	2
207.557	1.11
207.777	1.11
207.996	1.69
208.215	2.47
208.434	0.91
208.654	0.76
208.873	1.6
209.092	2.34
209.311	0.92
209.53	1.1
209.749	1.21
209.968	1.05
210.187	1.02
210.407	0.65
210.626	1.29
210.845	1.49
211.064	1.24
211.283	0.82
211.502	1.47
211.721	1.02
211.94	1.11
212.159	1.32
212.377	1.37
212.596	1.5
212.815	1.05
213.034	1.32
213.253	1.44
213.472	1.56
213.691	1.14
213.91	0.75
214.128	0.79
214.347	1.33
214.566	0.53
214.785	0.28
215.003	1.41
215.222	1.14
215.441	0.9
215.66	0.51
215.878	0.9
216.097	1.27
216.316	0.62
216.534	0.87
216.753	1.26
216.972	0.83
217.19	0.88
217.409	0.69
217.627	0.88
217.846	0.75
218.064	0.96
218.283	0.59
218.501	1.47
218.72	1.04
218.938	0.59
219.157	0.53
219.375	1.13
219.594	1.02
219.812	0.61
220.031	0.68
220.249	1.2
220.467	1.28
220.686	0.49
220.904	0.6
221.122	0.66
221.341	1.19
221.559	0.75
221.777	0.5
221.995	0.87
222.214	1.02
222.432	0.72
222.65	0.9
222.868	0.69
223.086	0.96
223.305	0.93
223.523	0.62
223.741	1.25
223.959	0.68
224.177	0.42
224.395	0.59
224.613	0.78
224.831	0.94
225.049	0.46
225.267	0.59
225.485	0.84
225.703	0.62
225.921	0.6
226.139	0.6
226.357	0.89
226.575	0.97
226.793	0.49
227.011	1.63
227.229	0.89
227.447	1.01
227.665	0.58
227.883	0.34
228.1	0.76
228.318	0.7
228.536	0.26
228.754	0.38
228.972	0.77
229.189	0.75
229.407	0.54
229.625	0.55
229.843	0.81
230.06	0.86
230.278	0.44
230.496	0.63
230.713	0.75
230.931	0.82
231.149	0.44
231.366	0.29
231.584	0.6
231.801	1.08
232.019	0.54
232.236	0.39
232.454	0.46
232.671	0.66
232.889	0.5
233.106	0.32
233.324	0.58
233.541	0.61
233.759	0.59
233.976	0.36
234.194	0.49
234.411	0.52
234.628	0.44
234.846	0.49
235.063	0.68
235.28	0.57
235.498	0.49
235.715	0.4
235.932	0.84
236.149	0.55
236.367	0.46
236.584	0.55
236.801	0.43
237.018	0.7
237.236	0.51
237.453	0.27
237.67	0.72
237.887	0.49
238.104	0.53
238.321	0.35
238.538	0.34
238.755	0.69
238.973	0.26
239.19	0.55
239.407	0.56
239.624	0.56
239.841	0.45
240.058	0.39
240.275	0.58
240.492	0.57
240.709	0.49
240.925	0.37
241.142	0.47
241.359	0.39
241.576	0.32
241.793	0.38
242.01	0.48
242.227	0.65
242.444	0.49
242.66	0.61
242.877	0.5
243.094	0.44
243.311	0.44
243.527	0.38
243.744	0.54
243.961	0.53
244.178	0.26
244.394	0.38
244.611	0.61
244.828	0.72
245.044	0.33
245.261	0.31
245.477	0.47
245.694	0.54
245.911	0.36
246.127	0.5
246.344	0.62
246.56	0.55
246.777	0.38
246.993	0.36
247.21	0.48
247.426	0.55
247.643	0.37
247.859	0.37
248.076	0.42
248.292	0.66
248.508	0.35
248.725	0.51
248.941	0.51
249.157	0.68
249.374	0.34
249.59	0.44
249.806	0.45
250.023	0.57
250.239	0.43
250.455	0.23
250.671	0.5
250.888	0.49
251.104	0.52
251.32	0.32
251.536	0.38
251.752	0.43
251.969	0.4
252.185	0.41
252.401	0.64
252.617	0.36
252.833	0.37
253.049	0.43
253.265	0.43
253.481	0.49
253.697	0.41
253.913	0.35
254.129	0.49
254.345	0.5
254.561	0.37
254.777	0.35
254.993	0.52
255.209	0.43
255.425	0.35
255.641	0.26
255.857	0.47
256.073	0.45
256.288	0.26
256.504	0.32
256.72	0.44
256.936	0.51
257.152	0.37
257.367	0.32
257.583	0.49
257.799	0.5
258.015	0.4
258.23	0.36
258.446	0.56
258.662	0.33
258.877	0.28
259.093	0.28
259.309	0.37
259.524	0.41
259.74	0.36
259.955	0.29
260.171	0.42
260.387	0.43
260.602	0.45
260.818	0.33
261.033	0.29
261.249	0.45
261.464	0.3
261.68	0.26
261.895	0.5
262.11	0.41
262.326	0.27
262.541	0.28
262.757	0.44
262.972	0.41
263.187	0.33
263.403	0.4
263.618	0.49
263.833	0.41
264.049	0.29
264.264	0.3
264.479	0.38
264.694	0.49
264.91	0.21
265.125	0.3
265.34	0.44
265.555	0.59
265.77	0.37
265.986	0.29
266.201	0.45
266.416	0.49
266.631	0.27
266.846	0.28
267.061	0.44
267.276	0.43
267.491	0.16
267.706	0.41
267.921	0.41
268.136	0.37
268.351	0.33
268.566	0.26
268.781	0.43
268.996	0.43
269.211	0.34
269.426	0.23
269.641	0.34
269.856	0.49
270.071	0.3
270.285	0.3
270.5	0.46
270.715	0.44
270.93	0.41
271.145	0.37
271.359	0.43
271.574	0.28
271.789	0.34
272.004	0.29
272.218	0.31
272.433	0.42
272.648	0.29
272.862	0.4
273.077	0.32
273.292	0.4
273.506	0.23
273.721	0.3
273.936	0.36
274.15	0.39
274.365	0.31
274.579	0.33
274.794	0.4
275.008	0.46
275.223	0.21
275.437	0.3
275.652	0.35
275.866	0.37
276.081	0.32
276.295	0.35
276.509	0.36
276.724	0.4
276.938	0.34
277.153	0.34
277.367	0.44
277.581	0.3
277.796	0.26
278.01	0.25
278.224	0.4
278.438	0.47
278.653	0.22
278.867	0.27
279.081	0.28
279.295	0.34
279.51	0.33
279.724	0.2
279.938	0.31
280.152	0.35
280.366	0.27
280.58	0.38
280.794	0.44
281.008	0.41
281.222	0.27
281.437	0.49
281.651	0.32
281.865	0.39
282.079	0.27
282.293	0.17
282.507	0.33
282.721	0.26
282.935	0.28
283.148	0.2
283.362	0.25
283.576	0.2
283.79	0.31
284.004	0.24
284.218	0.41
284.432	0.3
284.646	0.35
284.859	0.25
285.073	0.23
285.287	0.37
285.501	0.31
285.714	0.28
285.928	0.33
286.142	0.36
286.356	0.26
286.569	0.31
286.783	0.43
286.997	0.4
287.21	0.32
287.424	0.25
287.637	0.28
287.851	0.25
288.065	0.34
288.278	0.31
288.492	0.32
288.705	0.28
288.919	0.34
289.132	0.23
289.346	0.4
289.559	0.2
289.773	0.19
289.986	0.26
290.2	0.27
290.413	0.42
290.626	0.25
290.84	0.25
291.053	0.32
291.267	0.41
291.48	0.3
291.693	0.3
291.906	0.24
292.12	0.32
292.333	0.27
292.546	0.24
292.76	0.39
292.973	0.33
293.186	0.31
293.399	0.21
293.612	0.35
293.826	0.29
294.039	0.23
294.252	0.25
294.465	0.42
294.678	0.31
294.891	0.24
295.104	0.23
295.317	0.27
295.53	0.27
295.743	0.3
295.956	0.23
296.169	0.37
296.382	0.32
296.595	0.26
296.808	0.22
297.021	0.34
297.234	0.34
297.447	0.27
297.66	0.3
297.873	0.39
298.086	0.32
298.299	0.2
298.511	0.21
298.724	0.29
298.937	0.23
299.15	0.23
299.363	0.28
299.575	0.31
299.788	0.3
300.001	0.26
300.213	0.19
300.426	0.31
300.639	0.22
300.852	0.18
301.064	0.32
301.277	0.38
301.489	0.3
301.702	0.28
301.915	0.22
302.127	0.28
302.34	0.28
302.552	0.28
302.765	0.21
302.977	0.31
303.19	0.21
303.402	0.21
303.615	0.24
303.827	0.25
304.04	0.29
304.252	0.32
304.464	0.24
304.677	0.44
304.889	0.34
305.102	0.21
305.314	0.18
305.526	0.29
305.739	0.3
305.951	0.21
306.163	0.22
306.375	0.34
306.588	0.26
306.8	0.23
307.012	0.18
307.224	0.3
307.436	0.37
307.649	0.16
307.861	0.28
308.073	0.3
308.285	0.26
308.497	0.15
308.709	0.2
308.921	0.29
309.133	0.34
309.346	0.27
309.558	0.25
309.77	0.32
309.982	0.35
310.194	0.26
310.406	0.18
310.617	0.39
310.829	0.28
311.041	0.28
311.253	0.21
311.465	0.28
311.677	0.27
311.889	0.26
312.101	0.24
312.313	0.35
312.524	0.36
312.736	0.2
312.948	0.25
313.16	0.4
313.372	0.32
313.583	0.31
313.795	0.26
314.007	0.26
314.218	0.3
314.43	0.24
314.642	0.22
314.853	0.15
315.065	0.33
315.277	0.26
315.488	0.22
315.7	0.33
315.912	0.3
316.123	0.24
316.335	0.26
316.546	0.38
316.758	0.29
316.969	0.22
317.181	0.28
317.392	0.28
317.604	0.38
317.815	0.21
318.026	0.15
318.238	0.22
318.449	0.28
318.661	0.14
318.872	0.18
319.083	0.18
319.295	0.33
319.506	0.26
319.717	0.29
319.929	0.33
320.14	0.29
320.351	0.27
320.562	0.2
320.774	0.34
320.985	0.3
321.196	0.21
321.407	0.18
321.618	0.37
321.829	0.27
322.041	0.27
322.252	0.24
322.463	0.28
322.674	0.31
322.885	0.23
323.096	0.27
323.307	0.28
323.518	0.27
323.729	0.25
323.94	0.23
324.151	0.25
324.362	0.35
324.573	0.26
324.784	0.25
324.995	0.35
325.206	0.27
325.417	0.21
325.628	0.23
325.838	0.29
326.049	0.29
326.26	0.32
326.471	0.2
326.682	0.32
326.892	0.29
327.103	0.18
327.314	0.19
327.525	0.35
327.735	0.28
327.946	0.26
328.157	0.24
328.368	0.34
328.578	0.27
328.789	0.32
328.999	0.26
329.21	0.28
329.421	0.36
329.631	0.24
329.842	0.24
330.052	0.27
330.263	0.3
330.473	0.28
330.684	0.27
330.894	0.25
331.105	0.3
331.315	0.26
331.526	0.17
331.736	0.39
331.947	0.28
332.157	0.3
332.367	0.19
332.578	0.27
332.788	0.31
332.999	0.33
333.209	0.2
333.419	0.25
333.629	0.31
333.84	0.28
334.05	0.24
334.26	0.3
334.47	0.29
334.681	0.28
334.891	0.21
335.101	0.28
335.311	0.42
335.521	0.26
335.732	0.17
335.942	0.34
336.152	0.3
336.362	0.32
336.572	0.26
336.782	0.32
336.992	0.24
337.202	0.25
337.412	0.25
337.622	0.32
337.832	0.24
338.042	0.25
338.252	0.21
338.462	0.28
338.672	0.3
338.882	0.22
339.092	0.22
339.302	0.32
339.511	0.31
339.721	0.2
339.931	0.17
340.141	0.34
340.351	0.33
340.561	0.23
340.77	0.26
340.98	0.25
341.19	0.27
341.4	0.26
341.609	0.17
341.819	0.25
342.029	0.21
342.238	0.3
342.448	0.23
342.658	0.31
342.867	0.24
343.077	0.27
343.286	0.23
343.496	0.27
343.706	0.34
343.915	0.21
344.125	0.26
344.334	0.25
344.544	0.15
344.753	0.25
344.963	0.2
345.172	0.21
345.381	0.22
345.591	0.19
345.8	0.26
346.01	0.31
346.219	0.35
346.428	0.14
346.638	0.27
346.847	0.25
347.056	0.38
347.266	0.24
347.475	0.21
347.684	0.32
347.893	0.32
348.103	0.26
348.312	0.19
348.521	0.27
348.73	0.28
348.94	0.24
349.149	0.22
349.358	0.23
349.567	0.24
349.776	0.17
349.985	0.2
350.194	0.31
350.403	0.27
350.612	0.2
350.821	0.19
351.03	0.28
351.239	0.22
351.448	0.25
351.657	0.23
351.866	0.38
352.075	0.27
352.284	0.29
352.493	0.19
352.702	0.33
352.911	0.26
353.12	0.24
353.329	0.22
353.538	0.25
353.746	0.25
353.955	0.21
354.164	0.25
354.373	0.25
354.582	0.29
354.79	0.24
354.999	0.26
355.208	0.23
355.416	0.38
355.625	0.19
355.834	0.2
356.042	0.29
356.251	0.2
356.46	0.19
356.668	0.26
356.877	0.39
357.085	0.32
357.294	0.18
357.503	0.26
357.711	0.29
357.92	0.45
358.128	0.27
358.337	0.22
358.545	0.32
358.754	0.24
358.962	0.28
359.17	0.25
359.379	0.27
359.587	0.27
359.796	0.24
360.004	0.29
360.212	0.33
360.421	0.32
360.629	0.2
360.837	0.23
361.046	0.33
361.254	0.41
361.462	0.23
361.67	0.22
361.879	0.27
362.087	0.33
362.295	0.25
362.503	0.21
362.711	0.21
362.92	0.23
363.128	0.23
363.336	0.2
363.544	0.22
363.752	0.23
363.96	0.25
364.168	0.24
364.376	0.29
364.584	0.27
364.792	0.3
365	0.28
365.208	0.27
365.416	0.3
365.624	0.33
365.832	0.25
366.04	0.3
366.248	0.28
366.456	0.23
366.664	0.25
366.872	0.25
367.079	0.24
367.287	0.24
367.495	0.25
367.703	0.26
367.911	0.24
368.118	0.22
368.326	0.25
368.534	0.2
368.742	0.33
368.949	0.19
369.157	0.18
369.365	0.27
369.572	0.2
369.78	0.19
369.988	0.28
370.195	0.25
370.403	0.31
370.61	0.23
370.818	0.28
371.026	0.39
371.233	0.25
371.441	0.27
371.648	0.23
371.856	0.28
372.063	0.32
372.271	0.25
372.478	0.24
372.685	0.19
372.893	0.29
373.1	0.28
373.308	0.23
373.515	0.41
373.722	0.28
373.93	0.25
374.137	0.28
374.344	0.34
374.552	0.31
374.759	0.26
374.966	0.23
375.173	0.27
375.381	0.39
375.588	0.26
375.795	0.14
376.002	0.22
376.209	0.24
376.417	0.24
376.624	0.33
376.831	0.32
377.038	0.27
377.245	0.16
377.452	0.21
377.659	0.27
377.866	0.26
378.073	0.24
378.28	0.25
378.487	0.35
378.694	0.35
378.901	0.25
379.108	0.22
379.315	0.36
379.522	0.37
379.729	0.31
379.936	0.27
380.143	0.29
380.35	0.27
380.557	0.25
380.763	0.28
380.97	0.3
381.177	0.29
381.384	0.25
381.591	0.18
381.797	0.35
382.004	0.34
382.211	0.3
382.418	0.22
382.624	0.27
382.831	0.33
383.038	0.23
383.244	0.3
383.451	0.29
383.658	0.29
383.864	0.22
384.071	0.24
384.277	0.38
384.484	0.23
384.69	0.35
384.897	0.21
385.103	0.26
385.31	0.23
385.516	0.25
385.723	0.24
385.929	0.26
386.136	0.25
386.342	0.35
386.549	0.27
386.755	0.4
386.961	0.32
387.168	0.23
387.374	0.3
387.58	0.33
387.787	0.34
387.993	0.31
388.199	0.3
388.406	0.29
388.612	0.27
388.818	0.26
389.024	0.28
389.231	0.29
389.437	0.42
389.643	0.34
389.849	0.32
390.055	0.32
390.261	0.33
390.467	0.35
390.674	0.27
390.88	0.31
391.086	0.3
391.292	0.24
391.498	0.33
391.704	0.26
391.91	0.31
392.116	0.21
392.322	0.18
392.528	0.37
392.734	0.27
392.94	0.29
393.146	0.23
393.352	0.33
393.557	0.27
393.763	0.27
393.969	0.36
394.175	0.27
394.381	0.32
394.587	0.26
394.792	0.31
394.998	0.34
395.204	0.38
395.41	0.26
395.615	0.33
395.821	0.36
396.027	0.36
396.233	0.31
396.438	0.34
396.644	0.36
396.85	0.4
397.055	0.36
397.261	0.34
397.466	0.4
397.672	0.33
397.878	0.34
398.083	0.35
398.289	0.3
398.494	0.43
398.7	0.39
398.905	0.22
399.111	0.43
399.316	0.27
399.522	0.32
399.727	0.34
399.932	0.35
400.138	0.34
400.343	0.36
400.549	0.31
400.754	0.36
400.959	0.38
401.165	0.36
401.37	0.36
401.575	0.49
401.78	0.42
401.986	0.31
402.191	0.35
402.396	0.37
402.601	0.42
402.807	0.4
403.012	0.39
403.217	0.4
403.422	0.37
403.627	0.46
403.832	0.36
404.037	0.49
404.243	0.41
404.448	0.39
404.653	0.42
404.858	0.43
405.063	0.47
405.268	0.44
405.473	0.34
405.678	0.41
405.883	0.66
406.088	0.51
406.293	0.44
406.498	0.45
406.703	0.52
406.907	0.49
407.112	0.43
407.317	0.52
407.522	0.58
407.727	0.49
407.932	0.49
408.136	0.68
408.341	0.52
408.546	0.59
408.751	0.54
408.956	0.58
409.16	0.66
409.365	0.61
409.57	0.62
409.774	0.66
409.979	0.67
410.184	0.68
410.388	0.61
410.593	0.77
410.798	0.8
411.002	0.68
411.207	0.77
411.411	0.81
411.616	0.74
411.82	0.84
412.025	0.86
412.229	0.84
412.434	0.99
412.638	0.92
412.843	0.94
413.047	0.99
413.252	0.93
413.456	1.03
413.66	1.14
413.865	1.06
414.069	1.17
414.273	1.13
414.478	1.11
414.682	1.21
414.886	1.27
415.091	1.18
415.295	1.21
415.499	1.41
415.703	1.39
415.908	1.48
416.112	1.34
416.316	1.58
416.52	1.57
416.724	1.57
416.929	1.64
417.133	1.87
417.337	1.76
417.541	1.78
417.745	1.82
417.949	1.96
418.153	2.02
418.357	1.97
418.561	2.29
418.765	2.18
418.969	2.38
419.173	2.4
419.377	2.41
419.581	2.73
419.785	2.63
419.989	2.62
420.193	2.78
420.397	2.92
420.601	3.11
420.804	3.19
421.008	3.11
421.212	3.34
421.416	3.25
421.62	3.32
421.823	3.42
422.027	3.59
422.231	3.55
422.435	3.48
422.638	3.58
422.842	3.73
423.046	3.71
423.249	3.92
423.453	4.04
423.657	4.19
423.86	4.15
424.064	4.34
424.268	4.46
424.471	4.51
424.675	4.8
424.878	4.87
425.082	5
425.285	5.23
425.489	5.17
425.692	5.3
425.896	5.32
426.099	5.52
426.303	5.65
426.506	5.78
426.71	6.01
426.913	6.22
427.116	6.34
427.32	6.39
427.523	6.41
427.726	6.8
427.93	6.85
428.133	7.2
428.336	7.34
428.54	7.49
428.743	7.69
428.946	7.93
429.149	7.93
429.353	7.95
429.556	8.21
429.759	8.14
429.962	8.18
430.165	8.42
430.368	8
430.571	8.1
430.775	8.16
430.978	8.13
431.181	8.24
431.384	8.25
431.587	8.4
431.79	8.68
431.993	8.85
432.196	8.96
432.399	9.37
432.602	9.52
432.805	9.58
433.008	10.07
433.211	10.03
433.414	10.32
433.616	10.43
433.819	10.24
434.022	10.5
434.225	10.7
434.428	10.65
434.631	11.1
434.833	10.84
435.036	11.17
435.239	11.34
435.442	11.27
435.645	11.65
435.847	11.61
436.05	11.96
436.253	12.04
436.455	12.18
436.658	12.07
436.861	12.37
437.063	12.47
437.266	12.42
437.468	12.81
437.671	13.26
437.874	13.08
438.076	12.95
438.279	13.59
438.481	13.5
438.684	14.36
438.886	14.03
439.089	14.23
439.291	14.26
439.494	14.53
439.696	14.73
439.899	15.18
440.101	15.85
440.303	15.92
440.506	16.64
440.708	16.38
440.91	16.6
441.113	16.84
441.315	17.03
441.517	16.71
441.72	17.27
441.922	16.93
442.124	16.87
442.326	17.21
442.529	17.45
442.731	17.44
442.933	17.76
443.135	17.5
443.337	17.59
443.539	18.04
443.742	17.78
443.944	18.34
444.146	18.11
444.348	18.08
444.55	18.02
444.752	18.14
444.954	18.2
445.156	18.07
445.358	18.37
445.56	18.82
445.762	18.41
445.964	18.84
446.166	18.61
446.368	18.6
446.57	18.6
446.772	18.16
446.974	17.95
447.175	18.2
447.377	18.05
447.579	18.28
447.781	17.94
447.983	17.85
448.184	17.37
448.386	17.77
448.588	17.29
448.79	17.22
448.991	17.53
449.193	17.5
449.395	16.86
449.597	16.47
449.798	16.37
450	15.82
450.202	15.79
450.403	15.93
450.605	15.72
450.806	15.36
451.008	15.2
451.21	14.93
451.411	14.59
451.613	13.79
451.814	14.03
452.016	14.08
452.217	13.24
452.419	13.25
452.62	12.92
452.821	12.7
453.023	12.62
453.224	12.26
453.426	11.83
453.627	10.99
453.828	11.24
454.03	11.24
454.231	11.17
454.432	11.09
454.634	10.86
454.835	10.42
455.036	10.37
455.238	10.03
455.439	9.68
455.64	9.54
455.841	9.37
456.042	9.57
456.244	9.23
456.445	8.8
456.646	8.68
456.847	8.45
457.048	8.48
457.249	8.55
457.45	8.25
457.651	7.66
457.852	7.57
458.054	7.23
458.255	7.18
458.456	7.18
458.657	7.2
458.858	6.68
459.058	6.64
459.259	6.66
459.46	6.46
459.661	6.48
459.862	6.5
460.063	6.34
460.264	6.2
460.465	5.99
460.666	6.04
460.866	5.79
461.067	5.54
461.268	5.51
461.469	5.55
461.67	5.39
461.87	5.19
462.071	5.23
462.272	5.1
462.473	5.15
462.673	5.25
462.874	5.12
463.075	5.12
463.275	5.13
463.476	5.14
463.676	5
463.877	4.88
464.078	4.91
464.278	4.94
464.479	4.84
464.679	4.76
464.88	4.73
465.08	4.6
465.281	4.47
465.481	4.29
465.682	4.14
465.882	4.2
466.083	4.12
466.283	4.04
466.483	3.85
466.684	3.74
466.884	3.6
467.085	3.66
467.285	3.76
467.485	3.6
467.686	3.52
467.886	3.4
468.086	3.33
468.286	3.35
468.487	3.35
468.687	3.28
468.887	3.23
469.087	3.31
469.287	3.2
469.488	3.07
469.688	3.18
469.888	3.12
470.088	3.15
470.288	3.04
470.488	3.07
470.688	2.87
470.888	2.9
471.088	2.63
471.288	2.81
471.488	2.73
471.688	2.75
471.888	2.7
472.088	2.86
472.288	2.71
472.488	2.58
472.688	2.55
472.888	2.61
473.088	2.64
473.288	2.48
473.488	2.47
473.688	2.64
473.887	2.5
474.087	2.39
474.287	2.4
474.487	2.35
474.687	2.43
474.886	2.36
475.086	2.34
475.286	2.32
475.486	2.32
475.685	2.2
475.885	2.19
476.085	2.27
476.284	2.31
476.484	2.25
476.684	2.22
476.883	2.36
477.083	2.16
477.282	2.1
477.482	2.22
477.681	2.15
477.881	2.09
478.08	2.1
478.28	2.02
478.479	2.09
478.679	2.18
478.878	2.02
479.078	1.98
479.277	2.07
479.477	2.05
479.676	2.03
479.875	2.04
480.075	1.96
480.274	1.99
480.473	2.06
480.673	2
480.872	2.13
481.071	2.05
481.271	2.04
481.47	2
481.669	1.99
481.868	1.98
482.067	2
482.267	1.91
482.466	1.95
482.665	1.93
482.864	1.96
483.063	1.93
483.262	2.04
483.461	2.01
483.661	2.06
483.86	1.96
484.059	2.05
484.258	2
484.457	2.03
484.656	2.04
484.855	2.08
485.054	1.89
485.253	1.96
485.452	1.93
485.651	2.06
485.849	2.07
486.048	2.01
486.247	2.03
486.446	2.13
486.645	2.02
486.844	2.05
487.043	2.02
487.241	2.1
487.44	2.07
487.639	2.15
487.838	2.11
488.037	2.13
488.235	2.23
488.434	2.16
488.633	2.05
488.831	2.25
489.03	2.19
489.229	2.22
489.427	2.24
489.626	2.31
489.825	2.3
490.023	2.3
490.222	2.26
490.42	2.34
490.619	2.41
490.817	2.35
491.016	2.37
491.214	2.42
491.413	2.44
491.611	2.34
491.81	2.37
492.008	2.49
492.207	2.57
492.405	2.52
492.604	2.42
492.802	2.55
493	2.64
493.199	2.59
493.397	2.61
493.595	2.67
493.794	2.66
493.992	2.81
494.19	2.75
494.388	2.83
494.587	2.77
494.785	2.81
494.983	2.74
495.181	2.89
495.379	2.92
495.578	2.95
495.776	2.99
495.974	2.94
496.172	2.98
496.37	3.05
496.568	3.09
496.766	3.06
496.964	3.24
497.162	3.16
497.36	3.24
497.558	3.24
497.756	3.32
497.954	3.3
498.152	3.35
498.35	3.45
498.548	3.41
498.746	3.41
498.944	3.42
499.142	3.41
499.34	3.48
499.538	3.64
499.736	3.46
499.933	3.67
500.131	3.63
500.329	3.78
500.527	3.75
500.725	3.88
500.922	3.9
501.12	3.9
501.318	3.96
501.516	3.91
501.713	4
501.911	4
502.109	4.01
502.306	4.13
502.504	3.98
502.701	4.1
502.899	4.18
