Data from Apollo_Calib_20240827__AbsoluteIrradiance__874__13-43-00-370.txt Node

Date: Wed Aug 28 13:43:00 BST 2024
User: biology
Spectrometer: FLMT08252
Trigger mode: 0
Integration Time (sec): 5.000000E-1
Scans to average: 5
Electric dark correction enabled: true
Nonlinearity correction enabled: false
Boxcar width: 0
XAxis mode: Wavelengths
Number of Pixels in Spectrum: 3648
>>>>>Begin Spectral Data<<<<<
179.588	-0
179.809	-0
180.03	-0
180.251	-0
180.473	-0
180.694	0
180.915	0
181.136	-0
181.357	0
181.578	-0
181.799	0
182.02	-0
182.241	-0
182.462	-0
182.683	0
182.904	-0
183.125	-0
183.346	0
183.567	0
183.788	0
184.009	0
184.23	0
184.451	0
184.672	0
184.892	0
185.113	0
185.334	0
185.555	0
185.776	0
185.996	0
186.217	0
186.438	0
186.659	0
186.879	0
187.1	0
187.321	0
187.541	0
187.762	0
187.983	0
188.203	0
188.424	0
188.644	0
188.865	0
189.086	0
189.306	0
189.527	0
189.747	0
189.968	0
190.188	0
190.409	0
190.629	0
190.849	0
191.07	0
191.29	0
191.511	0
191.731	0
191.951	0
192.172	0
192.392	0
192.612	0
192.833	0
193.053	0
193.273	0
193.493	0
193.714	0
193.934	0
194.154	0
194.374	0
194.594	0
194.815	0
195.035	0
195.255	0
195.475	0
195.695	0
195.915	0
196.135	0
196.355	0
196.575	0
196.795	0
197.015	0
197.235	0
197.455	0
197.675	0
197.895	0
198.115	0
198.335	0
198.555	0
198.775	0
198.995	0
199.214	0
199.434	0
199.654	0
199.874	0
200.094	4.01
200.313	2.6
200.533	1.71
200.753	1.97
200.973	3.45
201.192	2.86
201.412	1.56
201.632	2.03
201.851	3.15
202.071	1.8
202.291	1.69
202.51	1.73
202.73	2.98
202.95	1.93
203.169	1.34
203.389	1.65
203.608	2.47
203.828	1.61
204.047	1.44
204.267	2.47
204.486	2.2
204.706	2.11
204.925	1.87
205.145	1.52
205.364	2.52
205.583	2.65
205.803	1.18
206.022	0.96
206.242	2.02
206.461	1.84
206.68	1.22
206.9	1.31
207.119	2.73
207.338	2.52
207.557	1.08
207.777	1.16
207.996	1.28
208.215	2.33
208.434	0.96
208.654	0.66
208.873	1.53
209.092	2.53
209.311	1.06
209.53	1.02
209.749	1.37
209.968	1.1
210.187	1.07
210.407	0.9
210.626	1.28
210.845	1.44
211.064	1.1
211.283	0.67
211.502	1.92
211.721	0.98
211.94	0.92
212.159	1.18
212.377	1.35
212.596	1.7
212.815	1.24
213.034	1.18
213.253	1.5
213.472	1.28
213.691	1.09
213.91	0.7
214.128	0.89
214.347	1.53
214.566	0.72
214.785	0.53
215.003	1.22
215.222	1.25
215.441	0.91
215.66	0.58
215.878	0.82
216.097	1.45
216.316	0.66
216.534	0.74
216.753	1.33
216.972	0.82
217.19	0.82
217.409	0.76
217.627	0.81
217.846	0.85
218.064	1
218.283	0.74
218.501	1.47
218.72	1.09
218.938	0.49
219.157	0.62
219.375	1.12
219.594	1.15
219.812	0.55
220.031	0.49
220.249	1.3
220.467	1.35
220.686	0.62
220.904	0.56
221.122	0.76
221.341	1.18
221.559	0.79
221.777	0.39
221.995	0.66
222.214	0.97
222.432	0.53
222.65	0.83
222.868	0.69
223.086	0.89
223.305	0.77
223.523	0.75
223.741	1.21
223.959	0.73
224.177	0.26
224.395	0.57
224.613	0.89
224.831	1.02
225.049	0.42
225.267	0.58
225.485	0.88
225.703	0.65
225.921	0.64
226.139	0.6
226.357	0.93
226.575	0.96
226.793	0.56
227.011	1.37
227.229	0.77
227.447	0.87
227.665	0.41
227.883	0.28
228.1	0.58
228.318	0.81
228.536	0.29
228.754	0.51
228.972	0.85
229.189	0.8
229.407	0.57
229.625	0.73
229.843	0.91
230.06	0.73
230.278	0.46
230.496	0.59
230.713	0.69
230.931	0.97
231.149	0.49
231.366	0.37
231.584	0.71
231.801	1.02
232.019	0.51
232.236	0.34
232.454	0.44
232.671	0.65
232.889	0.41
233.106	0.43
233.324	0.52
233.541	0.52
233.759	0.53
233.976	0.3
234.194	0.49
234.411	0.66
234.628	0.34
234.846	0.44
235.063	0.51
235.28	0.61
235.498	0.47
235.715	0.37
235.932	0.84
236.149	0.63
236.367	0.42
236.584	0.51
236.801	0.53
237.018	0.66
237.236	0.42
237.453	0.31
237.67	0.76
237.887	0.43
238.104	0.46
238.321	0.31
238.538	0.32
238.755	0.76
238.973	0.32
239.19	0.43
239.407	0.56
239.624	0.66
239.841	0.3
240.058	0.4
240.275	0.53
240.492	0.48
240.709	0.48
240.925	0.4
241.142	0.49
241.359	0.31
241.576	0.28
241.793	0.36
242.01	0.55
242.227	0.64
242.444	0.52
242.66	0.67
242.877	0.46
243.094	0.48
243.311	0.46
243.527	0.4
243.744	0.53
243.961	0.58
244.178	0.34
244.394	0.44
244.611	0.55
244.828	0.7
245.044	0.39
245.261	0.37
245.477	0.51
245.694	0.56
245.911	0.3
246.127	0.53
246.344	0.72
246.56	0.55
246.777	0.4
246.993	0.44
247.21	0.57
247.426	0.65
247.643	0.41
247.859	0.37
248.076	0.39
248.292	0.75
248.508	0.36
248.725	0.44
248.941	0.58
249.157	0.6
249.374	0.33
249.59	0.39
249.806	0.42
250.023	0.43
250.239	0.32
250.455	0.26
250.671	0.46
250.888	0.49
251.104	0.43
251.32	0.41
251.536	0.42
251.752	0.42
251.969	0.41
252.185	0.36
252.401	0.75
252.617	0.47
252.833	0.33
253.049	0.37
253.265	0.42
253.481	0.44
253.697	0.33
253.913	0.37
254.129	0.48
254.345	0.53
254.561	0.36
254.777	0.32
254.993	0.45
255.209	0.41
255.425	0.33
255.641	0.32
255.857	0.54
256.073	0.5
256.288	0.23
256.504	0.26
256.72	0.4
256.936	0.57
257.152	0.35
257.367	0.3
257.583	0.39
257.799	0.48
258.015	0.31
258.23	0.35
258.446	0.54
258.662	0.37
258.877	0.23
259.093	0.3
259.309	0.37
259.524	0.47
259.74	0.29
259.955	0.27
260.171	0.44
260.387	0.4
260.602	0.39
260.818	0.44
261.033	0.3
261.249	0.43
261.464	0.29
261.68	0.24
261.895	0.39
262.11	0.52
262.326	0.37
262.541	0.17
262.757	0.48
262.972	0.44
263.187	0.37
263.403	0.39
263.618	0.48
263.833	0.37
264.049	0.25
264.264	0.33
264.479	0.4
264.694	0.52
264.91	0.26
265.125	0.36
265.34	0.47
265.555	0.61
265.77	0.39
265.986	0.34
266.201	0.42
266.416	0.5
266.631	0.37
266.846	0.34
267.061	0.41
267.276	0.46
267.491	0.17
267.706	0.38
267.921	0.43
268.136	0.4
268.351	0.34
268.566	0.24
268.781	0.48
268.996	0.47
269.211	0.32
269.426	0.26
269.641	0.35
269.856	0.48
270.071	0.2
270.285	0.18
270.5	0.42
270.715	0.46
270.93	0.32
271.145	0.31
271.359	0.46
271.574	0.34
271.789	0.31
272.004	0.27
272.218	0.33
272.433	0.44
272.648	0.26
272.862	0.37
273.077	0.39
273.292	0.4
273.506	0.21
273.721	0.31
273.936	0.38
274.15	0.45
274.365	0.33
274.579	0.41
274.794	0.41
275.008	0.39
275.223	0.18
275.437	0.36
275.652	0.35
275.866	0.39
276.081	0.34
276.295	0.37
276.509	0.32
276.724	0.38
276.938	0.34
277.153	0.37
277.367	0.39
277.581	0.34
277.796	0.26
278.01	0.22
278.224	0.45
278.438	0.48
278.653	0.25
278.867	0.28
279.081	0.21
279.295	0.29
279.51	0.33
279.724	0.18
279.938	0.37
280.152	0.37
280.366	0.29
280.58	0.28
280.794	0.46
281.008	0.32
281.222	0.38
281.437	0.49
281.651	0.3
281.865	0.35
282.079	0.32
282.293	0.15
282.507	0.25
282.721	0.31
282.935	0.28
283.148	0.16
283.362	0.26
283.576	0.21
283.79	0.25
284.004	0.21
284.218	0.44
284.432	0.27
284.646	0.3
284.859	0.28
285.073	0.24
285.287	0.28
285.501	0.25
285.714	0.26
285.928	0.33
286.142	0.35
286.356	0.26
286.569	0.28
286.783	0.41
286.997	0.36
287.21	0.26
287.424	0.29
287.637	0.3
287.851	0.3
288.065	0.34
288.278	0.23
288.492	0.34
288.705	0.22
288.919	0.3
289.132	0.2
289.346	0.33
289.559	0.19
289.773	0.25
289.986	0.29
290.2	0.26
290.413	0.37
290.626	0.22
290.84	0.27
291.053	0.29
291.267	0.4
291.48	0.31
291.693	0.28
291.906	0.25
292.12	0.29
292.333	0.23
292.546	0.23
292.76	0.4
292.973	0.33
293.186	0.4
293.399	0.24
293.612	0.38
293.826	0.28
294.039	0.27
294.252	0.26
294.465	0.38
294.678	0.3
294.891	0.26
295.104	0.25
295.317	0.26
295.53	0.28
295.743	0.26
295.956	0.22
296.169	0.39
296.382	0.35
296.595	0.2
296.808	0.25
297.021	0.39
297.234	0.36
297.447	0.21
297.66	0.32
297.873	0.37
298.086	0.29
298.299	0.24
298.511	0.19
298.724	0.27
298.937	0.19
299.15	0.2
299.363	0.27
299.575	0.32
299.788	0.31
300.001	0.26
300.213	0.24
300.426	0.23
300.639	0.19
300.852	0.22
301.064	0.31
301.277	0.35
301.489	0.34
301.702	0.29
301.915	0.27
302.127	0.29
302.34	0.31
302.552	0.29
302.765	0.2
302.977	0.37
303.19	0.22
303.402	0.22
303.615	0.21
303.827	0.29
304.04	0.25
304.252	0.31
304.464	0.25
304.677	0.42
304.889	0.36
305.102	0.23
305.314	0.19
305.526	0.23
305.739	0.33
305.951	0.21
306.163	0.23
306.375	0.36
306.588	0.25
306.8	0.23
307.012	0.19
307.224	0.26
307.436	0.34
307.649	0.16
307.861	0.24
308.073	0.31
308.285	0.28
308.497	0.21
308.709	0.22
308.921	0.3
309.133	0.33
309.346	0.27
309.558	0.26
309.77	0.3
309.982	0.38
310.194	0.29
310.406	0.19
310.617	0.38
310.829	0.26
311.041	0.31
311.253	0.2
311.465	0.28
311.677	0.26
311.889	0.24
312.101	0.19
312.313	0.29
312.524	0.35
312.736	0.21
312.948	0.21
313.16	0.36
313.372	0.31
313.583	0.28
313.795	0.24
314.007	0.22
314.218	0.29
314.43	0.3
314.642	0.22
314.853	0.14
315.065	0.3
315.277	0.23
315.488	0.28
315.7	0.35
315.912	0.28
316.123	0.23
316.335	0.21
316.546	0.37
316.758	0.23
316.969	0.24
317.181	0.29
317.392	0.26
317.604	0.33
317.815	0.2
318.026	0.25
318.238	0.27
318.449	0.35
318.661	0.15
318.872	0.19
319.083	0.24
319.295	0.3
319.506	0.21
319.717	0.27
319.929	0.28
320.14	0.26
320.351	0.24
320.562	0.22
320.774	0.29
320.985	0.26
321.196	0.24
321.407	0.2
321.618	0.32
321.829	0.26
322.041	0.28
322.252	0.23
322.463	0.34
322.674	0.31
322.885	0.22
323.096	0.27
323.307	0.26
323.518	0.29
323.729	0.22
323.94	0.2
324.151	0.27
324.362	0.27
324.573	0.3
324.784	0.21
324.995	0.31
325.206	0.3
325.417	0.23
325.628	0.25
325.838	0.26
326.049	0.27
326.26	0.29
326.471	0.19
326.682	0.26
326.892	0.29
327.103	0.16
327.314	0.19
327.525	0.34
327.735	0.28
327.946	0.24
328.157	0.18
328.368	0.31
328.578	0.27
328.789	0.32
328.999	0.27
329.21	0.25
329.421	0.37
329.631	0.21
329.842	0.21
330.052	0.25
330.263	0.32
330.473	0.3
330.684	0.24
330.894	0.27
331.105	0.25
331.315	0.21
331.526	0.21
331.736	0.37
331.947	0.24
332.157	0.28
332.367	0.16
332.578	0.33
332.788	0.31
332.999	0.32
333.209	0.23
333.419	0.22
333.629	0.27
333.84	0.27
334.05	0.25
334.26	0.29
334.47	0.28
334.681	0.29
334.891	0.22
335.101	0.31
335.311	0.38
335.521	0.26
335.732	0.21
335.942	0.33
336.152	0.24
336.362	0.31
336.572	0.23
336.782	0.32
336.992	0.25
337.202	0.23
337.412	0.2
337.622	0.31
337.832	0.28
338.042	0.23
338.252	0.23
338.462	0.25
338.672	0.28
338.882	0.25
339.092	0.26
339.302	0.32
339.511	0.3
339.721	0.2
339.931	0.16
340.141	0.34
340.351	0.32
340.561	0.32
340.77	0.27
340.98	0.27
341.19	0.27
341.4	0.28
341.609	0.2
341.819	0.27
342.029	0.21
342.238	0.28
342.448	0.24
342.658	0.3
342.867	0.27
343.077	0.24
343.286	0.25
343.496	0.25
343.706	0.33
343.915	0.19
344.125	0.23
344.334	0.28
344.544	0.2
344.753	0.25
344.963	0.19
345.172	0.22
345.381	0.24
345.591	0.18
345.8	0.24
346.01	0.3
346.219	0.31
346.428	0.13
346.638	0.24
346.847	0.27
347.056	0.35
347.266	0.23
347.475	0.21
347.684	0.3
347.893	0.26
348.103	0.23
348.312	0.21
348.521	0.25
348.73	0.28
348.94	0.25
349.149	0.19
349.358	0.24
349.567	0.24
349.776	0.17
349.985	0.19
350.194	0.33
350.403	0.31
350.612	0.15
350.821	0.17
351.03	0.26
351.239	0.19
351.448	0.26
351.657	0.19
351.866	0.35
352.075	0.25
352.284	0.32
352.493	0.18
352.702	0.31
352.911	0.3
353.12	0.26
353.329	0.26
353.538	0.26
353.746	0.26
353.955	0.23
354.164	0.27
354.373	0.19
354.582	0.3
354.79	0.28
354.999	0.32
355.208	0.25
355.416	0.33
355.625	0.18
355.834	0.24
356.042	0.26
356.251	0.24
356.46	0.18
356.668	0.27
356.877	0.39
357.085	0.32
357.294	0.16
357.503	0.26
357.711	0.26
357.92	0.45
358.128	0.25
358.337	0.22
358.545	0.28
358.754	0.22
358.962	0.26
359.17	0.22
359.379	0.25
359.587	0.27
359.796	0.2
360.004	0.32
360.212	0.3
360.421	0.33
360.629	0.24
360.837	0.21
361.046	0.31
361.254	0.39
361.462	0.23
361.67	0.24
361.879	0.31
362.087	0.31
362.295	0.23
362.503	0.21
362.711	0.2
362.92	0.21
363.128	0.18
363.336	0.22
363.544	0.21
363.752	0.25
363.96	0.25
364.168	0.19
364.376	0.25
364.584	0.29
364.792	0.35
365	0.3
365.208	0.28
365.416	0.3
365.624	0.31
365.832	0.19
366.04	0.34
366.248	0.25
366.456	0.23
366.664	0.23
366.872	0.27
367.079	0.23
367.287	0.21
367.495	0.26
367.703	0.27
367.911	0.28
368.118	0.23
368.326	0.27
368.534	0.22
368.742	0.33
368.949	0.19
369.157	0.22
369.365	0.28
369.572	0.22
369.78	0.21
369.988	0.29
370.195	0.28
370.403	0.3
370.61	0.2
370.818	0.27
371.026	0.36
371.233	0.22
371.441	0.25
371.648	0.2
371.856	0.28
372.063	0.28
372.271	0.23
372.478	0.23
372.685	0.21
372.893	0.33
373.1	0.3
373.308	0.23
373.515	0.38
373.722	0.33
373.93	0.25
374.137	0.28
374.344	0.32
374.552	0.32
374.759	0.32
374.966	0.33
375.173	0.25
375.381	0.32
375.588	0.26
375.795	0.15
376.002	0.24
376.209	0.23
376.417	0.26
376.624	0.27
376.831	0.31
377.038	0.25
377.245	0.17
377.452	0.22
377.659	0.29
377.866	0.21
378.073	0.22
378.28	0.26
378.487	0.36
378.694	0.34
378.901	0.23
379.108	0.26
379.315	0.35
379.522	0.38
379.729	0.26
379.936	0.22
380.143	0.26
380.35	0.27
380.557	0.27
380.763	0.24
380.97	0.27
381.177	0.29
381.384	0.22
381.591	0.29
381.797	0.29
382.004	0.38
382.211	0.27
382.418	0.23
382.624	0.33
382.831	0.32
383.038	0.22
383.244	0.31
383.451	0.26
383.658	0.32
383.864	0.26
384.071	0.21
384.277	0.35
384.484	0.26
384.69	0.39
384.897	0.2
385.103	0.24
385.31	0.27
385.516	0.27
385.723	0.28
385.929	0.28
386.136	0.32
386.342	0.32
386.549	0.24
386.755	0.34
386.961	0.35
387.168	0.28
387.374	0.3
387.58	0.32
387.787	0.31
387.993	0.29
388.199	0.26
388.406	0.23
388.612	0.24
388.818	0.23
389.024	0.21
389.231	0.32
389.437	0.43
389.643	0.31
389.849	0.29
390.055	0.32
390.261	0.33
390.467	0.35
390.674	0.28
390.88	0.31
391.086	0.35
391.292	0.24
391.498	0.36
391.704	0.34
391.91	0.29
392.116	0.26
392.322	0.19
392.528	0.32
392.734	0.31
392.94	0.3
393.146	0.3
393.352	0.34
393.557	0.27
393.763	0.28
393.969	0.34
394.175	0.33
394.381	0.32
394.587	0.24
394.792	0.33
394.998	0.38
395.204	0.35
395.41	0.25
395.615	0.34
395.821	0.32
396.027	0.36
396.233	0.29
396.438	0.39
396.644	0.41
396.85	0.31
397.055	0.33
397.261	0.35
397.466	0.38
397.672	0.33
397.878	0.37
398.083	0.32
398.289	0.33
398.494	0.39
398.7	0.38
398.905	0.24
399.111	0.45
399.316	0.3
399.522	0.4
399.727	0.31
399.932	0.33
400.138	0.32
400.343	0.36
400.549	0.38
400.754	0.36
400.959	0.37
401.165	0.33
401.37	0.34
401.575	0.33
401.78	0.41
401.986	0.33
402.191	0.35
402.396	0.37
402.601	0.41
402.807	0.44
403.012	0.4
403.217	0.46
403.422	0.45
403.627	0.42
403.832	0.4
404.037	0.44
404.243	0.47
404.448	0.38
404.653	0.42
404.858	0.44
405.063	0.45
405.268	0.39
405.473	0.38
405.678	0.43
405.883	0.65
406.088	0.51
406.293	0.4
406.498	0.49
406.703	0.52
406.907	0.5
407.112	0.46
407.317	0.51
407.522	0.61
407.727	0.49
407.932	0.55
408.136	0.68
408.341	0.58
408.546	0.57
408.751	0.58
408.956	0.6
409.16	0.67
409.365	0.57
409.57	0.61
409.774	0.62
409.979	0.69
410.184	0.74
410.388	0.63
410.593	0.78
410.798	0.73
411.002	0.69
411.207	0.85
411.411	0.76
411.616	0.76
411.82	0.8
412.025	0.85
412.229	0.81
412.434	1.04
412.638	0.92
412.843	0.98
413.047	0.97
413.252	0.94
413.456	1.02
413.66	1.08
413.865	1.01
414.069	1.24
414.273	1.14
414.478	1.18
414.682	1.17
414.886	1.21
415.091	1.2
415.295	1.26
415.499	1.46
415.703	1.4
415.908	1.44
416.112	1.38
416.316	1.62
416.52	1.61
416.724	1.55
416.929	1.57
417.133	1.87
417.337	1.74
417.541	1.83
417.745	1.86
417.949	1.97
418.153	2.01
418.357	2
418.561	2.35
418.765	2.24
418.969	2.37
419.173	2.47
419.377	2.45
419.581	2.7
419.785	2.73
419.989	2.74
420.193	2.82
420.397	2.94
420.601	3.09
420.804	3.19
421.008	3.1
421.212	3.31
421.416	3.31
421.62	3.29
421.823	3.39
422.027	3.68
422.231	3.64
422.435	3.54
422.638	3.63
422.842	3.71
423.046	3.81
423.249	3.97
423.453	4.04
423.657	4.18
423.86	4.32
424.064	4.43
424.268	4.66
424.471	4.5
424.675	4.83
424.878	4.91
425.082	4.93
425.285	5.31
425.489	5.19
425.692	5.36
425.896	5.3
426.099	5.5
426.303	5.73
426.506	5.73
426.71	6
426.913	6.33
427.116	6.48
427.32	6.4
427.523	6.55
427.726	6.84
427.93	6.98
428.133	7.29
428.336	7.31
428.54	7.49
428.743	7.72
428.946	7.95
429.149	7.96
429.353	8.02
429.556	8.14
429.759	8.11
429.962	8.13
430.165	8.38
430.368	8.02
430.571	8.27
430.775	8.21
430.978	8.1
431.181	8.24
431.384	8.33
431.587	8.28
431.79	8.75
431.993	8.59
432.196	8.95
432.399	9.31
432.602	9.48
432.805	9.54
433.008	10.11
433.211	9.94
433.414	10.34
433.616	10.32
433.819	10.33
434.022	10.48
434.225	10.71
434.428	10.65
434.631	11.21
434.833	10.88
435.036	11.25
435.239	11.38
435.442	11.35
435.645	11.52
435.847	11.63
436.05	11.93
436.253	12.24
436.455	12.28
436.658	12.03
436.861	12.48
437.063	12.66
437.266	12.51
437.468	12.8
437.671	13.15
437.874	13.24
438.076	13
438.279	13.52
438.481	13.54
438.684	14.33
438.886	13.84
439.089	14.19
439.291	14.26
439.494	14.56
439.696	14.84
439.899	15.36
440.101	15.76
440.303	15.89
440.506	16.66
440.708	16.36
440.91	16.72
441.113	16.78
441.315	16.97
441.517	16.78
441.72	17.45
441.922	16.84
442.124	16.81
442.326	17.26
442.529	17.49
442.731	17.48
442.933	17.68
443.135	17.54
443.337	17.47
443.539	18.01
443.742	17.7
443.944	18.48
444.146	18.27
444.348	18.12
444.55	17.97
444.752	18.12
444.954	18.11
445.156	18.06
445.358	18.42
445.56	18.69
445.762	18.49
445.964	18.88
446.166	18.66
446.368	18.51
446.57	18.52
446.772	18.12
446.974	17.93
447.175	18.16
447.377	17.88
447.579	18.28
447.781	18.03
447.983	17.79
448.184	17.34
448.386	17.68
448.588	17.16
448.79	17.11
448.991	17.53
449.193	17.48
449.395	16.77
449.597	16.48
449.798	16.23
450	15.84
450.202	15.85
450.403	15.75
450.605	15.62
450.806	15.28
451.008	15.15
451.21	14.74
451.411	14.44
451.613	13.56
451.814	13.82
452.016	13.96
452.217	13.18
452.419	13.19
452.62	12.91
452.821	12.54
453.023	12.55
453.224	12.17
453.426	11.68
453.627	10.94
453.828	11.08
454.03	11.12
454.231	11.14
454.432	10.94
454.634	10.79
454.835	10.34
455.036	10.15
455.238	9.86
455.439	9.65
455.64	9.33
455.841	9.26
456.042	9.46
456.244	9.09
456.445	8.83
456.646	8.44
456.847	8.46
457.048	8.42
457.249	8.39
457.45	8.21
457.651	7.67
457.852	7.55
458.054	7.14
458.255	7.16
458.456	7.17
458.657	7.17
458.858	6.68
459.058	6.56
459.259	6.58
459.46	6.39
459.661	6.28
459.862	6.42
460.063	6.24
460.264	6.19
460.465	5.84
460.666	5.98
460.866	5.69
461.067	5.53
461.268	5.49
461.469	5.38
461.67	5.39
461.87	5.12
462.071	5.16
462.272	5.01
462.473	5
462.673	5.27
462.874	5.09
463.075	5.06
463.275	5.09
463.476	5.05
463.676	5.1
463.877	4.89
464.078	4.86
464.278	4.88
464.479	4.79
464.679	4.62
464.88	4.62
465.08	4.63
465.281	4.42
465.481	4.27
465.682	4.12
465.882	4.16
466.083	4.03
466.283	3.95
466.483	3.8
466.684	3.68
466.884	3.58
467.085	3.61
467.285	3.7
467.485	3.58
467.686	3.43
467.886	3.43
468.086	3.3
468.286	3.29
468.487	3.43
468.687	3.22
468.887	3.18
469.087	3.3
469.287	3.25
469.488	3.05
469.688	3.2
469.888	3.2
470.088	3.08
470.288	3.01
470.488	3.06
470.688	2.88
470.888	2.83
471.088	2.66
471.288	2.79
471.488	2.72
471.688	2.71
471.888	2.66
472.088	2.81
472.288	2.68
472.488	2.53
472.688	2.54
472.888	2.56
473.088	2.52
473.288	2.47
473.488	2.38
473.688	2.57
473.887	2.48
474.087	2.42
474.287	2.39
474.487	2.38
474.687	2.39
474.886	2.35
475.086	2.29
475.286	2.34
475.486	2.25
475.685	2.23
475.885	2.2
476.085	2.25
476.284	2.28
476.484	2.23
476.684	2.18
476.883	2.28
477.083	2.17
477.282	2.07
477.482	2.16
477.681	2.15
477.881	2.05
478.08	2.1
478.28	2.03
478.479	2.06
478.679	2.11
478.878	2.03
479.078	2.01
479.277	2.04
479.477	2.06
479.676	2.03
479.875	1.99
480.075	1.93
480.274	2.03
480.473	2.05
480.673	1.99
480.872	2.08
481.071	2
481.271	2.02
481.47	1.97
481.669	1.94
481.868	1.9
482.067	1.97
482.267	1.89
482.466	1.92
482.665	1.93
482.864	1.96
483.063	1.91
483.262	2
483.461	2.06
483.661	2.04
483.86	2.02
484.059	2.03
484.258	2.02
484.457	2
484.656	2.02
484.855	2.11
485.054	1.91
485.253	1.98
485.452	1.92
485.651	2
485.849	2.01
486.048	1.97
486.247	2.03
486.446	2.08
486.645	2
486.844	2.07
487.043	2.03
487.241	2.09
487.44	2.05
487.639	2.13
487.838	2.1
488.037	2.1
488.235	2.21
488.434	2.16
488.633	2.03
488.831	2.19
489.03	2.19
489.229	2.21
489.427	2.21
489.626	2.26
489.825	2.28
490.023	2.34
490.222	2.28
490.42	2.33
490.619	2.35
490.817	2.39
491.016	2.38
491.214	2.43
491.413	2.45
491.611	2.38
491.81	2.38
492.008	2.48
492.207	2.51
492.405	2.53
492.604	2.48
492.802	2.56
493	2.59
493.199	2.61
493.397	2.63
493.595	2.68
493.794	2.65
493.992	2.76
494.19	2.73
494.388	2.82
494.587	2.77
494.785	2.78
494.983	2.69
495.181	2.86
495.379	2.91
495.578	2.94
495.776	2.91
495.974	2.95
496.172	2.92
496.37	3.1
496.568	3.1
496.766	3.08
496.964	3.17
497.162	3.19
497.36	3.21
497.558	3.23
497.756	3.33
497.954	3.28
498.152	3.37
498.35	3.4
498.548	3.38
498.746	3.42
498.944	3.39
499.142	3.47
499.34	3.5
499.538	3.66
499.736	3.53
499.933	3.62
500.131	3.61
500.329	3.78
500.527	3.73
500.725	3.87
500.922	3.91
501.12	3.82
501.318	3.94
501.516	3.94
501.713	4
501.911	3.99
502.109	3.95
502.306	4.11
502.504	4.04
