Data from Apollo_Calib_20240827__AbsoluteIrradiance__744__11-33-02-266.txt Node

Date: Wed Aug 28 11:33:02 BST 2024
User: biology
Spectrometer: FLMT08252
Trigger mode: 0
Integration Time (sec): 5.000000E-1
Scans to average: 5
Electric dark correction enabled: true
Nonlinearity correction enabled: false
Boxcar width: 0
XAxis mode: Wavelengths
Number of Pixels in Spectrum: 3648
>>>>>Begin Spectral Data<<<<<
179.588	-0
179.809	-0
180.03	-0
180.251	-0
180.473	-0
180.694	0
180.915	0
181.136	-0
181.357	0
181.578	-0
181.799	-0
182.02	-0
182.241	0
182.462	-0
182.683	0
182.904	-0
183.125	-0
183.346	0
183.567	0
183.788	0
184.009	0
184.23	0
184.451	0
184.672	0
184.892	0
185.113	0
185.334	0
185.555	0
185.776	0
185.996	0
186.217	0
186.438	0
186.659	0
186.879	0
187.1	0
187.321	0
187.541	0
187.762	0
187.983	0
188.203	0
188.424	0
188.644	0
188.865	0
189.086	0
189.306	0
189.527	0
189.747	0
189.968	0
190.188	0
190.409	0
190.629	0
190.849	0
191.07	0
191.29	0
191.511	0
191.731	0
191.951	0
192.172	0
192.392	0
192.612	0
192.833	0
193.053	0
193.273	0
193.493	0
193.714	0
193.934	0
194.154	0
194.374	0
194.594	0
194.815	0
195.035	0
195.255	0
195.475	0
195.695	0
195.915	0
196.135	0
196.355	0
196.575	0
196.795	0
197.015	0
197.235	0
197.455	0
197.675	0
197.895	0
198.115	0
198.335	0
198.555	0
198.775	0
198.995	0
199.214	0
199.434	0
199.654	0
199.874	0
200.094	2.96
200.313	1.1
200.533	1.49
200.753	0.74
200.973	2.33
201.192	2.3
201.412	0.13
201.632	1.19
201.851	2.26
202.071	0.84
202.291	0.89
202.51	0.73
202.73	1.86
202.95	0.98
203.169	0.6
203.389	1.32
203.608	1.29
203.828	0.91
204.047	0.47
204.267	1.06
204.486	1.24
204.706	1.54
204.925	0.91
205.145	0.7
205.364	1.59
205.583	1.68
205.803	1.02
206.022	0.47
206.242	0.92
206.461	0.9
206.68	0.5
206.9	0.9
207.119	1.47
207.338	1.04
207.557	0.6
207.777	0.82
207.996	0.72
208.215	1.38
208.434	0.66
208.654	0.15
208.873	1.12
209.092	1.52
209.311	0.58
209.53	0.9
209.749	0.35
209.968	0.66
210.187	0.63
210.407	0.46
210.626	0.73
210.845	0.98
211.064	0.74
211.283	0.46
211.502	0.93
211.721	0.66
211.94	0.66
212.159	1.03
212.377	0.92
212.596	0.95
212.815	0.74
213.034	0.57
213.253	0.92
213.472	0.96
213.691	0.75
213.91	0.31
214.128	0.65
214.347	1.07
214.566	0.07
214.785	0.17
215.003	0.8
215.222	0.7
215.441	0.3
215.66	0.02
215.878	0.44
216.097	0.85
216.316	0.35
216.534	0.44
216.753	0.55
216.972	0.46
217.19	0.46
217.409	0.35
217.627	0.34
217.846	0.42
218.064	0.6
218.283	0.19
218.501	0.93
218.72	0.73
218.938	0.37
219.157	0.42
219.375	0.72
219.594	0.64
219.812	0.14
220.031	0.21
220.249	0.78
220.467	0.81
220.686	0.24
220.904	0.14
221.122	0.55
221.341	0.85
221.559	0.51
221.777	0.29
221.995	0.44
222.214	0.69
222.432	0.31
222.65	0.56
222.868	0.48
223.086	0.61
223.305	0.54
223.523	0.35
223.741	0.87
223.959	0.38
224.177	0.12
224.395	0.25
224.613	0.45
224.831	0.54
225.049	0.05
225.267	0.3
225.485	0.47
225.703	0.38
225.921	0.34
226.139	0.2
226.357	0.48
226.575	0.54
226.793	0.27
227.011	1.01
227.229	0.43
227.447	0.56
227.665	0.34
227.883	0.22
228.1	0.18
228.318	0.33
228.536	0.1
228.754	0.21
228.972	0.39
229.189	0.45
229.407	0.24
229.625	0.29
229.843	0.49
230.06	0.48
230.278	0.35
230.496	0.26
230.713	0.22
230.931	0.5
231.149	0.31
231.366	0.15
231.584	0.29
231.801	0.6
232.019	0.2
232.236	0.18
232.454	0.26
232.671	0.42
232.889	0.27
233.106	0.33
233.324	0.27
233.541	0.25
233.759	0.34
233.976	0.21
234.194	0.27
234.411	0.28
234.628	0.12
234.846	0.27
235.063	0.33
235.28	0.31
235.498	0.31
235.715	0.16
235.932	0.46
236.149	0.31
236.367	0.16
236.584	0.33
236.801	0.28
237.018	0.43
237.236	0.34
237.453	0.16
237.67	0.39
237.887	0.31
238.104	0.18
238.321	0.21
238.538	0.19
238.755	0.47
238.973	0.08
239.19	0.34
239.407	0.38
239.624	0.37
239.841	0.13
240.058	0.23
240.275	0.33
240.492	0.26
240.709	0.28
240.925	0.2
241.142	0.35
241.359	0.15
241.576	0.15
241.793	0.24
242.01	0.22
242.227	0.38
242.444	0.24
242.66	0.3
242.877	0.36
243.094	0.27
243.311	0.21
243.527	0.15
243.744	0.27
243.961	0.38
244.178	0.13
244.394	0.29
244.611	0.35
244.828	0.49
245.044	0.21
245.261	0.27
245.477	0.3
245.694	0.32
245.911	0.14
246.127	0.2
246.344	0.37
246.56	0.35
246.777	0.21
246.993	0.2
247.21	0.29
247.426	0.2
247.643	0.2
247.859	0.17
248.076	0.2
248.292	0.47
248.508	0.25
248.725	0.23
248.941	0.19
249.157	0.32
249.374	0.19
249.59	0.31
249.806	0.14
250.023	0.43
250.239	0.14
250.455	0.18
250.671	0.25
250.888	0.23
251.104	0.3
251.32	0.18
251.536	0.16
251.752	0.22
251.969	0.28
252.185	0.25
252.401	0.42
252.617	0.27
252.833	0.22
253.049	0.22
253.265	0.15
253.481	0.3
253.697	0.23
253.913	0.17
254.129	0.22
254.345	0.27
254.561	0.17
254.777	0.16
254.993	0.32
255.209	0.26
255.425	0.18
255.641	0.09
255.857	0.3
256.073	0.2
256.288	0.09
256.504	0.2
256.72	0.25
256.936	0.3
257.152	0.15
257.367	0.16
257.583	0.22
257.799	0.26
258.015	0.19
258.23	0.11
258.446	0.34
258.662	0.2
258.877	0.07
259.093	0.21
259.309	0.24
259.524	0.35
259.74	0.18
259.955	0.13
260.171	0.25
260.387	0.19
260.602	0.27
260.818	0.31
261.033	0.15
261.249	0.19
261.464	0.2
261.68	0.16
261.895	0.22
262.11	0.28
262.326	0.17
262.541	0.13
262.757	0.28
262.972	0.26
263.187	0.14
263.403	0.18
263.618	0.29
263.833	0.31
264.049	0.13
264.264	0.14
264.479	0.17
264.694	0.3
264.91	0.1
265.125	0.14
265.34	0.24
265.555	0.38
265.77	0.23
265.986	0.14
266.201	0.31
266.416	0.34
266.631	0.15
266.846	0.18
267.061	0.17
267.276	0.2
267.491	0.03
267.706	0.21
267.921	0.26
268.136	0.21
268.351	0.27
268.566	0.12
268.781	0.26
268.996	0.22
269.211	0.16
269.426	0.17
269.641	0.15
269.856	0.28
270.071	0.15
270.285	0.05
270.5	0.28
270.715	0.3
270.93	0.16
271.145	0.21
271.359	0.28
271.574	0.17
271.789	0.21
272.004	0.12
272.218	0.08
272.433	0.27
272.648	0.12
272.862	0.29
273.077	0.17
273.292	0.19
273.506	0.14
273.721	0.14
273.936	0.26
274.15	0.29
274.365	0.16
274.579	0.23
274.794	0.2
275.008	0.27
275.223	0.12
275.437	0.16
275.652	0.25
275.866	0.24
276.081	0.2
276.295	0.24
276.509	0.15
276.724	0.16
276.938	0.22
277.153	0.25
277.367	0.2
277.581	0.14
277.796	0.13
278.01	0.12
278.224	0.23
278.438	0.28
278.653	0.13
278.867	0.15
279.081	0
279.295	0.21
279.51	0.2
279.724	0.1
279.938	0.24
280.152	0.18
280.366	0.14
280.58	0.2
280.794	0.24
281.008	0.2
281.222	0.26
281.437	0.33
281.651	0.17
281.865	0.2
282.079	0.12
282.293	0.07
282.507	0.17
282.721	0.18
282.935	0.17
283.148	0.04
283.362	0.15
283.576	0.11
283.79	0.14
284.004	0.12
284.218	0.27
284.432	0.13
284.646	0.17
284.859	0.14
285.073	0.15
285.287	0.18
285.501	0.15
285.714	0.11
285.928	0.15
286.142	0.15
286.356	0.16
286.569	0.17
286.783	0.21
286.997	0.22
287.21	0.18
287.424	0.15
287.637	0.12
287.851	0.16
288.065	0.22
288.278	0.15
288.492	0.2
288.705	0.13
288.919	0.2
289.132	0.07
289.346	0.16
289.559	0.08
289.773	0.08
289.986	0.13
290.2	0.19
290.413	0.2
290.626	0.11
290.84	0.13
291.053	0.12
291.267	0.26
291.48	0.16
291.693	0.19
291.906	0.08
292.12	0.14
292.333	0.14
292.546	0.1
292.76	0.27
292.973	0.22
293.186	0.22
293.399	0.08
293.612	0.23
293.826	0.15
294.039	0.12
294.252	0.17
294.465	0.25
294.678	0.14
294.891	0.19
295.104	0.1
295.317	0.15
295.53	0.18
295.743	0.14
295.956	0.11
296.169	0.25
296.382	0.19
296.595	0.15
296.808	0.13
297.021	0.2
297.234	0.2
297.447	0.12
297.66	0.18
297.873	0.24
298.086	0.19
298.299	0.14
298.511	0.08
298.724	0.15
298.937	0.12
299.15	0.11
299.363	0.17
299.575	0.17
299.788	0.16
300.001	0.11
300.213	0.15
300.426	0.15
300.639	0.13
300.852	0.07
301.064	0.17
301.277	0.25
301.489	0.19
301.702	0.15
301.915	0.19
302.127	0.2
302.34	0.14
302.552	0.12
302.765	0.14
302.977	0.24
303.19	0.11
303.402	0.1
303.615	0.11
303.827	0.08
304.04	0.13
304.252	0.21
304.464	0.13
304.677	0.29
304.889	0.21
305.102	0.11
305.314	0.11
305.526	0.18
305.739	0.21
305.951	0.12
306.163	0.12
306.375	0.2
306.588	0.11
306.8	0.13
307.012	0.12
307.224	0.16
307.436	0.2
307.649	0.09
307.861	0.14
308.073	0.18
308.285	0.16
308.497	0.12
308.709	0.13
308.921	0.13
309.133	0.23
309.346	0.11
309.558	0.11
309.77	0.2
309.982	0.22
310.194	0.18
310.406	0.13
310.617	0.24
310.829	0.17
311.041	0.19
311.253	0.09
311.465	0.12
311.677	0.15
311.889	0.13
312.101	0.12
312.313	0.17
312.524	0.18
312.736	0.06
312.948	0.09
313.16	0.24
313.372	0.19
313.583	0.16
313.795	0.11
314.007	0.11
314.218	0.17
314.43	0.18
314.642	0.11
314.853	0.13
315.065	0.18
315.277	0.14
315.488	0.17
315.7	0.21
315.912	0.19
316.123	0.1
316.335	0.12
316.546	0.26
316.758	0.1
316.969	0.11
317.181	0.13
317.392	0.18
317.604	0.16
317.815	0.12
318.026	0.11
318.238	0.14
318.449	0.19
318.661	0.14
318.872	0.07
319.083	0.09
319.295	0.18
319.506	0.16
319.717	0.12
319.929	0.17
320.14	0.15
320.351	0.15
320.562	0.11
320.774	0.15
320.985	0.19
321.196	0.13
321.407	0.05
321.618	0.19
321.829	0.14
322.041	0.16
322.252	0.14
322.463	0.16
322.674	0.19
322.885	0.1
323.096	0.16
323.307	0.14
323.518	0.17
323.729	0.13
323.94	0.07
324.151	0.13
324.362	0.16
324.573	0.14
324.784	0.16
324.995	0.21
325.206	0.14
325.417	0.11
325.628	0.11
325.838	0.15
326.049	0.16
326.26	0.17
326.471	0.14
326.682	0.2
326.892	0.19
327.103	0.07
327.314	0.12
327.525	0.23
327.735	0.18
327.946	0.12
328.157	0.11
328.368	0.13
328.578	0.16
328.789	0.23
328.999	0.15
329.21	0.11
329.421	0.21
329.631	0.1
329.842	0.11
330.052	0.18
330.263	0.18
330.473	0.17
330.684	0.12
330.894	0.16
331.105	0.16
331.315	0.1
331.526	0.05
331.736	0.21
331.947	0.2
332.157	0.19
332.367	0.09
332.578	0.23
332.788	0.22
332.999	0.22
333.209	0.14
333.419	0.1
333.629	0.18
333.84	0.17
334.05	0.14
334.26	0.23
334.47	0.18
334.681	0.16
334.891	0.15
335.101	0.15
335.311	0.28
335.521	0.19
335.732	0.13
335.942	0.23
336.152	0.2
336.362	0.15
336.572	0.17
336.782	0.19
336.992	0.12
337.202	0.13
337.412	0.1
337.622	0.2
337.832	0.14
338.042	0.17
338.252	0.13
338.462	0.15
338.672	0.15
338.882	0.12
339.092	0.13
339.302	0.24
339.511	0.2
339.721	0.13
339.931	0.08
340.141	0.19
340.351	0.23
340.561	0.18
340.77	0.15
340.98	0.13
341.19	0.19
341.4	0.08
341.609	0.07
341.819	0.16
342.029	0.12
342.238	0.16
342.448	0.08
342.658	0.2
342.867	0.14
343.077	0.15
343.286	0.14
343.496	0.17
343.706	0.22
343.915	0.11
344.125	0.14
344.334	0.14
344.544	0.1
344.753	0.14
344.963	0.15
345.172	0.1
345.381	0.12
345.591	0.09
345.8	0.14
346.01	0.2
346.219	0.19
346.428	0.02
346.638	0.19
346.847	0.18
347.056	0.18
347.266	0.11
347.475	0.14
347.684	0.17
347.893	0.18
348.103	0.21
348.312	0.17
348.521	0.15
348.73	0.11
348.94	0.15
349.149	0.14
349.358	0.1
349.567	0.09
349.776	0.12
349.985	0.12
350.194	0.18
350.403	0.22
350.612	0.09
350.821	0.11
351.03	0.17
351.239	0.1
351.448	0.2
351.657	0.11
351.866	0.23
352.075	0.13
352.284	0.16
352.493	0.07
352.702	0.21
352.911	0.14
353.12	0.15
353.329	0.1
353.538	0.15
353.746	0.15
353.955	0.12
354.164	0.14
354.373	0.11
354.582	0.17
354.79	0.16
354.999	0.18
355.208	0.13
355.416	0.21
355.625	0.08
355.834	0.13
356.042	0.14
356.251	0.14
356.46	0.11
356.668	0.17
356.877	0.23
357.085	0.19
357.294	0.05
357.503	0.17
357.711	0.13
357.92	0.27
358.128	0.14
358.337	0.12
358.545	0.16
358.754	0.11
358.962	0.19
359.17	0.11
359.379	0.15
359.587	0.13
359.796	0.13
360.004	0.18
360.212	0.17
360.421	0.21
360.629	0.13
360.837	0.14
361.046	0.19
361.254	0.31
361.462	0.15
361.67	0.13
361.879	0.13
362.087	0.22
362.295	0.18
362.503	0.11
362.711	0.11
362.92	0.1
363.128	0.1
363.336	0.12
363.544	0.04
363.752	0.12
363.96	0.12
364.168	0.11
364.376	0.13
364.584	0.17
364.792	0.21
365	0.16
365.208	0.15
365.416	0.15
365.624	0.19
365.832	0.13
366.04	0.16
366.248	0.12
366.456	0.16
366.664	0.15
366.872	0.14
367.079	0.18
367.287	0.13
367.495	0.16
367.703	0.18
367.911	0.13
368.118	0.12
368.326	0.17
368.534	0.11
368.742	0.23
368.949	0.04
369.157	0.15
369.365	0.19
369.572	0.11
369.78	0.08
369.988	0.17
370.195	0.18
370.403	0.2
370.61	0.13
370.818	0.14
371.026	0.23
371.233	0.1
371.441	0.13
371.648	0.12
371.856	0.15
372.063	0.13
372.271	0.14
372.478	0.15
372.685	0.13
372.893	0.19
373.1	0.11
373.308	0.12
373.515	0.25
373.722	0.21
373.93	0.15
374.137	0.16
374.344	0.26
374.552	0.22
374.759	0.16
374.966	0.12
375.173	0.15
375.381	0.2
375.588	0.16
375.795	0.07
376.002	0.12
376.209	0.12
376.417	0.14
376.624	0.17
376.831	0.22
377.038	0.15
377.245	0.06
377.452	0.09
377.659	0.17
377.866	0.13
378.073	0.17
378.28	0.12
378.487	0.22
378.694	0.17
378.901	0.14
379.108	0.16
379.315	0.21
379.522	0.26
379.729	0.15
379.936	0.14
380.143	0.18
380.35	0.15
380.557	0.15
380.763	0.15
380.97	0.11
381.177	0.17
381.384	0.18
381.591	0.17
381.797	0.17
382.004	0.2
382.211	0.19
382.418	0.15
382.624	0.19
382.831	0.19
383.038	0.15
383.244	0.2
383.451	0.14
383.658	0.19
383.864	0.12
384.071	0.14
384.277	0.22
384.484	0.15
384.69	0.19
384.897	0.13
385.103	0.18
385.31	0.12
385.516	0.12
385.723	0.12
385.929	0.14
386.136	0.15
386.342	0.16
386.549	0.17
386.755	0.23
386.961	0.22
387.168	0.19
387.374	0.19
387.58	0.18
387.787	0.17
387.993	0.18
388.199	0.17
388.406	0.16
388.612	0.16
388.818	0.13
389.024	0.18
389.231	0.17
389.437	0.23
389.643	0.2
389.849	0.19
390.055	0.2
390.261	0.18
390.467	0.16
390.674	0.12
390.88	0.17
391.086	0.21
391.292	0.14
391.498	0.18
391.704	0.21
391.91	0.17
392.116	0.14
392.322	0.09
392.528	0.21
392.734	0.18
392.94	0.15
393.146	0.17
393.352	0.19
393.557	0.2
393.763	0.16
393.969	0.23
394.175	0.14
394.381	0.19
394.587	0.15
394.792	0.18
394.998	0.23
395.204	0.19
395.41	0.15
395.615	0.2
395.821	0.16
396.027	0.21
396.233	0.14
396.438	0.18
396.644	0.23
396.85	0.22
397.055	0.18
397.261	0.19
397.466	0.21
397.672	0.21
397.878	0.23
398.083	0.19
398.289	0.13
398.494	0.24
398.7	0.23
398.905	0.1
399.111	0.26
399.316	0.16
399.522	0.22
399.727	0.18
399.932	0.19
400.138	0.15
400.343	0.23
400.549	0.22
400.754	0.18
400.959	0.21
401.165	0.21
401.37	0.24
401.575	0.3
401.78	0.24
401.986	0.17
402.191	0.21
402.396	0.22
402.601	0.22
402.807	0.22
403.012	0.22
403.217	0.24
403.422	0.26
403.627	0.24
403.832	0.21
404.037	0.29
404.243	0.26
404.448	0.23
404.653	0.21
404.858	0.25
405.063	0.26
405.268	0.2
405.473	0.22
405.678	0.24
405.883	0.4
406.088	0.3
406.293	0.18
406.498	0.2
406.703	0.33
406.907	0.28
407.112	0.22
407.317	0.27
407.522	0.31
407.727	0.19
407.932	0.27
408.136	0.36
408.341	0.32
408.546	0.33
408.751	0.32
408.956	0.33
409.16	0.41
409.365	0.33
409.57	0.35
409.774	0.35
409.979	0.43
410.184	0.38
410.388	0.3
410.593	0.38
410.798	0.4
411.002	0.37
411.207	0.44
411.411	0.42
411.616	0.45
411.82	0.47
412.025	0.48
412.229	0.47
412.434	0.55
412.638	0.5
412.843	0.49
413.047	0.51
413.252	0.48
413.456	0.54
413.66	0.55
413.865	0.57
414.069	0.7
414.273	0.57
414.478	0.61
414.682	0.66
414.886	0.66
415.091	0.6
415.295	0.64
415.499	0.77
415.703	0.71
415.908	0.8
416.112	0.66
416.316	0.83
416.52	0.8
416.724	0.88
416.929	0.8
417.133	1.05
417.337	0.95
417.541	0.97
417.745	0.99
417.949	1.05
418.153	1.09
418.357	1.11
418.561	1.21
418.765	1.18
418.969	1.32
419.173	1.34
419.377	1.3
419.581	1.44
419.785	1.43
419.989	1.39
420.193	1.55
420.397	1.55
420.601	1.67
420.804	1.72
421.008	1.66
421.212	1.83
421.416	1.83
421.62	1.8
421.823	1.79
422.027	1.95
422.231	1.9
422.435	1.9
422.638	1.99
422.842	1.99
423.046	2.06
423.249	2.16
423.453	2.25
423.657	2.3
423.86	2.32
424.064	2.47
424.268	2.51
424.471	2.45
424.675	2.67
424.878	2.66
425.082	2.71
425.285	2.94
425.489	2.87
425.692	2.9
425.896	2.93
426.099	3.02
426.303	3.08
426.506	3.11
426.71	3.32
426.913	3.47
427.116	3.54
427.32	3.5
427.523	3.59
427.726	3.84
427.93	3.83
428.133	3.96
428.336	4.06
428.54	4.16
428.743	4.25
428.946	4.35
429.149	4.32
429.353	4.49
429.556	4.54
429.759	4.5
429.962	4.5
430.165	4.79
430.368	4.53
430.571	4.49
430.775	4.55
430.978	4.55
431.181	4.59
431.384	4.69
431.587	4.67
431.79	4.88
431.993	4.89
432.196	4.99
432.399	5.21
432.602	5.35
432.805	5.35
433.008	5.67
433.211	5.57
433.414	5.81
433.616	5.88
433.819	5.82
434.022	5.88
434.225	6.03
434.428	6.1
434.631	6.34
434.833	6.15
435.036	6.29
435.239	6.44
435.442	6.51
435.645	6.58
435.847	6.76
436.05	6.87
436.253	7.01
436.455	6.87
436.658	6.86
436.861	7.15
437.063	7.1
437.266	7.22
437.468	7.36
437.671	7.6
437.874	7.61
438.076	7.44
438.279	7.72
438.481	7.74
438.684	8.18
438.886	8.05
439.089	8.18
439.291	8.34
439.494	8.46
439.696	8.58
439.899	8.97
440.101	9.14
440.303	9.15
440.506	9.77
440.708	9.52
440.91	9.78
441.113	9.91
441.315	9.99
441.517	9.91
441.72	10.27
441.922	10.03
442.124	9.97
442.326	10.25
442.529	10.49
442.731	10.41
442.933	10.76
443.135	10.52
443.337	10.57
443.539	10.84
443.742	10.63
443.944	11.11
444.146	10.96
444.348	10.94
444.55	10.92
444.752	11.18
444.954	11.01
445.156	11.09
445.358	11.4
445.56	11.5
445.762	11.52
445.964	11.65
446.166	11.52
446.368	11.42
446.57	11.56
446.772	11.31
446.974	11.22
447.175	11.46
447.377	11.27
447.579	11.49
447.781	11.36
447.983	11.25
448.184	10.99
448.386	11.27
448.588	10.77
448.79	10.92
448.991	11.23
449.193	11.1
449.395	10.78
449.597	10.53
449.798	10.52
450	10.3
450.202	10.2
450.403	10.26
450.605	10.21
450.806	9.85
451.008	9.75
451.21	9.73
451.411	9.37
451.613	8.95
451.814	9.1
452.016	9
452.217	8.5
452.419	8.64
452.62	8.39
452.821	8.26
453.023	8.14
453.224	7.87
453.426	7.66
453.627	7.09
453.828	7.24
454.03	7.27
454.231	7.16
454.432	7.09
454.634	7.04
454.835	6.71
455.036	6.62
455.238	6.44
455.439	6.37
455.64	6.1
455.841	6.02
456.042	6.15
456.244	5.92
456.445	5.7
456.646	5.43
456.847	5.46
457.048	5.36
457.249	5.37
457.45	5.37
457.651	4.87
457.852	4.71
458.054	4.57
458.255	4.54
458.456	4.64
458.657	4.52
458.858	4.32
459.058	4.2
459.259	4.32
459.46	4.03
459.661	4.06
459.862	4.17
460.063	3.97
460.264	3.9
460.465	3.73
460.666	3.87
460.866	3.62
461.067	3.46
461.268	3.48
461.469	3.46
461.67	3.38
461.87	3.3
462.071	3.3
462.272	3.26
462.473	3.22
462.673	3.31
462.874	3.22
463.075	3.2
463.275	3.2
463.476	3.21
463.676	3.19
463.877	3.12
464.078	3.1
464.278	3.18
464.479	3.09
464.679	3
464.88	3
465.08	2.97
465.281	2.79
465.481	2.77
465.682	2.65
465.882	2.65
466.083	2.55
466.283	2.6
466.483	2.47
466.684	2.3
466.884	2.23
467.085	2.27
467.285	2.32
467.485	2.25
467.686	2.15
467.886	2.16
468.086	2.1
468.286	2.08
468.487	2.21
468.687	2
468.887	2.01
469.087	2.11
469.287	2.06
469.488	1.9
469.688	2.03
469.888	1.99
470.088	1.97
470.288	1.9
470.488	1.92
470.688	1.78
470.888	1.75
471.088	1.66
471.288	1.76
471.488	1.67
471.688	1.74
471.888	1.67
472.088	1.75
472.288	1.71
472.488	1.62
472.688	1.57
472.888	1.65
473.088	1.59
473.288	1.54
473.488	1.51
473.688	1.68
473.887	1.54
474.087	1.49
474.287	1.51
474.487	1.48
474.687	1.47
474.886	1.46
475.086	1.44
475.286	1.44
475.486	1.43
475.685	1.31
475.885	1.33
476.085	1.38
476.284	1.38
476.484	1.32
476.684	1.34
476.883	1.44
477.083	1.36
477.282	1.31
477.482	1.31
477.681	1.31
477.881	1.29
478.08	1.28
478.28	1.25
478.479	1.32
478.679	1.38
478.878	1.26
479.078	1.24
479.277	1.26
479.477	1.26
479.676	1.23
479.875	1.22
480.075	1.17
480.274	1.23
480.473	1.29
480.673	1.21
480.872	1.29
481.071	1.24
481.271	1.24
481.47	1.24
481.669	1.21
481.868	1.19
482.067	1.21
482.267	1.17
482.466	1.14
482.665	1.15
482.864	1.19
483.063	1.16
483.262	1.23
483.461	1.26
483.661	1.28
483.86	1.22
484.059	1.24
484.258	1.27
484.457	1.19
484.656	1.24
484.855	1.3
485.054	1.15
485.253	1.17
485.452	1.16
485.651	1.26
485.849	1.22
486.048	1.21
486.247	1.24
486.446	1.28
486.645	1.21
486.844	1.23
487.043	1.24
487.241	1.27
487.44	1.25
487.639	1.31
487.838	1.3
488.037	1.3
488.235	1.38
488.434	1.31
488.633	1.22
488.831	1.38
489.03	1.38
489.229	1.35
489.427	1.34
489.626	1.39
489.825	1.4
490.023	1.44
490.222	1.37
490.42	1.43
490.619	1.44
490.817	1.45
491.016	1.43
491.214	1.54
491.413	1.52
491.611	1.45
491.81	1.46
492.008	1.5
492.207	1.57
492.405	1.55
492.604	1.5
492.802	1.58
493	1.61
493.199	1.59
493.397	1.61
493.595	1.68
493.794	1.62
493.992	1.72
494.19	1.68
494.388	1.71
494.587	1.69
494.785	1.74
494.983	1.66
495.181	1.77
495.379	1.79
495.578	1.8
495.776	1.85
495.974	1.81
496.172	1.83
496.37	1.92
496.568	1.89
496.766	1.88
496.964	1.97
497.162	1.97
497.36	1.99
497.558	2.02
497.756	2.06
497.954	2.02
498.152	2.08
498.35	2.15
498.548	2.07
498.746	2.15
498.944	2.11
499.142	2.13
499.34	2.13
499.538	2.27
499.736	2.14
499.933	2.29
500.131	2.24
500.329	2.33
500.527	2.3
500.725	2.43
500.922	2.43
501.12	2.38
501.318	2.44
501.516	2.42
501.713	2.54
501.911	2.52
502.109	2.46
502.306	2.54
502.504	2.49
502.701	2.56
502.899	2.58
503.097	2.73
503.294	2.64
503.492	2.71
503.689	2.71
