Data from Apollo_Calib_20240827__AbsoluteIrradiance__7__23-16-02-659.txt Node

Date: Tue Aug 27 23:16:02 BST 2024
User: biology
Spectrometer: FLMT08252
Trigger mode: 0
Integration Time (sec): 5.000000E-1
Scans to average: 5
Electric dark correction enabled: true
Nonlinearity correction enabled: false
Boxcar width: 0
XAxis mode: Wavelengths
Number of Pixels in Spectrum: 3648
>>>>>Begin Spectral Data<<<<<
179.588	-0
179.809	-0
180.03	-0
180.251	-0
180.473	-0
180.694	0
180.915	0
181.136	-0
181.357	-0
181.578	0
181.799	-0
182.02	-0
182.241	0
182.462	-0
182.683	0
182.904	-0
183.125	-0
183.346	0
183.567	0
183.788	0
184.009	0
184.23	0
184.451	0
184.672	0
184.892	0
185.113	0
185.334	0
185.555	0
185.776	0
185.996	0
186.217	0
186.438	0
186.659	0
186.879	0
187.1	0
187.321	0
187.541	0
187.762	0
187.983	0
188.203	0
188.424	0
188.644	0
188.865	0
189.086	0
189.306	0
189.527	0
189.747	0
189.968	0
190.188	0
190.409	0
190.629	0
190.849	0
191.07	0
191.29	0
191.511	0
191.731	0
191.951	0
192.172	0
192.392	0
192.612	0
192.833	0
193.053	0
193.273	0
193.493	0
193.714	0
193.934	0
194.154	0
194.374	0
194.594	0
194.815	0
195.035	0
195.255	0
195.475	0
195.695	0
195.915	0
196.135	0
196.355	0
196.575	0
196.795	0
197.015	0
197.235	0
197.455	0
197.675	0
197.895	0
198.115	0
198.335	0
198.555	0
198.775	0
198.995	0
199.214	0
199.434	0
199.654	0
199.874	0
200.094	3.7
200.313	2.6
200.533	3.33
200.753	2.28
200.973	2.9
201.192	2.71
201.412	1.45
201.632	2.25
201.851	3.1
202.071	1.87
202.291	1.66
202.51	1.51
202.73	2.38
202.95	2.29
203.169	1.74
203.389	1.88
203.608	2.07
203.828	1.07
204.047	2.32
204.267	2.51
204.486	2.18
204.706	1.7
204.925	1.85
205.145	1.59
205.364	2.06
205.583	2.21
205.803	1.7
206.022	1.51
206.242	1.66
206.461	1.48
206.68	1.23
206.9	2.16
207.119	1.92
207.338	2.03
207.557	1.53
207.777	1.63
207.996	1.24
208.215	1.86
208.434	1.28
208.654	1.23
208.873	1.47
209.092	1.83
209.311	1
209.53	1.46
209.749	1.42
209.968	1.21
210.187	1.28
210.407	1.05
210.626	1.12
210.845	1.26
211.064	1.16
211.283	1.15
211.502	1.5
211.721	1.36
211.94	1.28
212.159	1.43
212.377	1.35
212.596	1.51
212.815	1.11
213.034	1.28
213.253	1.08
213.472	1.11
213.691	0.94
213.91	0.92
214.128	1.06
214.347	1.27
214.566	0.7
214.785	0.78
215.003	1.3
215.222	1.22
215.441	1.02
215.66	0.8
215.878	0.9
216.097	1.2
216.316	0.79
216.534	0.99
216.753	0.82
216.972	0.85
217.19	0.89
217.409	0.87
217.627	0.85
217.846	0.81
218.064	1.03
218.283	0.72
218.501	1.27
218.72	1.13
218.938	0.61
219.157	0.68
219.375	0.95
219.594	0.78
219.812	0.51
220.031	0.55
220.249	1.12
220.467	1.13
220.686	0.8
220.904	0.65
221.122	0.46
221.341	1.02
221.559	0.88
221.777	0.82
221.995	0.64
222.214	0.75
222.432	0.71
222.65	0.81
222.868	0.86
223.086	0.78
223.305	1.02
223.523	0.82
223.741	1.12
223.959	0.59
224.177	0.46
224.395	0.67
224.613	0.82
224.831	0.85
225.049	0.62
225.267	0.7
225.485	0.78
225.703	0.6
225.921	0.66
226.139	0.66
226.357	0.82
226.575	0.68
226.793	0.67
227.011	1.14
227.229	0.68
227.447	0.78
227.665	0.71
227.883	0.48
228.1	0.73
228.318	0.62
228.536	0.44
228.754	0.49
228.972	0.65
229.189	0.73
229.407	0.57
229.625	0.58
229.843	0.84
230.06	0.8
230.278	0.63
230.496	0.7
230.713	0.64
230.931	0.66
231.149	0.57
231.366	0.34
231.584	0.58
231.801	0.9
232.019	0.59
232.236	0.51
232.454	0.42
232.671	0.73
232.889	0.69
233.106	0.47
233.324	0.6
233.541	0.5
233.759	0.69
233.976	0.45
234.194	0.54
234.411	0.54
234.628	0.55
234.846	0.5
235.063	0.46
235.28	0.42
235.498	0.72
235.715	0.44
235.932	0.76
236.149	0.54
236.367	0.5
236.584	0.53
236.801	0.46
237.018	0.59
237.236	0.61
237.453	0.39
237.67	0.6
237.887	0.45
238.104	0.43
238.321	0.39
238.538	0.46
238.755	0.57
238.973	0.35
239.19	0.47
239.407	0.55
239.624	0.51
239.841	0.41
240.058	0.51
240.275	0.56
240.492	0.38
240.709	0.59
240.925	0.52
241.142	0.52
241.359	0.4
241.576	0.41
241.793	0.47
242.01	0.53
242.227	0.5
242.444	0.55
242.66	0.57
242.877	0.52
243.094	0.5
243.311	0.49
243.527	0.48
243.744	0.46
243.961	0.59
244.178	0.41
244.394	0.45
244.611	0.64
244.828	0.53
245.044	0.38
245.261	0.42
245.477	0.48
245.694	0.39
245.911	0.45
246.127	0.43
246.344	0.45
246.56	0.44
246.777	0.36
246.993	0.46
247.21	0.53
247.426	0.47
247.643	0.45
247.859	0.41
248.076	0.39
248.292	0.65
248.508	0.4
248.725	0.46
248.941	0.47
249.157	0.54
249.374	0.38
249.59	0.37
249.806	0.4
250.023	0.43
250.239	0.4
250.455	0.4
250.671	0.41
250.888	0.45
251.104	0.4
251.32	0.44
251.536	0.42
251.752	0.33
251.969	0.55
252.185	0.51
252.401	0.61
252.617	0.51
252.833	0.38
253.049	0.38
253.265	0.44
253.481	0.48
253.697	0.45
253.913	0.34
254.129	0.4
254.345	0.38
254.561	0.39
254.777	0.4
254.993	0.5
255.209	0.46
255.425	0.43
255.641	0.33
255.857	0.49
256.073	0.35
256.288	0.33
256.504	0.39
256.72	0.38
256.936	0.51
257.152	0.37
257.367	0.29
257.583	0.41
257.799	0.45
258.015	0.34
258.23	0.35
258.446	0.48
258.662	0.37
258.877	0.41
259.093	0.36
259.309	0.42
259.524	0.33
259.74	0.38
259.955	0.36
260.171	0.41
260.387	0.3
260.602	0.42
260.818	0.46
261.033	0.3
261.249	0.33
261.464	0.38
261.68	0.31
261.895	0.33
262.11	0.41
262.326	0.31
262.541	0.29
262.757	0.41
262.972	0.39
263.187	0.43
263.403	0.39
263.618	0.39
263.833	0.39
264.049	0.35
264.264	0.37
264.479	0.42
264.694	0.46
264.91	0.3
265.125	0.33
265.34	0.4
265.555	0.49
265.77	0.38
265.986	0.31
266.201	0.44
266.416	0.4
266.631	0.32
266.846	0.36
267.061	0.4
267.276	0.43
267.491	0.25
267.706	0.41
267.921	0.36
268.136	0.37
268.351	0.41
268.566	0.28
268.781	0.43
268.996	0.4
269.211	0.37
269.426	0.32
269.641	0.35
269.856	0.34
270.071	0.31
270.285	0.29
270.5	0.38
270.715	0.41
270.93	0.29
271.145	0.4
271.359	0.4
271.574	0.25
271.789	0.35
272.004	0.37
272.218	0.35
272.433	0.41
272.648	0.25
272.862	0.43
273.077	0.36
273.292	0.31
273.506	0.29
273.721	0.34
273.936	0.35
274.15	0.36
274.365	0.31
274.579	0.38
274.794	0.37
275.008	0.4
275.223	0.2
275.437	0.32
275.652	0.45
275.866	0.33
276.081	0.25
276.295	0.38
276.509	0.37
276.724	0.37
276.938	0.31
277.153	0.36
277.367	0.38
277.581	0.33
277.796	0.24
278.01	0.28
278.224	0.37
278.438	0.45
278.653	0.24
278.867	0.32
279.081	0.32
279.295	0.36
279.51	0.34
279.724	0.2
279.938	0.34
280.152	0.3
280.366	0.29
280.58	0.33
280.794	0.35
281.008	0.34
281.222	0.3
281.437	0.39
281.651	0.29
281.865	0.36
282.079	0.28
282.293	0.21
282.507	0.34
282.721	0.3
282.935	0.29
283.148	0.24
283.362	0.3
283.576	0.25
283.79	0.26
284.004	0.29
284.218	0.32
284.432	0.22
284.646	0.26
284.859	0.26
285.073	0.27
285.287	0.3
285.501	0.29
285.714	0.29
285.928	0.3
286.142	0.29
286.356	0.29
286.569	0.3
286.783	0.31
286.997	0.37
287.21	0.3
287.424	0.29
287.637	0.33
287.851	0.24
288.065	0.37
288.278	0.26
288.492	0.31
288.705	0.31
288.919	0.28
289.132	0.27
289.346	0.36
289.559	0.21
289.773	0.29
289.986	0.26
290.2	0.31
290.413	0.34
290.626	0.28
290.84	0.26
291.053	0.29
291.267	0.36
291.48	0.33
291.693	0.27
291.906	0.3
292.12	0.27
292.333	0.26
292.546	0.25
292.76	0.32
292.973	0.3
293.186	0.3
293.399	0.23
293.612	0.33
293.826	0.28
294.039	0.27
294.252	0.31
294.465	0.32
294.678	0.24
294.891	0.24
295.104	0.23
295.317	0.3
295.53	0.3
295.743	0.27
295.956	0.31
296.169	0.35
296.382	0.32
296.595	0.28
296.808	0.2
297.021	0.33
297.234	0.29
297.447	0.28
297.66	0.32
297.873	0.32
298.086	0.22
298.299	0.24
298.511	0.18
298.724	0.3
298.937	0.25
299.15	0.21
299.363	0.28
299.575	0.26
299.788	0.29
300.001	0.25
300.213	0.23
300.426	0.25
300.639	0.27
300.852	0.25
301.064	0.28
301.277	0.32
301.489	0.28
301.702	0.29
301.915	0.29
302.127	0.26
302.34	0.27
302.552	0.28
302.765	0.27
302.977	0.3
303.19	0.2
303.402	0.24
303.615	0.28
303.827	0.22
304.04	0.27
304.252	0.31
304.464	0.25
304.677	0.34
304.889	0.3
305.102	0.25
305.314	0.23
305.526	0.25
305.739	0.24
305.951	0.23
306.163	0.28
306.375	0.34
306.588	0.23
306.8	0.24
307.012	0.23
307.224	0.28
307.436	0.27
307.649	0.2
307.861	0.21
308.073	0.24
308.285	0.24
308.497	0.22
308.709	0.28
308.921	0.31
309.133	0.27
309.346	0.28
309.558	0.26
309.77	0.27
309.982	0.29
310.194	0.33
310.406	0.22
310.617	0.33
310.829	0.27
311.041	0.25
311.253	0.23
311.465	0.26
311.677	0.25
311.889	0.25
312.101	0.22
312.313	0.29
312.524	0.29
312.736	0.23
312.948	0.26
313.16	0.33
313.372	0.25
313.583	0.26
313.795	0.26
314.007	0.25
314.218	0.23
314.43	0.25
314.642	0.22
314.853	0.26
315.065	0.27
315.277	0.26
315.488	0.27
315.7	0.3
315.912	0.27
316.123	0.27
316.335	0.23
316.546	0.32
316.758	0.24
316.969	0.25
317.181	0.28
317.392	0.27
317.604	0.31
317.815	0.2
318.026	0.25
318.238	0.22
318.449	0.27
318.661	0.21
318.872	0.21
319.083	0.22
319.295	0.27
319.506	0.25
319.717	0.28
319.929	0.28
320.14	0.22
320.351	0.31
320.562	0.23
320.774	0.22
320.985	0.23
321.196	0.21
321.407	0.18
321.618	0.27
321.829	0.26
322.041	0.28
322.252	0.23
322.463	0.26
322.674	0.31
322.885	0.24
323.096	0.24
323.307	0.25
323.518	0.26
323.729	0.22
323.94	0.24
324.151	0.2
324.362	0.24
324.573	0.27
324.784	0.23
324.995	0.29
325.206	0.3
325.417	0.21
325.628	0.29
325.838	0.26
326.049	0.25
326.26	0.3
326.471	0.22
326.682	0.3
326.892	0.25
327.103	0.24
327.314	0.18
327.525	0.34
327.735	0.23
327.946	0.23
328.157	0.26
328.368	0.29
328.578	0.24
328.789	0.29
328.999	0.24
329.21	0.27
329.421	0.25
329.631	0.24
329.842	0.25
330.052	0.27
330.263	0.27
330.473	0.25
330.684	0.22
330.894	0.23
331.105	0.25
331.315	0.25
331.526	0.23
331.736	0.33
331.947	0.31
332.157	0.28
332.367	0.23
332.578	0.28
332.788	0.35
332.999	0.26
333.209	0.26
333.419	0.21
333.629	0.24
333.84	0.25
334.05	0.26
334.26	0.32
334.47	0.29
334.681	0.28
334.891	0.23
335.101	0.27
335.311	0.31
335.521	0.28
335.732	0.22
335.942	0.28
336.152	0.26
336.362	0.3
336.572	0.26
336.782	0.29
336.992	0.25
337.202	0.27
337.412	0.21
337.622	0.27
337.832	0.25
338.042	0.27
338.252	0.19
338.462	0.21
338.672	0.29
338.882	0.26
339.092	0.24
339.302	0.3
339.511	0.26
339.721	0.23
339.931	0.24
340.141	0.27
340.351	0.27
340.561	0.32
340.77	0.27
340.98	0.22
341.19	0.29
341.4	0.23
341.609	0.23
341.819	0.29
342.029	0.28
342.238	0.28
342.448	0.22
342.658	0.25
342.867	0.26
343.077	0.27
343.286	0.24
343.496	0.26
343.706	0.31
343.915	0.19
344.125	0.24
344.334	0.29
344.544	0.16
344.753	0.25
344.963	0.24
345.172	0.25
345.381	0.16
345.591	0.25
345.8	0.26
346.01	0.29
346.219	0.25
346.428	0.13
346.638	0.25
346.847	0.24
347.056	0.32
347.266	0.21
347.475	0.28
347.684	0.28
347.893	0.28
348.103	0.28
348.312	0.26
348.521	0.27
348.73	0.24
348.94	0.28
349.149	0.25
349.358	0.25
349.567	0.2
349.776	0.21
349.985	0.26
350.194	0.28
350.403	0.22
350.612	0.22
350.821	0.24
351.03	0.24
351.239	0.17
351.448	0.23
351.657	0.22
351.866	0.36
352.075	0.25
352.284	0.31
352.493	0.21
352.702	0.28
352.911	0.26
353.12	0.28
353.329	0.24
353.538	0.3
353.746	0.27
353.955	0.23
354.164	0.29
354.373	0.24
354.582	0.27
354.79	0.26
354.999	0.27
355.208	0.24
355.416	0.26
355.625	0.25
355.834	0.26
356.042	0.26
356.251	0.21
356.46	0.2
356.668	0.23
356.877	0.29
357.085	0.29
357.294	0.18
357.503	0.27
357.711	0.23
357.92	0.39
358.128	0.27
358.337	0.25
358.545	0.26
358.754	0.2
358.962	0.29
359.17	0.22
359.379	0.24
359.587	0.26
359.796	0.21
360.004	0.27
360.212	0.25
360.421	0.28
360.629	0.21
360.837	0.25
361.046	0.28
361.254	0.31
361.462	0.27
361.67	0.24
361.879	0.28
362.087	0.29
362.295	0.25
362.503	0.22
362.711	0.18
362.92	0.26
363.128	0.16
363.336	0.24
363.544	0.18
363.752	0.26
363.96	0.24
364.168	0.22
364.376	0.26
364.584	0.28
364.792	0.29
365	0.25
365.208	0.24
365.416	0.28
365.624	0.31
365.832	0.25
366.04	0.28
366.248	0.23
366.456	0.24
366.664	0.28
366.872	0.25
367.079	0.22
367.287	0.24
367.495	0.28
367.703	0.25
367.911	0.23
368.118	0.24
368.326	0.25
368.534	0.22
368.742	0.3
368.949	0.18
369.157	0.22
369.365	0.24
369.572	0.21
369.78	0.21
369.988	0.3
370.195	0.25
370.403	0.27
370.61	0.22
370.818	0.27
371.026	0.31
371.233	0.24
371.441	0.26
371.648	0.27
371.856	0.27
372.063	0.23
372.271	0.26
372.478	0.27
372.685	0.22
372.893	0.29
373.1	0.24
373.308	0.25
373.515	0.3
373.722	0.23
373.93	0.23
374.137	0.3
374.344	0.32
374.552	0.27
374.759	0.28
374.966	0.23
375.173	0.25
375.381	0.28
375.588	0.26
375.795	0.16
376.002	0.22
376.209	0.2
376.417	0.25
376.624	0.28
376.831	0.28
377.038	0.26
377.245	0.2
377.452	0.3
377.659	0.24
377.866	0.23
378.073	0.27
378.28	0.24
378.487	0.26
378.694	0.28
378.901	0.26
379.108	0.23
379.315	0.29
379.522	0.37
379.729	0.27
379.936	0.24
380.143	0.28
380.35	0.25
380.557	0.27
380.763	0.3
380.97	0.27
381.177	0.29
381.384	0.29
381.591	0.27
381.797	0.3
382.004	0.26
382.211	0.31
382.418	0.3
382.624	0.28
382.831	0.31
383.038	0.29
383.244	0.29
383.451	0.25
383.658	0.29
383.864	0.27
384.071	0.23
384.277	0.37
384.484	0.25
384.69	0.28
384.897	0.24
385.103	0.29
385.31	0.25
385.516	0.26
385.723	0.25
385.929	0.25
386.136	0.23
386.342	0.27
386.549	0.25
386.755	0.32
386.961	0.27
387.168	0.27
387.374	0.34
387.58	0.32
387.787	0.31
387.993	0.33
388.199	0.29
388.406	0.23
388.612	0.31
388.818	0.25
389.024	0.22
389.231	0.34
389.437	0.35
389.643	0.32
389.849	0.26
390.055	0.31
390.261	0.31
390.467	0.31
390.674	0.24
390.88	0.3
391.086	0.29
391.292	0.28
391.498	0.31
391.704	0.3
391.91	0.29
392.116	0.27
392.322	0.23
392.528	0.37
392.734	0.27
392.94	0.29
393.146	0.28
393.352	0.31
393.557	0.34
393.763	0.32
393.969	0.3
394.175	0.31
394.381	0.34
394.587	0.24
394.792	0.26
394.998	0.31
395.204	0.35
395.41	0.31
395.615	0.37
395.821	0.35
396.027	0.34
396.233	0.23
396.438	0.32
396.644	0.38
396.85	0.38
397.055	0.33
397.261	0.35
397.466	0.33
397.672	0.33
397.878	0.4
398.083	0.33
398.289	0.28
398.494	0.36
398.7	0.31
398.905	0.27
399.111	0.35
399.316	0.31
399.522	0.35
399.727	0.32
399.932	0.33
400.138	0.29
400.343	0.32
400.549	0.32
400.754	0.31
400.959	0.37
401.165	0.37
401.37	0.38
401.575	0.45
401.78	0.34
401.986	0.32
402.191	0.37
402.396	0.4
402.601	0.41
402.807	0.41
403.012	0.37
403.217	0.43
403.422	0.36
403.627	0.41
403.832	0.44
404.037	0.43
404.243	0.38
404.448	0.44
404.653	0.4
404.858	0.45
405.063	0.45
405.268	0.4
405.473	0.43
405.678	0.41
405.883	0.51
406.088	0.51
406.293	0.4
406.498	0.46
406.703	0.49
406.907	0.46
407.112	0.45
407.317	0.47
407.522	0.56
407.727	0.47
407.932	0.55
408.136	0.63
408.341	0.54
408.546	0.57
408.751	0.59
408.956	0.59
409.16	0.6
409.365	0.56
409.57	0.63
409.774	0.63
409.979	0.67
410.184	0.7
410.388	0.6
410.593	0.74
410.798	0.67
411.002	0.7
411.207	0.78
411.411	0.79
411.616	0.75
411.82	0.76
412.025	0.85
412.229	0.83
412.434	0.87
412.638	0.84
412.843	0.91
413.047	0.98
413.252	0.89
413.456	0.95
413.66	1
413.865	1.02
414.069	1.14
414.273	1.14
414.478	1.13
414.682	1.16
414.886	1.16
415.091	1.17
415.295	1.19
415.499	1.34
415.703	1.31
415.908	1.48
416.112	1.33
416.316	1.58
416.52	1.56
416.724	1.54
416.929	1.57
417.133	1.76
417.337	1.66
417.541	1.78
417.745	1.78
417.949	1.93
418.153	2.02
418.357	1.95
418.561	2.18
418.765	2.14
418.969	2.21
419.173	2.36
419.377	2.32
419.581	2.57
419.785	2.56
419.989	2.56
420.193	2.76
420.397	2.77
420.601	2.93
420.804	3.01
421.008	2.97
421.212	3.13
421.416	3.15
421.62	3.18
421.823	3.26
422.027	3.4
422.231	3.32
422.435	3.46
422.638	3.49
422.842	3.58
423.046	3.62
423.249	3.9
423.453	3.82
423.657	3.94
423.86	4.1
424.064	4.22
424.268	4.37
424.471	4.31
424.675	4.59
424.878	4.64
425.082	4.84
425.285	5.11
425.489	4.93
425.692	5.16
425.896	5.08
426.099	5.36
426.303	5.51
426.506	5.71
426.71	5.82
426.913	6.01
427.116	6.15
427.32	6.2
427.523	6.29
427.726	6.57
427.93	6.64
428.133	7.04
428.336	7.09
428.54	7.12
428.743	7.48
428.946	7.7
429.149	7.73
429.353	7.81
429.556	7.88
429.759	7.93
429.962	8.05
430.165	8.2
430.368	7.8
430.571	7.87
430.775	8.01
430.978	7.97
431.181	7.93
431.384	8.13
431.587	8.2
431.79	8.55
431.993	8.41
432.196	8.87
432.399	9.22
432.602	9.27
432.805	9.37
433.008	9.86
433.211	9.75
433.414	10.01
433.616	10.06
433.819	10.07
434.022	10.32
434.225	10.3
434.428	10.6
434.631	10.89
434.833	10.63
435.036	10.98
435.239	11.19
435.442	11.29
435.645	11.4
435.847	11.46
436.05	11.77
436.253	11.95
436.455	12.04
436.658	11.86
436.861	12.17
437.063	12.44
437.266	12.34
437.468	12.55
437.671	12.88
437.874	12.98
438.076	12.83
438.279	13.35
438.481	13.32
438.684	14.08
438.886	13.73
439.089	14.08
439.291	14.01
439.494	14.42
439.696	14.62
439.899	15.1
440.101	15.49
440.303	15.81
440.506	16.49
440.708	16.03
440.91	16.32
441.113	16.61
441.315	16.92
441.517	16.55
441.72	17.07
441.922	16.7
442.124	16.65
442.326	17.07
442.529	17.29
442.731	17.19
442.933	17.6
443.135	17.35
443.337	17.42
443.539	17.91
443.742	17.56
443.944	18.27
444.146	18.01
444.348	17.88
444.55	17.98
444.752	18
444.954	18.04
445.156	18.01
445.358	18.47
445.56	18.58
445.762	18.39
445.964	18.81
446.166	18.48
446.368	18.61
446.57	18.55
446.772	18.21
446.974	17.97
447.175	18.38
447.377	17.97
447.579	18.42
447.781	18
447.983	17.79
448.184	17.45
448.386	17.86
448.588	17.37
448.79	17.18
448.991	17.55
449.193	17.66
449.395	16.93
449.597	16.65
449.798	16.5
450	16.24
450.202	15.91
450.403	16.08
450.605	15.94
450.806	15.53
451.008	15.43
451.21	15.22
451.411	14.85
451.613	14
451.814	14.19
452.016	14.19
452.217	13.54
452.419	13.47
452.62	13.19
452.821	13.05
453.023	12.84
453.224	12.6
453.426	12.03
453.627	11.2
453.828	11.44
454.03	11.54
454.231	11.45
454.432	11.36
454.634	10.96
454.835	10.73
455.036	10.65
455.238	10.09
455.439	9.95
455.64	9.74
455.841	9.52
456.042	9.6
456.244	9.43
456.445	9.18
456.646	8.87
456.847	8.7
457.048	8.6
457.249	8.64
457.45	8.22
457.651	7.91
457.852	7.66
458.054	7.47
458.255	7.42
458.456	7.41
458.657	7.34
458.858	6.97
459.058	6.8
459.259	6.8
459.46	6.5
459.661	6.57
459.862	6.55
460.063	6.51
460.264	6.34
460.465	6.11
460.666	6.17
460.866	5.9
461.067	5.64
461.268	5.6
461.469	5.61
461.67	5.42
461.87	5.36
462.071	5.38
462.272	5.23
462.473	5.18
462.673	5.3
462.874	5.23
463.075	5.26
463.275	5.15
463.476	5.27
463.676	5.24
463.877	5.05
464.078	4.91
464.278	5.01
464.479	4.98
464.679	4.85
464.88	4.84
465.08	4.62
465.281	4.59
465.481	4.39
465.682	4.21
465.882	4.23
466.083	4.11
466.283	4.1
466.483	3.98
466.684	3.88
466.884	3.68
467.085	3.74
467.285	3.87
467.485	3.7
467.686	3.61
467.886	3.52
468.086	3.44
468.286	3.44
468.487	3.44
468.687	3.32
468.887	3.26
469.087	3.36
469.287	3.3
469.488	3.13
469.688	3.19
469.888	3.25
470.088	3.13
470.288	3.11
470.488	3.01
470.688	2.8
470.888	2.95
471.088	2.75
471.288	2.85
471.488	2.83
471.688	2.81
471.888	2.76
472.088	2.81
472.288	2.76
472.488	2.66
472.688	2.59
472.888	2.67
473.088	2.64
473.288	2.56
473.488	2.41
473.688	2.64
473.887	2.5
474.087	2.56
474.287	2.5
474.487	2.37
474.687	2.5
474.886	2.33
475.086	2.31
475.286	2.38
475.486	2.33
475.685	2.27
475.885	2.27
476.085	2.28
476.284	2.23
476.484	2.29
476.684	2.31
476.883	2.31
477.083	2.22
477.282	2.12
477.482	2.18
477.681	2.14
477.881	2.04
478.08	2.1
478.28	2.09
478.479	2.17
478.679	2.16
478.878	2.06
479.078	2.05
479.277	2.11
479.477	2.01
479.676	2.07
479.875	2.03
480.075	2.02
480.274	2.02
480.473	2.08
480.673	2.02
480.872	2.07
481.071	2.1
481.271	2.03
481.47	2.03
481.669	2.04
481.868	1.97
482.067	1.99
482.267	1.96
482.466	1.96
482.665	1.99
482.864	1.95
483.063	1.94
483.262	2.03
483.461	2.05
483.661	2.1
483.86	2.03
484.059	2.05
484.258	2.06
484.457	2.07
484.656	2.04
484.855	2.1
485.054	1.94
485.253	2.03
485.452	1.99
485.651	2.07
485.849	2.03
486.048	2.03
486.247	2.01
486.446	2.04
486.645	2.08
486.844	2.12
487.043	2.09
487.241	2.12
487.44	2.09
487.639	2.14
487.838	2.12
488.037	2.12
488.235	2.21
488.434	2.19
488.633	2.06
488.831	2.25
489.03	2.25
489.229	2.21
489.427	2.25
489.626	2.24
489.825	2.23
490.023	2.29
490.222	2.3
490.42	2.27
490.619	2.32
490.817	2.35
491.016	2.35
491.214	2.42
491.413	2.42
491.611	2.36
491.81	2.39
492.008	2.42
492.207	2.55
492.405	2.47
492.604	2.47
492.802	2.55
493	2.6
493.199	2.63
493.397	2.7
493.595	2.68
493.794	2.67
493.992	2.79
494.19	2.73
494.388	2.8
494.587	2.71
494.785	2.73
494.983	2.75
495.181	2.85
495.379	2.89
495.578	2.98
495.776	2.95
495.974	2.95
496.172	2.96
496.37	3.07
496.568	3.12
496.766	3.07
496.964	3.14
497.162	3.2
497.36	3.25
497.558	3.2
497.756	3.29
497.954	3.28
498.152	3.34
498.35	3.39
498.548	3.34
498.746	3.32
498.944	3.4
499.142	3.42
499.34	3.51
499.538	3.62
499.736	3.5
499.933	3.61
500.131	3.6
500.329	3.74
500.527	3.72
500.725	3.8
500.922	3.83
501.12	3.81
501.318	3.92
501.516	3.91
501.713	4.01
501.911	4.01
502.109	3.95
502.306	4.1
502.504	3.99
502.701	4.07
