Data from Apollo_Calib_20240827__AbsoluteIrradiance__26__23-35-01-813.txt Node

Date: Tue Aug 27 23:35:01 BST 2024
User: biology
Spectrometer: FLMT08252
Trigger mode: 0
Integration Time (sec): 5.000000E-1
Scans to average: 5
Electric dark correction enabled: true
Nonlinearity correction enabled: false
Boxcar width: 0
XAxis mode: Wavelengths
Number of Pixels in Spectrum: 3648
>>>>>Begin Spectral Data<<<<<
179.588	-0
179.809	-0
180.03	-0
180.251	-0
180.473	-0
180.694	0
180.915	0
181.136	-0
181.357	0
181.578	-0
181.799	-0
182.02	-0
182.241	0
182.462	-0
182.683	0
182.904	-0
183.125	-0
183.346	0
183.567	0
183.788	0
184.009	0
184.23	0
184.451	0
184.672	0
184.892	0
185.113	0
185.334	0
185.555	0
185.776	0
185.996	0
186.217	0
186.438	0
186.659	0
186.879	0
187.1	0
187.321	0
187.541	0
187.762	0
187.983	0
188.203	0
188.424	0
188.644	0
188.865	0
189.086	0
189.306	0
189.527	0
189.747	0
189.968	0
190.188	0
190.409	0
190.629	0
190.849	0
191.07	0
191.29	0
191.511	0
191.731	0
191.951	0
192.172	0
192.392	0
192.612	0
192.833	0
193.053	0
193.273	0
193.493	0
193.714	0
193.934	0
194.154	0
194.374	0
194.594	0
194.815	0
195.035	0
195.255	0
195.475	0
195.695	0
195.915	0
196.135	0
196.355	0
196.575	0
196.795	0
197.015	0
197.235	0
197.455	0
197.675	0
197.895	0
198.115	0
198.335	0
198.555	0
198.775	0
198.995	0
199.214	0
199.434	0
199.654	0
199.874	0
200.094	4.63
200.313	2.95
200.533	2.37
200.753	1.31
200.973	3.14
201.192	3.29
201.412	1.53
201.632	2.07
201.851	3.65
202.071	1.69
202.291	1.61
202.51	1.78
202.73	2.24
202.95	2.34
203.169	1.8
203.389	1.83
203.608	2.05
203.828	1.5
204.047	2
204.267	2.65
204.486	2.06
204.706	1.99
204.925	1.86
205.145	1.65
205.364	2.42
205.583	2.73
205.803	1.29
206.022	1.3
206.242	2.15
206.461	1.84
206.68	1.46
206.9	1.47
207.119	2.05
207.338	2.01
207.557	1.3
207.777	1.56
207.996	1.47
208.215	2.3
208.434	1.19
208.654	1.32
208.873	1.45
209.092	2.02
209.311	1.51
209.53	1.25
209.749	1.31
209.968	1.32
210.187	1.45
210.407	0.85
210.626	1.14
210.845	1.31
211.064	1.58
211.283	1.01
211.502	1.6
211.721	1.16
211.94	0.97
212.159	1.37
212.377	1.19
212.596	1.5
212.815	1.27
213.034	1.19
213.253	1.34
213.472	1.39
213.691	0.87
213.91	0.92
214.128	0.94
214.347	1.45
214.566	0.56
214.785	0.65
215.003	1.4
215.222	1.07
215.441	1.11
215.66	0.87
215.878	0.95
216.097	1.35
216.316	0.71
216.534	0.86
216.753	1.15
216.972	0.99
217.19	1.06
217.409	0.75
217.627	0.73
217.846	0.81
218.064	0.88
218.283	0.94
218.501	1.41
218.72	1.17
218.938	0.76
219.157	0.82
219.375	1.08
219.594	1
219.812	0.54
220.031	0.7
220.249	1.12
220.467	1.09
220.686	0.81
220.904	0.56
221.122	0.66
221.341	1.03
221.559	0.95
221.777	0.66
221.995	0.83
222.214	0.89
222.432	0.73
222.65	0.86
222.868	0.8
223.086	1.06
223.305	0.94
223.523	0.69
223.741	1.08
223.959	0.6
224.177	0.54
224.395	0.74
224.613	0.82
224.831	0.9
225.049	0.59
225.267	0.64
225.485	0.67
225.703	0.6
225.921	0.64
226.139	0.6
226.357	0.99
226.575	0.82
226.793	0.66
227.011	1.4
227.229	0.89
227.447	0.89
227.665	0.52
227.883	0.39
228.1	0.63
228.318	0.71
228.536	0.5
228.754	0.52
228.972	0.76
229.189	0.8
229.407	0.49
229.625	0.58
229.843	0.73
230.06	0.73
230.278	0.53
230.496	0.49
230.713	0.68
230.931	0.75
231.149	0.56
231.366	0.36
231.584	0.65
231.801	0.87
232.019	0.42
232.236	0.45
232.454	0.4
232.671	0.62
232.889	0.63
233.106	0.35
233.324	0.49
233.541	0.58
233.759	0.64
233.976	0.52
234.194	0.56
234.411	0.43
234.628	0.45
234.846	0.51
235.063	0.66
235.28	0.57
235.498	0.49
235.715	0.37
235.932	0.76
236.149	0.51
236.367	0.43
236.584	0.53
236.801	0.48
237.018	0.62
237.236	0.56
237.453	0.31
237.67	0.68
237.887	0.65
238.104	0.31
238.321	0.39
238.538	0.45
238.755	0.64
238.973	0.42
239.19	0.54
239.407	0.6
239.624	0.64
239.841	0.3
240.058	0.45
240.275	0.54
240.492	0.5
240.709	0.55
240.925	0.52
241.142	0.5
241.359	0.45
241.576	0.4
241.793	0.49
242.01	0.48
242.227	0.59
242.444	0.54
242.66	0.66
242.877	0.56
243.094	0.47
243.311	0.46
243.527	0.52
243.744	0.46
243.961	0.54
244.178	0.41
244.394	0.54
244.611	0.58
244.828	0.67
245.044	0.37
245.261	0.47
245.477	0.51
245.694	0.65
245.911	0.46
246.127	0.43
246.344	0.56
246.56	0.58
246.777	0.42
246.993	0.44
247.21	0.5
247.426	0.62
247.643	0.41
247.859	0.37
248.076	0.39
248.292	0.66
248.508	0.4
248.725	0.52
248.941	0.5
249.157	0.59
249.374	0.39
249.59	0.49
249.806	0.48
250.023	0.51
250.239	0.38
250.455	0.38
250.671	0.44
250.888	0.52
251.104	0.54
251.32	0.43
251.536	0.44
251.752	0.45
251.969	0.47
252.185	0.49
252.401	0.61
252.617	0.59
252.833	0.44
253.049	0.44
253.265	0.4
253.481	0.46
253.697	0.42
253.913	0.38
254.129	0.44
254.345	0.43
254.561	0.38
254.777	0.4
254.993	0.57
255.209	0.46
255.425	0.32
255.641	0.31
255.857	0.51
256.073	0.42
256.288	0.33
256.504	0.33
256.72	0.37
256.936	0.55
257.152	0.43
257.367	0.36
257.583	0.41
257.799	0.49
258.015	0.35
258.23	0.33
258.446	0.54
258.662	0.44
258.877	0.33
259.093	0.32
259.309	0.37
259.524	0.44
259.74	0.39
259.955	0.26
260.171	0.44
260.387	0.43
260.602	0.41
260.818	0.41
261.033	0.35
261.249	0.34
261.464	0.36
261.68	0.28
261.895	0.45
262.11	0.44
262.326	0.4
262.541	0.32
262.757	0.53
262.972	0.46
263.187	0.36
263.403	0.41
263.618	0.44
263.833	0.41
264.049	0.33
264.264	0.34
264.479	0.43
264.694	0.43
264.91	0.25
265.125	0.37
265.34	0.48
265.555	0.62
265.77	0.48
265.986	0.29
266.201	0.43
266.416	0.43
266.631	0.37
266.846	0.39
267.061	0.41
267.276	0.38
267.491	0.24
267.706	0.39
267.921	0.43
268.136	0.4
268.351	0.42
268.566	0.29
268.781	0.43
268.996	0.41
269.211	0.33
269.426	0.27
269.641	0.27
269.856	0.4
270.071	0.3
270.285	0.26
270.5	0.51
270.715	0.4
270.93	0.35
271.145	0.38
271.359	0.39
271.574	0.31
271.789	0.38
272.004	0.36
272.218	0.31
272.433	0.45
272.648	0.31
272.862	0.39
273.077	0.37
273.292	0.32
273.506	0.24
273.721	0.33
273.936	0.37
274.15	0.4
274.365	0.27
274.579	0.37
274.794	0.36
275.008	0.36
275.223	0.28
275.437	0.33
275.652	0.55
275.866	0.37
276.081	0.29
276.295	0.41
276.509	0.34
276.724	0.36
276.938	0.38
277.153	0.37
277.367	0.39
277.581	0.31
277.796	0.26
278.01	0.27
278.224	0.38
278.438	0.41
278.653	0.25
278.867	0.27
279.081	0.37
279.295	0.31
279.51	0.38
279.724	0.26
279.938	0.33
280.152	0.31
280.366	0.25
280.58	0.33
280.794	0.4
281.008	0.37
281.222	0.32
281.437	0.49
281.651	0.39
281.865	0.4
282.079	0.27
282.293	0.18
282.507	0.29
282.721	0.31
282.935	0.33
283.148	0.28
283.362	0.21
283.576	0.25
283.79	0.29
284.004	0.22
284.218	0.34
284.432	0.21
284.646	0.31
284.859	0.23
285.073	0.29
285.287	0.3
285.501	0.27
285.714	0.26
285.928	0.3
286.142	0.32
286.356	0.29
286.569	0.27
286.783	0.33
286.997	0.39
287.21	0.3
287.424	0.27
287.637	0.3
287.851	0.31
288.065	0.32
288.278	0.24
288.492	0.31
288.705	0.29
288.919	0.29
289.132	0.23
289.346	0.3
289.559	0.24
289.773	0.2
289.986	0.28
290.2	0.32
290.413	0.36
290.626	0.25
290.84	0.27
291.053	0.28
291.267	0.37
291.48	0.32
291.693	0.31
291.906	0.28
292.12	0.32
292.333	0.27
292.546	0.27
292.76	0.37
292.973	0.3
293.186	0.33
293.399	0.29
293.612	0.34
293.826	0.3
294.039	0.26
294.252	0.31
294.465	0.36
294.678	0.28
294.891	0.27
295.104	0.23
295.317	0.27
295.53	0.32
295.743	0.23
295.956	0.23
296.169	0.33
296.382	0.35
296.595	0.25
296.808	0.23
297.021	0.28
297.234	0.34
297.447	0.26
297.66	0.28
297.873	0.36
298.086	0.28
298.299	0.28
298.511	0.19
298.724	0.26
298.937	0.21
299.15	0.23
299.363	0.31
299.575	0.29
299.788	0.33
300.001	0.28
300.213	0.26
300.426	0.25
300.639	0.23
300.852	0.26
301.064	0.26
301.277	0.38
301.489	0.3
301.702	0.33
301.915	0.25
302.127	0.28
302.34	0.29
302.552	0.31
302.765	0.26
302.977	0.31
303.19	0.25
303.402	0.27
303.615	0.24
303.827	0.25
304.04	0.24
304.252	0.33
304.464	0.26
304.677	0.44
304.889	0.32
305.102	0.22
305.314	0.24
305.526	0.32
305.739	0.26
305.951	0.22
306.163	0.25
306.375	0.32
306.588	0.22
306.8	0.26
307.012	0.2
307.224	0.31
307.436	0.37
307.649	0.17
307.861	0.28
308.073	0.31
308.285	0.22
308.497	0.22
308.709	0.25
308.921	0.31
309.133	0.29
309.346	0.26
309.558	0.27
309.77	0.26
309.982	0.32
310.194	0.3
310.406	0.23
310.617	0.34
310.829	0.27
311.041	0.3
311.253	0.22
311.465	0.24
311.677	0.25
311.889	0.24
312.101	0.22
312.313	0.32
312.524	0.31
312.736	0.22
312.948	0.2
313.16	0.37
313.372	0.25
313.583	0.28
313.795	0.22
314.007	0.25
314.218	0.3
314.43	0.28
314.642	0.25
314.853	0.17
315.065	0.31
315.277	0.26
315.488	0.27
315.7	0.31
315.912	0.27
316.123	0.28
316.335	0.25
316.546	0.37
316.758	0.28
316.969	0.25
317.181	0.23
317.392	0.27
317.604	0.33
317.815	0.28
318.026	0.21
318.238	0.25
318.449	0.25
318.661	0.21
318.872	0.18
319.083	0.23
319.295	0.31
319.506	0.25
319.717	0.28
319.929	0.31
320.14	0.25
320.351	0.29
320.562	0.26
320.774	0.26
320.985	0.26
321.196	0.24
321.407	0.17
321.618	0.3
321.829	0.27
322.041	0.3
322.252	0.28
322.463	0.29
322.674	0.27
322.885	0.2
323.096	0.27
323.307	0.24
323.518	0.32
323.729	0.22
323.94	0.27
324.151	0.2
324.362	0.28
324.573	0.28
324.784	0.21
324.995	0.31
325.206	0.27
325.417	0.25
325.628	0.23
325.838	0.25
326.049	0.29
326.26	0.31
326.471	0.23
326.682	0.3
326.892	0.26
327.103	0.21
327.314	0.22
327.525	0.33
327.735	0.28
327.946	0.24
328.157	0.27
328.368	0.31
328.578	0.27
328.789	0.26
328.999	0.3
329.21	0.25
329.421	0.34
329.631	0.21
329.842	0.24
330.052	0.29
330.263	0.28
330.473	0.31
330.684	0.22
330.894	0.24
331.105	0.29
331.315	0.27
331.526	0.21
331.736	0.35
331.947	0.25
332.157	0.31
332.367	0.23
332.578	0.28
332.788	0.29
332.999	0.27
333.209	0.28
333.419	0.16
333.629	0.29
333.84	0.3
334.05	0.25
334.26	0.29
334.47	0.29
334.681	0.31
334.891	0.26
335.101	0.3
335.311	0.3
335.521	0.26
335.732	0.24
335.942	0.3
336.152	0.23
336.362	0.25
336.572	0.22
336.782	0.29
336.992	0.26
337.202	0.24
337.412	0.26
337.622	0.29
337.832	0.25
338.042	0.29
338.252	0.26
338.462	0.24
338.672	0.27
338.882	0.23
339.092	0.24
339.302	0.34
339.511	0.3
339.721	0.25
339.931	0.22
340.141	0.31
340.351	0.31
340.561	0.3
340.77	0.22
340.98	0.26
341.19	0.3
341.4	0.24
341.609	0.21
341.819	0.25
342.029	0.25
342.238	0.26
342.448	0.25
342.658	0.27
342.867	0.26
343.077	0.31
343.286	0.26
343.496	0.26
343.706	0.33
343.915	0.16
344.125	0.18
344.334	0.3
344.544	0.22
344.753	0.23
344.963	0.25
345.172	0.23
345.381	0.2
345.591	0.27
345.8	0.23
346.01	0.33
346.219	0.35
346.428	0.13
346.638	0.3
346.847	0.23
347.056	0.35
347.266	0.25
347.475	0.32
347.684	0.27
347.893	0.26
348.103	0.28
348.312	0.24
348.521	0.22
348.73	0.27
348.94	0.29
349.149	0.24
349.358	0.27
349.567	0.26
349.776	0.16
349.985	0.23
350.194	0.28
350.403	0.3
350.612	0.19
350.821	0.25
351.03	0.25
351.239	0.2
351.448	0.24
351.657	0.19
351.866	0.26
352.075	0.26
352.284	0.31
352.493	0.21
352.702	0.31
352.911	0.29
353.12	0.3
353.329	0.19
353.538	0.28
353.746	0.28
353.955	0.19
354.164	0.26
354.373	0.27
354.582	0.32
354.79	0.28
354.999	0.29
355.208	0.25
355.416	0.29
355.625	0.2
355.834	0.26
356.042	0.26
356.251	0.25
356.46	0.19
356.668	0.25
356.877	0.31
357.085	0.3
357.294	0.18
357.503	0.28
357.711	0.25
357.92	0.41
358.128	0.28
358.337	0.25
358.545	0.27
358.754	0.19
358.962	0.29
359.17	0.22
359.379	0.29
359.587	0.26
359.796	0.25
360.004	0.32
360.212	0.23
360.421	0.32
360.629	0.24
360.837	0.24
361.046	0.27
361.254	0.36
361.462	0.25
361.67	0.23
361.879	0.27
362.087	0.29
362.295	0.27
362.503	0.24
362.711	0.21
362.92	0.26
363.128	0.24
363.336	0.22
363.544	0.19
363.752	0.27
363.96	0.22
364.168	0.22
364.376	0.23
364.584	0.24
364.792	0.29
365	0.26
365.208	0.27
365.416	0.27
365.624	0.29
365.832	0.26
366.04	0.3
366.248	0.28
366.456	0.31
366.664	0.28
366.872	0.24
367.079	0.22
367.287	0.26
367.495	0.25
367.703	0.28
367.911	0.26
368.118	0.26
368.326	0.24
368.534	0.23
368.742	0.27
368.949	0.22
369.157	0.22
369.365	0.28
369.572	0.23
369.78	0.2
369.988	0.33
370.195	0.26
370.403	0.26
370.61	0.22
370.818	0.25
371.026	0.32
371.233	0.22
371.441	0.29
371.648	0.25
371.856	0.3
372.063	0.27
372.271	0.24
372.478	0.23
372.685	0.26
372.893	0.32
373.1	0.25
373.308	0.27
373.515	0.34
373.722	0.28
373.93	0.29
374.137	0.31
374.344	0.34
374.552	0.32
374.759	0.3
374.966	0.25
375.173	0.25
375.381	0.31
375.588	0.23
375.795	0.21
376.002	0.21
376.209	0.24
376.417	0.25
376.624	0.22
376.831	0.3
377.038	0.22
377.245	0.17
377.452	0.26
377.659	0.29
377.866	0.2
378.073	0.26
378.28	0.28
378.487	0.33
378.694	0.28
378.901	0.25
379.108	0.24
379.315	0.32
379.522	0.34
379.729	0.31
379.936	0.26
380.143	0.26
380.35	0.27
380.557	0.24
380.763	0.27
380.97	0.3
381.177	0.3
381.384	0.33
381.591	0.28
381.797	0.26
382.004	0.33
382.211	0.29
382.418	0.26
382.624	0.28
382.831	0.3
383.038	0.28
383.244	0.29
383.451	0.32
383.658	0.32
383.864	0.27
384.071	0.22
384.277	0.35
384.484	0.29
384.69	0.36
384.897	0.25
385.103	0.29
385.31	0.26
385.516	0.28
385.723	0.22
385.929	0.23
386.136	0.24
386.342	0.27
386.549	0.25
386.755	0.36
386.961	0.34
387.168	0.29
387.374	0.32
387.58	0.33
387.787	0.29
387.993	0.28
388.199	0.28
388.406	0.22
388.612	0.26
388.818	0.25
389.024	0.26
389.231	0.33
389.437	0.34
389.643	0.29
389.849	0.31
390.055	0.32
390.261	0.29
390.467	0.32
390.674	0.26
390.88	0.32
391.086	0.36
391.292	0.26
391.498	0.34
391.704	0.32
391.91	0.3
392.116	0.29
392.322	0.2
392.528	0.33
392.734	0.3
392.94	0.29
393.146	0.3
393.352	0.3
393.557	0.27
393.763	0.28
393.969	0.35
394.175	0.3
394.381	0.31
394.587	0.27
394.792	0.31
394.998	0.36
395.204	0.38
395.41	0.28
395.615	0.41
395.821	0.36
396.027	0.37
396.233	0.34
396.438	0.32
396.644	0.36
396.85	0.38
397.055	0.33
397.261	0.37
397.466	0.44
397.672	0.35
397.878	0.36
398.083	0.36
398.289	0.32
398.494	0.39
398.7	0.36
398.905	0.27
399.111	0.42
399.316	0.3
399.522	0.37
399.727	0.35
399.932	0.32
400.138	0.36
400.343	0.39
400.549	0.37
400.754	0.35
400.959	0.36
401.165	0.37
401.37	0.38
401.575	0.46
401.78	0.39
401.986	0.36
402.191	0.37
402.396	0.35
402.601	0.4
402.807	0.43
403.012	0.44
403.217	0.47
403.422	0.43
403.627	0.39
403.832	0.4
404.037	0.46
404.243	0.43
404.448	0.42
404.653	0.45
404.858	0.45
405.063	0.5
405.268	0.38
405.473	0.38
405.678	0.39
405.883	0.55
406.088	0.49
406.293	0.42
406.498	0.43
406.703	0.55
406.907	0.51
407.112	0.46
407.317	0.48
407.522	0.57
407.727	0.54
407.932	0.52
408.136	0.66
408.341	0.53
408.546	0.64
408.751	0.61
408.956	0.57
409.16	0.66
409.365	0.58
409.57	0.61
409.774	0.6
409.979	0.68
410.184	0.7
410.388	0.66
410.593	0.73
410.798	0.73
411.002	0.71
411.207	0.78
411.411	0.81
411.616	0.77
411.82	0.84
412.025	0.87
412.229	0.86
412.434	0.97
412.638	0.89
412.843	0.93
413.047	0.96
413.252	0.9
413.456	1.04
413.66	1.11
413.865	1.03
414.069	1.12
414.273	1.13
414.478	1.1
414.682	1.12
414.886	1.17
415.091	1.21
415.295	1.27
415.499	1.42
415.703	1.31
415.908	1.39
416.112	1.43
416.316	1.57
416.52	1.55
416.724	1.55
416.929	1.64
417.133	1.85
417.337	1.72
417.541	1.86
417.745	1.83
417.949	1.91
418.153	2.05
418.357	2.07
418.561	2.25
418.765	2.14
418.969	2.3
419.173	2.41
419.377	2.37
419.581	2.63
419.785	2.54
419.989	2.66
420.193	2.77
420.397	2.89
420.601	2.98
420.804	3.06
421.008	3.09
421.212	3.28
421.416	3.29
421.62	3.24
421.823	3.34
422.027	3.5
422.231	3.47
422.435	3.45
422.638	3.54
422.842	3.65
423.046	3.77
423.249	3.95
423.453	3.87
423.657	4.09
423.86	4.18
424.064	4.3
424.268	4.38
424.471	4.49
424.675	4.62
424.878	4.74
425.082	4.88
425.285	5.16
425.489	5
425.692	5.17
425.896	5.28
426.099	5.4
426.303	5.55
426.506	5.75
426.71	5.94
426.913	6.17
427.116	6.32
427.32	6.27
427.523	6.38
427.726	6.62
427.93	6.76
428.133	7.08
428.336	7.25
428.54	7.37
428.743	7.55
428.946	7.85
429.149	7.85
429.353	7.89
429.556	7.91
429.759	7.99
429.962	8.18
430.165	8.31
430.368	8.01
430.571	7.98
430.775	8.08
430.978	8
431.181	8.09
431.384	8.05
431.587	8.32
431.79	8.66
431.993	8.55
432.196	8.85
432.399	9.27
432.602	9.36
432.805	9.59
433.008	10.12
433.211	9.9
433.414	10.26
433.616	10.29
433.819	10.15
434.022	10.31
434.225	10.65
434.428	10.68
434.631	10.97
434.833	10.75
435.036	11.13
435.239	11.25
435.442	11.33
435.645	11.46
435.847	11.5
436.05	11.87
436.253	11.96
436.455	12.14
436.658	11.87
436.861	12.33
437.063	12.47
437.266	12.45
437.468	12.71
437.671	12.9
437.874	13.11
438.076	12.91
438.279	13.43
438.481	13.43
438.684	14.16
438.886	13.78
439.089	14.08
439.291	14.13
439.494	14.44
439.696	14.61
439.899	15.28
440.101	15.67
440.303	15.74
440.506	16.47
440.708	16.32
440.91	16.38
441.113	16.64
441.315	16.9
441.517	16.68
441.72	17.17
441.922	16.88
442.124	16.81
442.326	17.09
442.529	17.41
442.731	17.3
442.933	17.64
443.135	17.4
443.337	17.51
443.539	18.17
443.742	17.51
443.944	18.39
444.146	18.07
444.348	18.09
444.55	17.93
444.752	18.03
444.954	18.21
445.156	17.99
445.358	18.63
445.56	18.64
445.762	18.48
445.964	18.78
446.166	18.54
446.368	18.63
446.57	18.62
446.772	18.2
446.974	18.12
447.175	18.41
447.377	18.01
447.579	18.51
447.781	18.04
447.983	17.86
448.184	17.39
448.386	17.77
448.588	17.31
448.79	17.29
448.991	17.61
449.193	17.54
449.395	16.94
449.597	16.51
449.798	16.42
450	16.02
450.202	15.95
450.403	15.89
450.605	15.77
450.806	15.43
451.008	15.31
451.21	15.09
451.411	14.65
451.613	13.92
451.814	14.24
452.016	14.08
452.217	13.31
452.419	13.44
452.62	13.03
452.821	12.8
453.023	12.59
453.224	12.31
453.426	11.96
453.627	11.3
453.828	11.46
454.03	11.38
454.231	11.31
454.432	11.19
454.634	10.95
454.835	10.71
455.036	10.43
455.238	10.08
455.439	9.91
455.64	9.54
455.841	9.5
456.042	9.6
456.244	9.27
456.445	9.07
456.646	8.75
456.847	8.65
457.048	8.56
457.249	8.52
457.45	8.23
457.651	7.78
457.852	7.63
458.054	7.33
458.255	7.25
458.456	7.43
458.657	7.24
458.858	6.85
459.058	6.76
459.259	6.81
459.46	6.53
459.661	6.47
459.862	6.41
460.063	6.41
460.264	6.24
460.465	5.98
460.666	6.09
460.866	5.79
461.067	5.63
461.268	5.57
461.469	5.53
461.67	5.38
461.87	5.32
462.071	5.23
462.272	5.11
462.473	5.18
462.673	5.36
462.874	5.2
463.075	5.16
463.275	5.23
463.476	5.16
463.676	5.13
463.877	5.01
464.078	4.94
464.278	5.07
464.479	4.91
464.679	4.81
464.88	4.67
465.08	4.7
465.281	4.55
465.481	4.37
465.682	4.13
465.882	4.14
466.083	4.12
466.283	4.12
466.483	4
466.684	3.75
466.884	3.71
467.085	3.7
467.285	3.86
467.485	3.64
467.686	3.6
467.886	3.47
468.086	3.39
468.286	3.42
468.487	3.49
468.687	3.33
468.887	3.23
469.087	3.34
469.287	3.31
469.488	3.06
469.688	3.25
469.888	3.16
470.088	3.12
470.288	3.13
470.488	2.98
470.688	2.9
470.888	2.88
471.088	2.7
471.288	2.85
471.488	2.78
471.688	2.73
471.888	2.65
472.088	2.77
472.288	2.7
472.488	2.61
472.688	2.6
472.888	2.59
473.088	2.62
473.288	2.55
473.488	2.47
473.688	2.63
473.887	2.53
474.087	2.5
474.287	2.47
474.487	2.41
474.687	2.47
474.886	2.34
475.086	2.32
475.286	2.3
475.486	2.3
475.685	2.28
475.885	2.21
476.085	2.26
476.284	2.27
476.484	2.22
476.684	2.26
476.883	2.27
477.083	2.2
477.282	2.14
477.482	2.16
477.681	2.17
477.881	2.13
478.08	2.12
478.28	2.06
478.479	2.16
478.679	2.11
478.878	2.03
479.078	2.05
479.277	2.12
479.477	2.07
479.676	2.03
479.875	2.01
480.075	2.01
480.274	2.02
480.473	2.07
480.673	2.03
480.872	2.1
481.071	2.05
481.271	2.03
481.47	1.99
481.669	1.97
481.868	2
482.067	2.02
482.267	1.92
482.466	1.97
482.665	1.98
482.864	1.97
483.063	1.93
483.262	2.06
483.461	2.04
483.661	2.08
483.86	1.96
484.059	2.06
484.258	2.03
484.457	2.02
484.656	2.04
484.855	2.14
485.054	1.92
485.253	1.98
485.452	1.95
485.651	2.09
485.849	2
486.048	2.02
486.247	2.07
486.446	2.09
486.645	2.05
486.844	2.1
487.043	2.04
487.241	2.12
487.44	2.08
487.639	2.12
487.838	2.12
488.037	2.09
488.235	2.2
488.434	2.18
488.633	2.06
488.831	2.23
489.03	2.2
489.229	2.19
489.427	2.26
489.626	2.25
489.825	2.27
490.023	2.29
490.222	2.27
490.42	2.33
490.619	2.32
490.817	2.36
491.016	2.36
491.214	2.38
491.413	2.43
491.611	2.37
491.81	2.41
492.008	2.46
492.207	2.54
492.405	2.55
492.604	2.5
492.802	2.58
493	2.64
493.199	2.62
493.397	2.66
493.595	2.68
493.794	2.68
493.992	2.76
494.19	2.78
494.388	2.81
494.587	2.75
494.785	2.79
494.983	2.71
495.181	2.89
495.379	2.95
495.578	2.95
495.776	2.94
495.974	2.91
496.172	2.93
496.37	3.06
496.568	3.13
496.766	3.11
496.964	3.16
497.162	3.19
497.36	3.22
497.558	3.23
497.756	3.28
497.954	3.29
498.152	3.31
498.35	3.4
498.548	3.35
498.746	3.36
498.944	3.42
499.142	3.43
499.34	3.5
499.538	3.62
499.736	3.51
499.933	3.62
500.131	3.63
500.329	3.83
500.527	3.74
500.725	3.83
500.922	3.85
501.12	3.94
501.318	3.95
501.516	3.95
501.713	4.02
501.911	3.94
502.109	4
502.306	4.05
502.504	4
502.701	4.08
