Data from Apollo_Calib_20240827__AbsoluteIrradiance__4__23-13-00-267.txt Node

Date: Tue Aug 27 23:13:00 BST 2024
User: biology
Spectrometer: FLMT08252
Trigger mode: 0
Integration Time (sec): 5.000000E-1
Scans to average: 5
Electric dark correction enabled: true
Nonlinearity correction enabled: false
Boxcar width: 0
XAxis mode: Wavelengths
Number of Pixels in Spectrum: 3648
>>>>>Begin Spectral Data<<<<<
179.588	-0
179.809	-0
180.03	-0
180.251	-0
180.473	-0
180.694	0
180.915	0
181.136	-0
181.357	-0
181.578	-0
181.799	-0
182.02	-0
182.241	0
182.462	-0
182.683	0
182.904	-0
183.125	-0
183.346	0
183.567	0
183.788	0
184.009	0
184.23	0
184.451	0
184.672	0
184.892	0
185.113	0
185.334	0
185.555	0
185.776	0
185.996	0
186.217	0
186.438	0
186.659	0
186.879	0
187.1	0
187.321	0
187.541	0
187.762	0
187.983	0
188.203	0
188.424	0
188.644	0
188.865	0
189.086	0
189.306	0
189.527	0
189.747	0
189.968	0
190.188	0
190.409	0
190.629	0
190.849	0
191.07	0
191.29	0
191.511	0
191.731	0
191.951	0
192.172	0
192.392	0
192.612	0
192.833	0
193.053	0
193.273	0
193.493	0
193.714	0
193.934	0
194.154	0
194.374	0
194.594	0
194.815	0
195.035	0
195.255	0
195.475	0
195.695	0
195.915	0
196.135	0
196.355	0
196.575	0
196.795	0
197.015	0
197.235	0
197.455	0
197.675	0
197.895	0
198.115	0
198.335	0
198.555	0
198.775	0
198.995	0
199.214	0
199.434	0
199.654	0
199.874	0
200.094	4.3
200.313	2.36
200.533	2.29
200.753	1.91
200.973	2.76
201.192	2.67
201.412	2.09
201.632	2.65
201.851	2.88
202.071	2.05
202.291	1.83
202.51	2
202.73	2.31
202.95	1.63
203.169	1.82
203.389	2.3
203.608	2.26
203.828	1.26
204.047	2.29
204.267	2.28
204.486	1.57
204.706	1.76
204.925	1.7
205.145	1.59
205.364	2.38
205.583	2.28
205.803	1.33
206.022	1.43
206.242	1.58
206.461	1.76
206.68	1.34
206.9	1.67
207.119	1.79
207.338	1.66
207.557	1.25
207.777	1.65
207.996	1.48
208.215	1.74
208.434	1.39
208.654	1.21
208.873	1.38
209.092	1.73
209.311	1.29
209.53	1.25
209.749	1.25
209.968	0.92
210.187	1.28
210.407	0.8
210.626	1.17
210.845	1.39
211.064	1.33
211.283	1.22
211.502	1.63
211.721	1.04
211.94	1.05
212.159	1.42
212.377	1.23
212.596	1.6
212.815	1.11
213.034	1.27
213.253	1.33
213.472	1.43
213.691	1.06
213.91	0.93
214.128	0.88
214.347	1.33
214.566	0.96
214.785	0.65
215.003	1.16
215.222	1.08
215.441	1.01
215.66	0.73
215.878	1.01
216.097	1.3
216.316	0.74
216.534	1.03
216.753	0.9
216.972	0.8
217.19	0.97
217.409	0.74
217.627	0.77
217.846	0.8
218.064	0.88
218.283	0.73
218.501	1.04
218.72	1.13
218.938	0.76
219.157	0.78
219.375	0.96
219.594	0.93
219.812	0.74
220.031	0.75
220.249	0.97
220.467	1.11
220.686	0.89
220.904	0.62
221.122	0.65
221.341	1.05
221.559	1.02
221.777	0.75
221.995	0.84
222.214	0.7
222.432	0.64
222.65	0.82
222.868	0.82
223.086	0.6
223.305	0.85
223.523	0.65
223.741	0.86
223.959	0.63
224.177	0.35
224.395	0.66
224.613	0.66
224.831	0.71
225.049	0.47
225.267	0.7
225.485	0.59
225.703	0.62
225.921	0.61
226.139	0.68
226.357	0.9
226.575	0.74
226.793	0.6
227.011	1.03
227.229	0.66
227.447	0.69
227.665	0.6
227.883	0.49
228.1	0.61
228.318	0.62
228.536	0.33
228.754	0.59
228.972	0.77
229.189	0.77
229.407	0.6
229.625	0.53
229.843	0.68
230.06	0.73
230.278	0.5
230.496	0.69
230.713	0.7
230.931	0.57
231.149	0.72
231.366	0.49
231.584	0.69
231.801	0.87
232.019	0.58
232.236	0.5
232.454	0.51
232.671	0.55
232.889	0.54
233.106	0.43
233.324	0.58
233.541	0.46
233.759	0.58
233.976	0.41
234.194	0.57
234.411	0.53
234.628	0.41
234.846	0.71
235.063	0.51
235.28	0.47
235.498	0.7
235.715	0.49
235.932	0.55
236.149	0.55
236.367	0.5
236.584	0.63
236.801	0.47
237.018	0.53
237.236	0.65
237.453	0.35
237.67	0.6
237.887	0.44
238.104	0.55
238.321	0.44
238.538	0.55
238.755	0.53
238.973	0.43
239.19	0.55
239.407	0.49
239.624	0.53
239.841	0.28
240.058	0.47
240.275	0.53
240.492	0.4
240.709	0.53
240.925	0.47
241.142	0.47
241.359	0.48
241.576	0.49
241.793	0.48
242.01	0.5
242.227	0.56
242.444	0.61
242.66	0.52
242.877	0.55
243.094	0.41
243.311	0.5
243.527	0.44
243.744	0.53
243.961	0.54
244.178	0.42
244.394	0.43
244.611	0.55
244.828	0.55
245.044	0.39
245.261	0.51
245.477	0.5
245.694	0.46
245.911	0.43
246.127	0.47
246.344	0.51
246.56	0.44
246.777	0.45
246.993	0.52
247.21	0.37
247.426	0.45
247.643	0.43
247.859	0.38
248.076	0.48
248.292	0.5
248.508	0.42
248.725	0.45
248.941	0.48
249.157	0.53
249.374	0.46
249.59	0.41
249.806	0.39
250.023	0.44
250.239	0.31
250.455	0.38
250.671	0.35
250.888	0.52
251.104	0.44
251.32	0.37
251.536	0.39
251.752	0.34
251.969	0.48
252.185	0.43
252.401	0.51
252.617	0.46
252.833	0.41
253.049	0.38
253.265	0.41
253.481	0.44
253.697	0.43
253.913	0.36
254.129	0.37
254.345	0.41
254.561	0.37
254.777	0.46
254.993	0.41
255.209	0.43
255.425	0.38
255.641	0.35
255.857	0.44
256.073	0.38
256.288	0.41
256.504	0.34
256.72	0.43
256.936	0.45
257.152	0.4
257.367	0.35
257.583	0.41
257.799	0.47
258.015	0.33
258.23	0.41
258.446	0.49
258.662	0.38
258.877	0.37
259.093	0.37
259.309	0.38
259.524	0.41
259.74	0.28
259.955	0.33
260.171	0.39
260.387	0.36
260.602	0.42
260.818	0.5
261.033	0.33
261.249	0.28
261.464	0.34
261.68	0.3
261.895	0.31
262.11	0.41
262.326	0.4
262.541	0.34
262.757	0.46
262.972	0.3
263.187	0.36
263.403	0.4
263.618	0.5
263.833	0.36
264.049	0.28
264.264	0.36
264.479	0.44
264.694	0.44
264.91	0.3
265.125	0.4
265.34	0.46
265.555	0.47
265.77	0.38
265.986	0.26
266.201	0.38
266.416	0.42
266.631	0.36
266.846	0.37
267.061	0.46
267.276	0.38
267.491	0.25
267.706	0.34
267.921	0.31
268.136	0.42
268.351	0.38
268.566	0.3
268.781	0.4
268.996	0.37
269.211	0.36
269.426	0.33
269.641	0.31
269.856	0.41
270.071	0.3
270.285	0.33
270.5	0.4
270.715	0.42
270.93	0.3
271.145	0.43
271.359	0.36
271.574	0.3
271.789	0.35
272.004	0.41
272.218	0.39
272.433	0.36
272.648	0.28
272.862	0.46
273.077	0.25
273.292	0.37
273.506	0.34
273.721	0.34
273.936	0.42
274.15	0.4
274.365	0.38
274.579	0.38
274.794	0.36
275.008	0.43
275.223	0.26
275.437	0.32
275.652	0.46
275.866	0.35
276.081	0.36
276.295	0.42
276.509	0.32
276.724	0.28
276.938	0.36
277.153	0.34
277.367	0.37
277.581	0.33
277.796	0.29
278.01	0.32
278.224	0.35
278.438	0.39
278.653	0.29
278.867	0.26
279.081	0.31
279.295	0.27
279.51	0.37
279.724	0.25
279.938	0.34
280.152	0.33
280.366	0.27
280.58	0.37
280.794	0.3
281.008	0.32
281.222	0.37
281.437	0.4
281.651	0.3
281.865	0.34
282.079	0.29
282.293	0.22
282.507	0.29
282.721	0.28
282.935	0.28
283.148	0.25
283.362	0.24
283.576	0.27
283.79	0.33
284.004	0.25
284.218	0.32
284.432	0.24
284.646	0.32
284.859	0.28
285.073	0.29
285.287	0.25
285.501	0.3
285.714	0.32
285.928	0.31
286.142	0.21
286.356	0.24
286.569	0.25
286.783	0.32
286.997	0.3
287.21	0.35
287.424	0.3
287.637	0.3
287.851	0.31
288.065	0.25
288.278	0.3
288.492	0.33
288.705	0.29
288.919	0.36
289.132	0.18
289.346	0.35
289.559	0.24
289.773	0.28
289.986	0.28
290.2	0.26
290.413	0.28
290.626	0.26
290.84	0.27
291.053	0.31
291.267	0.31
291.48	0.27
291.693	0.27
291.906	0.2
292.12	0.23
292.333	0.21
292.546	0.26
292.76	0.31
292.973	0.29
293.186	0.34
293.399	0.25
293.612	0.34
293.826	0.22
294.039	0.26
294.252	0.28
294.465	0.28
294.678	0.33
294.891	0.31
295.104	0.23
295.317	0.28
295.53	0.25
295.743	0.23
295.956	0.27
296.169	0.26
296.382	0.27
296.595	0.27
296.808	0.24
297.021	0.31
297.234	0.25
297.447	0.27
297.66	0.3
297.873	0.26
298.086	0.25
298.299	0.24
298.511	0.23
298.724	0.29
298.937	0.22
299.15	0.21
299.363	0.26
299.575	0.27
299.788	0.25
300.001	0.23
300.213	0.19
300.426	0.26
300.639	0.26
300.852	0.23
301.064	0.3
301.277	0.32
301.489	0.29
301.702	0.32
301.915	0.28
302.127	0.21
302.34	0.27
302.552	0.3
302.765	0.22
302.977	0.27
303.19	0.21
303.402	0.26
303.615	0.25
303.827	0.19
304.04	0.25
304.252	0.27
304.464	0.26
304.677	0.29
304.889	0.33
305.102	0.21
305.314	0.25
305.526	0.29
305.739	0.26
305.951	0.22
306.163	0.22
306.375	0.28
306.588	0.28
306.8	0.21
307.012	0.19
307.224	0.27
307.436	0.3
307.649	0.18
307.861	0.3
308.073	0.33
308.285	0.23
308.497	0.21
308.709	0.21
308.921	0.25
309.133	0.3
309.346	0.26
309.558	0.28
309.77	0.3
309.982	0.23
310.194	0.27
310.406	0.21
310.617	0.3
310.829	0.28
311.041	0.25
311.253	0.19
311.465	0.27
311.677	0.26
311.889	0.29
312.101	0.22
312.313	0.28
312.524	0.24
312.736	0.24
312.948	0.22
313.16	0.27
313.372	0.3
313.583	0.28
313.795	0.26
314.007	0.2
314.218	0.22
314.43	0.26
314.642	0.27
314.853	0.22
315.065	0.28
315.277	0.27
315.488	0.29
315.7	0.31
315.912	0.24
316.123	0.22
316.335	0.27
316.546	0.27
316.758	0.24
316.969	0.23
317.181	0.28
317.392	0.26
317.604	0.23
317.815	0.19
318.026	0.22
318.238	0.28
318.449	0.27
318.661	0.23
318.872	0.21
319.083	0.21
319.295	0.28
319.506	0.22
319.717	0.28
319.929	0.24
320.14	0.27
320.351	0.26
320.562	0.25
320.774	0.25
320.985	0.25
321.196	0.28
321.407	0.2
321.618	0.29
321.829	0.23
322.041	0.28
322.252	0.25
322.463	0.27
322.674	0.26
322.885	0.25
323.096	0.24
323.307	0.21
323.518	0.23
323.729	0.21
323.94	0.24
324.151	0.24
324.362	0.25
324.573	0.27
324.784	0.28
324.995	0.29
325.206	0.28
325.417	0.22
325.628	0.27
325.838	0.21
326.049	0.26
326.26	0.27
326.471	0.22
326.682	0.28
326.892	0.28
327.103	0.24
327.314	0.21
327.525	0.3
327.735	0.25
327.946	0.28
328.157	0.22
328.368	0.3
328.578	0.19
328.789	0.25
328.999	0.25
329.21	0.24
329.421	0.22
329.631	0.23
329.842	0.26
330.052	0.31
330.263	0.28
330.473	0.29
330.684	0.24
330.894	0.23
331.105	0.24
331.315	0.31
331.526	0.22
331.736	0.31
331.947	0.27
332.157	0.29
332.367	0.27
332.578	0.25
332.788	0.29
332.999	0.27
333.209	0.28
333.419	0.22
333.629	0.27
333.84	0.26
334.05	0.26
334.26	0.28
334.47	0.27
334.681	0.3
334.891	0.2
335.101	0.25
335.311	0.27
335.521	0.25
335.732	0.23
335.942	0.28
336.152	0.3
336.362	0.27
336.572	0.26
336.782	0.28
336.992	0.24
337.202	0.29
337.412	0.22
337.622	0.23
337.832	0.22
338.042	0.23
338.252	0.19
338.462	0.24
338.672	0.21
338.882	0.28
339.092	0.28
339.302	0.35
339.511	0.32
339.721	0.22
339.931	0.24
340.141	0.26
340.351	0.3
340.561	0.24
340.77	0.27
340.98	0.24
341.19	0.26
341.4	0.21
341.609	0.22
341.819	0.23
342.029	0.23
342.238	0.26
342.448	0.24
342.658	0.26
342.867	0.27
343.077	0.21
343.286	0.26
343.496	0.25
343.706	0.29
343.915	0.18
344.125	0.24
344.334	0.28
344.544	0.16
344.753	0.25
344.963	0.22
345.172	0.2
345.381	0.21
345.591	0.25
345.8	0.28
346.01	0.27
346.219	0.28
346.428	0.14
346.638	0.25
346.847	0.25
347.056	0.36
347.266	0.25
347.475	0.3
347.684	0.26
347.893	0.28
348.103	0.23
348.312	0.27
348.521	0.21
348.73	0.24
348.94	0.29
349.149	0.22
349.358	0.17
349.567	0.22
349.776	0.19
349.985	0.25
350.194	0.25
350.403	0.26
350.612	0.22
350.821	0.26
351.03	0.25
351.239	0.19
351.448	0.27
351.657	0.2
351.866	0.33
352.075	0.22
352.284	0.28
352.493	0.21
352.702	0.29
352.911	0.25
353.12	0.3
353.329	0.24
353.538	0.3
353.746	0.24
353.955	0.24
354.164	0.27
354.373	0.25
354.582	0.27
354.79	0.24
354.999	0.29
355.208	0.24
355.416	0.31
355.625	0.21
355.834	0.29
356.042	0.25
356.251	0.23
356.46	0.22
356.668	0.25
356.877	0.29
357.085	0.25
357.294	0.17
357.503	0.28
357.711	0.26
357.92	0.34
358.128	0.25
358.337	0.22
358.545	0.26
358.754	0.22
358.962	0.29
359.17	0.23
359.379	0.27
359.587	0.26
359.796	0.21
360.004	0.26
360.212	0.25
360.421	0.29
360.629	0.24
360.837	0.23
361.046	0.27
361.254	0.3
361.462	0.25
361.67	0.22
361.879	0.24
362.087	0.26
362.295	0.26
362.503	0.24
362.711	0.19
362.92	0.23
363.128	0.25
363.336	0.23
363.544	0.2
363.752	0.21
363.96	0.26
364.168	0.19
364.376	0.22
364.584	0.23
364.792	0.21
365	0.31
365.208	0.27
365.416	0.2
365.624	0.31
365.832	0.21
366.04	0.25
366.248	0.28
366.456	0.22
366.664	0.25
366.872	0.22
367.079	0.21
367.287	0.25
367.495	0.23
367.703	0.29
367.911	0.23
368.118	0.25
368.326	0.25
368.534	0.22
368.742	0.3
368.949	0.21
369.157	0.23
369.365	0.26
369.572	0.25
369.78	0.21
369.988	0.28
370.195	0.26
370.403	0.25
370.61	0.23
370.818	0.25
371.026	0.27
371.233	0.22
371.441	0.23
371.648	0.21
371.856	0.26
372.063	0.27
372.271	0.21
372.478	0.25
372.685	0.19
372.893	0.26
373.1	0.26
373.308	0.31
373.515	0.31
373.722	0.26
373.93	0.24
374.137	0.26
374.344	0.28
374.552	0.27
374.759	0.3
374.966	0.21
375.173	0.26
375.381	0.29
375.588	0.3
375.795	0.19
376.002	0.24
376.209	0.22
376.417	0.25
376.624	0.3
376.831	0.3
377.038	0.27
377.245	0.2
377.452	0.24
377.659	0.28
377.866	0.24
378.073	0.28
378.28	0.27
378.487	0.25
378.694	0.3
378.901	0.28
379.108	0.23
379.315	0.28
379.522	0.27
379.729	0.33
379.936	0.26
380.143	0.29
380.35	0.26
380.557	0.25
380.763	0.28
380.97	0.2
381.177	0.32
381.384	0.27
381.591	0.27
381.797	0.26
382.004	0.25
382.211	0.31
382.418	0.26
382.624	0.26
382.831	0.27
383.038	0.26
383.244	0.29
383.451	0.23
383.658	0.3
383.864	0.26
384.071	0.25
384.277	0.33
384.484	0.23
384.69	0.33
384.897	0.25
385.103	0.29
385.31	0.23
385.516	0.23
385.723	0.26
385.929	0.21
386.136	0.24
386.342	0.29
386.549	0.29
386.755	0.3
386.961	0.31
387.168	0.22
387.374	0.33
387.58	0.29
387.787	0.27
387.993	0.34
388.199	0.26
388.406	0.27
388.612	0.24
388.818	0.26
389.024	0.27
389.231	0.26
389.437	0.37
389.643	0.31
389.849	0.36
390.055	0.31
390.261	0.29
390.467	0.3
390.674	0.28
390.88	0.29
391.086	0.31
391.292	0.24
391.498	0.31
391.704	0.33
391.91	0.27
392.116	0.28
392.322	0.2
392.528	0.31
392.734	0.27
392.94	0.29
393.146	0.28
393.352	0.26
393.557	0.27
393.763	0.32
393.969	0.32
394.175	0.31
394.381	0.31
394.587	0.25
394.792	0.3
394.998	0.34
395.204	0.38
395.41	0.31
395.615	0.31
395.821	0.3
396.027	0.3
396.233	0.32
396.438	0.33
396.644	0.39
396.85	0.34
397.055	0.29
397.261	0.33
397.466	0.41
397.672	0.32
397.878	0.38
398.083	0.32
398.289	0.31
398.494	0.38
398.7	0.38
398.905	0.26
399.111	0.37
399.316	0.31
399.522	0.39
399.727	0.32
399.932	0.31
400.138	0.31
400.343	0.39
400.549	0.35
400.754	0.29
400.959	0.36
401.165	0.34
401.37	0.36
401.575	0.45
401.78	0.34
401.986	0.31
402.191	0.31
402.396	0.37
402.601	0.4
402.807	0.42
403.012	0.4
403.217	0.43
403.422	0.37
403.627	0.35
403.832	0.38
404.037	0.38
404.243	0.43
404.448	0.4
404.653	0.39
404.858	0.41
405.063	0.45
405.268	0.42
405.473	0.39
405.678	0.41
405.883	0.53
406.088	0.51
406.293	0.4
406.498	0.43
406.703	0.52
406.907	0.47
407.112	0.42
407.317	0.49
407.522	0.54
407.727	0.46
407.932	0.51
408.136	0.58
408.341	0.56
408.546	0.52
408.751	0.55
408.956	0.6
409.16	0.61
409.365	0.56
409.57	0.56
409.774	0.64
409.979	0.63
410.184	0.64
410.388	0.65
410.593	0.73
410.798	0.72
411.002	0.75
411.207	0.76
411.411	0.78
411.616	0.72
411.82	0.82
412.025	0.85
412.229	0.82
412.434	0.91
412.638	0.92
412.843	0.94
413.047	0.97
413.252	0.91
413.456	1.03
413.66	1.02
413.865	1
414.069	1.11
414.273	1.13
414.478	1.07
414.682	1.13
414.886	1.21
415.091	1.19
415.295	1.23
415.499	1.33
415.703	1.3
415.908	1.4
416.112	1.29
416.316	1.54
416.52	1.52
416.724	1.56
416.929	1.58
417.133	1.75
417.337	1.71
417.541	1.82
417.745	1.77
417.949	1.87
418.153	2
418.357	1.94
418.561	2.11
418.765	2.07
418.969	2.2
419.173	2.26
419.377	2.33
419.581	2.47
419.785	2.51
419.989	2.57
420.193	2.7
420.397	2.79
420.601	2.95
420.804	3.03
421.008	2.97
421.212	3.13
421.416	3.1
421.62	3.15
421.823	3.22
422.027	3.41
422.231	3.35
422.435	3.35
422.638	3.46
422.842	3.48
423.046	3.63
423.249	3.83
423.453	3.86
423.657	3.96
423.86	4.02
424.064	4.23
424.268	4.29
424.471	4.36
424.675	4.53
424.878	4.59
425.082	4.74
425.285	5.02
425.489	4.98
425.692	5.07
425.896	5.03
426.099	5.35
426.303	5.47
426.506	5.64
426.71	5.84
426.913	5.88
427.116	6.13
427.32	6.17
427.523	6.22
427.726	6.52
427.93	6.69
428.133	6.89
428.336	7.17
428.54	7.16
428.743	7.39
428.946	7.76
429.149	7.66
429.353	7.69
429.556	7.81
429.759	7.86
429.962	8.07
430.165	8.17
430.368	7.75
430.571	7.88
430.775	7.91
430.978	7.93
431.181	7.95
431.384	8.09
431.587	8.12
431.79	8.59
431.993	8.49
432.196	8.84
432.399	9.17
432.602	9.13
432.805	9.44
433.008	9.95
433.211	9.88
433.414	10.06
433.616	10.09
433.819	10.14
434.022	10.36
434.225	10.39
434.428	10.45
434.631	10.84
434.833	10.72
435.036	10.9
435.239	11.1
435.442	11.19
435.645	11.3
435.847	11.36
436.05	11.69
436.253	12.01
436.455	11.97
436.658	11.93
436.861	12.13
437.063	12.3
437.266	12.2
437.468	12.62
437.671	12.9
437.874	12.95
438.076	12.81
438.279	13.29
438.481	13.36
438.684	14.19
438.886	13.69
439.089	13.92
439.291	13.97
439.494	14.25
439.696	14.46
439.899	15.02
440.101	15.48
440.303	15.73
440.506	16.34
440.708	16.07
440.91	16.3
441.113	16.66
441.315	16.67
441.517	16.74
441.72	16.99
441.922	16.53
442.124	16.64
442.326	16.88
442.529	17.22
442.731	17.27
442.933	17.59
443.135	17.27
443.337	17.22
443.539	18.03
443.742	17.54
443.944	18.21
444.146	18.04
444.348	17.77
444.55	17.72
444.752	18.04
444.954	18.11
445.156	17.92
445.358	18.38
445.56	18.7
445.762	18.44
445.964	18.85
446.166	18.54
446.368	18.45
446.57	18.54
446.772	18.13
446.974	18.11
447.175	18.4
447.377	18.13
447.579	18.44
447.781	18.17
447.983	17.88
448.184	17.5
448.386	17.86
448.588	17.45
448.79	17.3
448.991	17.56
449.193	17.65
449.395	16.9
449.597	16.66
449.798	16.58
450	16.21
450.202	15.94
450.403	16.09
450.605	15.99
450.806	15.66
451.008	15.52
451.21	15.2
451.411	14.89
451.613	13.99
451.814	14.24
452.016	14.21
452.217	13.56
452.419	13.48
452.62	13.25
452.821	13.15
453.023	12.84
453.224	12.54
453.426	12.13
453.627	11.21
453.828	11.5
454.03	11.59
454.231	11.53
454.432	11.41
454.634	11.1
454.835	10.79
455.036	10.7
455.238	10.4
455.439	9.97
455.64	9.88
455.841	9.63
456.042	9.67
456.244	9.42
456.445	9.16
456.646	8.96
456.847	8.82
457.048	8.67
457.249	8.67
457.45	8.33
457.651	7.93
457.852	7.78
458.054	7.43
458.255	7.36
458.456	7.43
458.657	7.36
458.858	7.01
459.058	6.77
459.259	6.88
459.46	6.71
459.661	6.59
459.862	6.59
460.063	6.48
460.264	6.31
460.465	6.13
460.666	6.18
460.866	5.83
461.067	5.58
461.268	5.72
461.469	5.61
461.67	5.47
461.87	5.34
462.071	5.35
462.272	5.24
462.473	5.22
462.673	5.4
462.874	5.34
463.075	5.23
463.275	5.23
463.476	5.19
463.676	5.13
463.877	5.08
464.078	4.98
464.278	5
464.479	5.01
464.679	4.88
464.88	4.83
465.08	4.7
465.281	4.52
465.481	4.33
465.682	4.18
465.882	4.22
466.083	4.18
466.283	4.1
466.483	3.96
466.684	3.82
466.884	3.7
467.085	3.74
467.285	3.79
467.485	3.67
467.686	3.61
467.886	3.51
468.086	3.41
468.286	3.47
468.487	3.45
468.687	3.35
468.887	3.3
469.087	3.3
469.287	3.28
469.488	3.1
469.688	3.2
469.888	3.23
470.088	3.13
470.288	3.1
470.488	3.13
470.688	2.93
470.888	2.92
471.088	2.8
471.288	2.88
471.488	2.83
471.688	2.78
471.888	2.76
472.088	2.77
472.288	2.74
472.488	2.65
472.688	2.6
472.888	2.62
473.088	2.67
473.288	2.52
473.488	2.54
473.688	2.62
473.887	2.52
474.087	2.5
474.287	2.5
474.487	2.42
474.687	2.47
474.886	2.4
475.086	2.41
475.286	2.36
475.486	2.3
475.685	2.27
475.885	2.24
476.085	2.3
476.284	2.31
476.484	2.29
476.684	2.24
476.883	2.33
477.083	2.18
477.282	2.16
477.482	2.2
477.681	2.17
477.881	2.07
478.08	2.1
478.28	2.06
478.479	2.13
478.679	2.15
478.878	2.06
479.078	2.09
479.277	2.12
479.477	2.11
479.676	2.01
479.875	2.04
480.075	2.03
480.274	2.05
480.473	2.03
480.673	2.07
480.872	2.09
481.071	2.07
481.271	2.06
481.47	2.04
481.669	2.06
481.868	2.02
482.067	2
482.267	1.94
482.466	1.98
482.665	1.98
482.864	1.97
483.063	1.96
483.262	2.04
483.461	2.02
483.661	2.06
483.86	2.02
484.059	2.06
484.258	2.06
484.457	2.04
484.656	2.02
484.855	2.1
485.054	1.95
485.253	1.94
485.452	1.97
485.651	2.04
485.849	2.02
486.048	2.06
486.247	2.02
486.446	2.11
486.645	2.02
486.844	2.1
487.043	2.03
487.241	2.11
487.44	2.12
487.639	2.14
487.838	2.15
488.037	2.15
488.235	2.19
488.434	2.18
488.633	2.02
488.831	2.2
489.03	2.24
489.229	2.24
489.427	2.24
489.626	2.25
489.825	2.24
490.023	2.28
490.222	2.27
490.42	2.3
490.619	2.3
490.817	2.38
491.016	2.35
491.214	2.42
491.413	2.44
491.611	2.35
491.81	2.4
492.008	2.41
492.207	2.51
492.405	2.5
492.604	2.43
492.802	2.53
493	2.59
493.199	2.59
493.397	2.65
493.595	2.68
493.794	2.62
493.992	2.8
494.19	2.78
494.388	2.83
494.587	2.7
494.785	2.77
494.983	2.75
495.181	2.86
495.379	2.89
495.578	2.93
495.776	2.95
495.974	2.92
496.172	2.97
496.37	3.08
496.568	3.08
496.766	3.09
496.964	3.15
497.162	3.16
497.36	3.21
497.558	3.22
497.756	3.28
497.954	3.27
498.152	3.34
498.35	3.41
498.548	3.34
498.746	3.4
498.944	3.41
499.142	3.42
499.34	3.51
499.538	3.63
499.736	3.5
499.933	3.59
500.131	3.6
500.329	3.77
500.527	3.76
500.725	3.79
500.922	3.82
501.12	3.82
501.318	3.91
501.516	3.89
501.713	4
501.911	3.96
502.109	3.96
502.306	4.08
502.504	3.98
502.701	4.1
502.899	4.13
