Data from Apollo_Calib_20240827__AbsoluteIrradiance__885__13-54-02-746.txt Node

Date: Wed Aug 28 13:54:02 BST 2024
User: biology
Spectrometer: FLMT08252
Trigger mode: 0
Integration Time (sec): 5.000000E-1
Scans to average: 5
Electric dark correction enabled: true
Nonlinearity correction enabled: false
Boxcar width: 0
XAxis mode: Wavelengths
Number of Pixels in Spectrum: 3648
>>>>>Begin Spectral Data<<<<<
179.588	-0
179.809	-0
180.03	-0
180.251	-0
180.473	-0
180.694	0
180.915	0
181.136	-0
181.357	0
181.578	-0
181.799	-0
182.02	-0
182.241	-0
182.462	-0
182.683	0
182.904	-0
183.125	0
183.346	0
183.567	0
183.788	0
184.009	0
184.23	0
184.451	0
184.672	0
184.892	0
185.113	0
185.334	0
185.555	0
185.776	0
185.996	0
186.217	0
186.438	0
186.659	0
186.879	0
187.1	0
187.321	0
187.541	0
187.762	0
187.983	0
188.203	0
188.424	0
188.644	0
188.865	0
189.086	0
189.306	0
189.527	0
189.747	0
189.968	0
190.188	0
190.409	0
190.629	0
190.849	0
191.07	0
191.29	0
191.511	0
191.731	0
191.951	0
192.172	0
192.392	0
192.612	0
192.833	0
193.053	0
193.273	0
193.493	0
193.714	0
193.934	0
194.154	0
194.374	0
194.594	0
194.815	0
195.035	0
195.255	0
195.475	0
195.695	0
195.915	0
196.135	0
196.355	0
196.575	0
196.795	0
197.015	0
197.235	0
197.455	0
197.675	0
197.895	0
198.115	0
198.335	0
198.555	0
198.775	0
198.995	0
199.214	0
199.434	0
199.654	0
199.874	0
200.094	3.93
200.313	2.74
200.533	1.88
200.753	1.44
200.973	3.63
201.192	2.91
201.412	1.38
201.632	1.43
201.851	3.64
202.071	1.84
202.291	1.79
202.51	1.2
202.73	2.7
202.95	2.13
203.169	1.01
203.389	1.87
203.608	2.4
203.828	1.59
204.047	1.47
204.267	2.44
204.486	2.07
204.706	2.41
204.925	1.74
205.145	1.81
205.364	2.25
205.583	2.97
205.803	1.56
206.022	1.07
206.242	1.74
206.461	1.66
206.68	1.04
206.9	1.37
207.119	2.62
207.338	2.24
207.557	1.06
207.777	1.23
207.996	1.51
208.215	2.38
208.434	1.12
208.654	0.98
208.873	1.37
209.092	1.98
209.311	0.97
209.53	1.07
209.749	1.3
209.968	1.06
210.187	0.99
210.407	0.65
210.626	1.36
210.845	1.65
211.064	1.13
211.283	0.74
211.502	1.71
211.721	1.18
211.94	0.95
212.159	1.45
212.377	1.51
212.596	1.4
212.815	1.2
213.034	1.06
213.253	1.29
213.472	1.22
213.691	1.16
213.91	0.6
214.128	0.76
214.347	1.52
214.566	0.56
214.785	0.64
215.003	1.3
215.222	1.27
215.441	1.05
215.66	0.52
215.878	1.1
216.097	1.14
216.316	0.47
216.534	0.91
216.753	1.15
216.972	0.76
217.19	0.82
217.409	0.62
217.627	0.89
217.846	0.93
218.064	0.95
218.283	0.51
218.501	1.47
218.72	1.02
218.938	0.6
219.157	0.41
219.375	1.17
219.594	1.12
219.812	0.61
220.031	0.57
220.249	1.15
220.467	1.25
220.686	0.73
220.904	0.64
221.122	0.83
221.341	1.23
221.559	0.83
221.777	0.55
221.995	0.88
222.214	1
222.432	0.63
222.65	0.82
222.868	0.67
223.086	0.87
223.305	0.73
223.523	0.55
223.741	1.22
223.959	0.73
224.177	0.34
224.395	0.36
224.613	0.85
224.831	0.99
225.049	0.45
225.267	0.55
225.485	0.84
225.703	0.63
225.921	0.55
226.139	0.42
226.357	0.9
226.575	0.8
226.793	0.5
227.011	1.64
227.229	0.67
227.447	0.95
227.665	0.55
227.883	0.48
228.1	0.59
228.318	0.75
228.536	0.33
228.754	0.43
228.972	0.8
229.189	0.84
229.407	0.62
229.625	0.56
229.843	0.83
230.06	0.79
230.278	0.56
230.496	0.57
230.713	0.61
230.931	0.85
231.149	0.49
231.366	0.31
231.584	0.62
231.801	1.02
232.019	0.39
232.236	0.4
232.454	0.46
232.671	0.71
232.889	0.42
233.106	0.41
233.324	0.53
233.541	0.58
233.759	0.51
233.976	0.39
234.194	0.46
234.411	0.54
234.628	0.4
234.846	0.42
235.063	0.64
235.28	0.56
235.498	0.45
235.715	0.29
235.932	0.73
236.149	0.51
236.367	0.33
236.584	0.62
236.801	0.48
237.018	0.73
237.236	0.51
237.453	0.19
237.67	0.63
237.887	0.54
238.104	0.46
238.321	0.34
238.538	0.32
238.755	0.8
238.973	0.31
239.19	0.49
239.407	0.6
239.624	0.59
239.841	0.4
240.058	0.32
240.275	0.53
240.492	0.49
240.709	0.5
240.925	0.28
241.142	0.47
241.359	0.4
241.576	0.34
241.793	0.3
242.01	0.54
242.227	0.61
242.444	0.53
242.66	0.62
242.877	0.47
243.094	0.48
243.311	0.47
243.527	0.4
243.744	0.61
243.961	0.55
244.178	0.39
244.394	0.44
244.611	0.65
244.828	0.54
245.044	0.27
245.261	0.3
245.477	0.44
245.694	0.6
245.911	0.33
246.127	0.48
246.344	0.61
246.56	0.56
246.777	0.38
246.993	0.43
247.21	0.45
247.426	0.63
247.643	0.36
247.859	0.27
248.076	0.41
248.292	0.71
248.508	0.3
248.725	0.45
248.941	0.49
249.157	0.64
249.374	0.35
249.59	0.35
249.806	0.44
250.023	0.48
250.239	0.34
250.455	0.29
250.671	0.4
250.888	0.48
251.104	0.5
251.32	0.34
251.536	0.37
251.752	0.46
251.969	0.43
252.185	0.43
252.401	0.71
252.617	0.47
252.833	0.33
253.049	0.43
253.265	0.37
253.481	0.41
253.697	0.35
253.913	0.29
254.129	0.46
254.345	0.47
254.561	0.34
254.777	0.35
254.993	0.47
255.209	0.37
255.425	0.37
255.641	0.32
255.857	0.48
256.073	0.56
256.288	0.25
256.504	0.31
256.72	0.47
256.936	0.59
257.152	0.33
257.367	0.31
257.583	0.43
257.799	0.44
258.015	0.33
258.23	0.34
258.446	0.64
258.662	0.43
258.877	0.29
259.093	0.28
259.309	0.34
259.524	0.43
259.74	0.27
259.955	0.25
260.171	0.46
260.387	0.37
260.602	0.32
260.818	0.41
261.033	0.26
261.249	0.44
261.464	0.33
261.68	0.27
261.895	0.36
262.11	0.55
262.326	0.33
262.541	0.17
262.757	0.55
262.972	0.47
263.187	0.35
263.403	0.38
263.618	0.5
263.833	0.36
264.049	0.35
264.264	0.36
264.479	0.28
264.694	0.47
264.91	0.22
265.125	0.31
265.34	0.49
265.555	0.62
265.77	0.37
265.986	0.32
266.201	0.42
266.416	0.49
266.631	0.3
266.846	0.32
267.061	0.4
267.276	0.44
267.491	0.14
267.706	0.4
267.921	0.39
268.136	0.43
268.351	0.36
268.566	0.19
268.781	0.43
268.996	0.38
269.211	0.29
269.426	0.24
269.641	0.35
269.856	0.39
270.071	0.3
270.285	0.22
270.5	0.46
270.715	0.41
270.93	0.37
271.145	0.41
271.359	0.51
271.574	0.36
271.789	0.38
272.004	0.36
272.218	0.32
272.433	0.39
272.648	0.22
272.862	0.44
273.077	0.4
273.292	0.4
273.506	0.28
273.721	0.31
273.936	0.35
274.15	0.46
274.365	0.29
274.579	0.35
274.794	0.38
275.008	0.44
275.223	0.23
275.437	0.28
275.652	0.44
275.866	0.38
276.081	0.3
276.295	0.38
276.509	0.37
276.724	0.37
276.938	0.32
277.153	0.34
277.367	0.39
277.581	0.31
277.796	0.22
278.01	0.25
278.224	0.41
278.438	0.45
278.653	0.24
278.867	0.24
279.081	0.4
279.295	0.29
279.51	0.34
279.724	0.17
279.938	0.4
280.152	0.38
280.366	0.32
280.58	0.29
280.794	0.48
281.008	0.39
281.222	0.36
281.437	0.48
281.651	0.34
281.865	0.38
282.079	0.26
282.293	0.13
282.507	0.25
282.721	0.31
282.935	0.27
283.148	0.25
283.362	0.26
283.576	0.21
283.79	0.27
284.004	0.26
284.218	0.42
284.432	0.25
284.646	0.26
284.859	0.26
285.073	0.31
285.287	0.32
285.501	0.31
285.714	0.31
285.928	0.29
286.142	0.32
286.356	0.23
286.569	0.23
286.783	0.37
286.997	0.41
287.21	0.32
287.424	0.27
287.637	0.25
287.851	0.27
288.065	0.31
288.278	0.25
288.492	0.29
288.705	0.26
288.919	0.3
289.132	0.19
289.346	0.37
289.559	0.12
289.773	0.21
289.986	0.25
290.2	0.31
290.413	0.34
290.626	0.19
290.84	0.22
291.053	0.31
291.267	0.36
291.48	0.32
291.693	0.28
291.906	0.25
292.12	0.28
292.333	0.21
292.546	0.26
292.76	0.37
292.973	0.32
293.186	0.32
293.399	0.23
293.612	0.35
293.826	0.3
294.039	0.2
294.252	0.24
294.465	0.34
294.678	0.31
294.891	0.29
295.104	0.18
295.317	0.26
295.53	0.33
295.743	0.27
295.956	0.24
296.169	0.34
296.382	0.31
296.595	0.24
296.808	0.21
297.021	0.36
297.234	0.35
297.447	0.29
297.66	0.29
297.873	0.33
298.086	0.33
298.299	0.19
298.511	0.21
298.724	0.27
298.937	0.2
299.15	0.19
299.363	0.25
299.575	0.32
299.788	0.32
300.001	0.24
300.213	0.24
300.426	0.23
300.639	0.26
300.852	0.22
301.064	0.25
301.277	0.37
301.489	0.31
301.702	0.3
301.915	0.29
302.127	0.25
302.34	0.31
302.552	0.32
302.765	0.21
302.977	0.31
303.19	0.24
303.402	0.2
303.615	0.22
303.827	0.28
304.04	0.24
304.252	0.27
304.464	0.24
304.677	0.4
304.889	0.32
305.102	0.2
305.314	0.16
305.526	0.29
305.739	0.32
305.951	0.19
306.163	0.27
306.375	0.39
306.588	0.24
306.8	0.27
307.012	0.16
307.224	0.33
307.436	0.36
307.649	0.2
307.861	0.27
308.073	0.27
308.285	0.26
308.497	0.15
308.709	0.22
308.921	0.26
309.133	0.33
309.346	0.22
309.558	0.24
309.77	0.33
309.982	0.36
310.194	0.31
310.406	0.2
310.617	0.39
310.829	0.28
311.041	0.3
311.253	0.21
311.465	0.27
311.677	0.25
311.889	0.24
312.101	0.23
312.313	0.31
312.524	0.37
312.736	0.15
312.948	0.26
313.16	0.38
313.372	0.33
313.583	0.31
313.795	0.21
314.007	0.23
314.218	0.32
314.43	0.23
314.642	0.25
314.853	0.18
315.065	0.29
315.277	0.22
315.488	0.29
315.7	0.34
315.912	0.3
316.123	0.23
316.335	0.24
316.546	0.41
316.758	0.28
316.969	0.24
317.181	0.27
317.392	0.26
317.604	0.33
317.815	0.21
318.026	0.23
318.238	0.27
318.449	0.32
318.661	0.18
318.872	0.18
319.083	0.22
319.295	0.3
319.506	0.25
319.717	0.23
319.929	0.32
320.14	0.26
320.351	0.25
320.562	0.22
320.774	0.31
320.985	0.24
321.196	0.18
321.407	0.19
321.618	0.28
321.829	0.24
322.041	0.27
322.252	0.26
322.463	0.32
322.674	0.32
322.885	0.2
323.096	0.22
323.307	0.3
323.518	0.27
323.729	0.24
323.94	0.2
324.151	0.23
324.362	0.3
324.573	0.27
324.784	0.23
324.995	0.32
325.206	0.29
325.417	0.23
325.628	0.22
325.838	0.25
326.049	0.26
326.26	0.29
326.471	0.2
326.682	0.27
326.892	0.28
327.103	0.23
327.314	0.23
327.525	0.34
327.735	0.29
327.946	0.24
328.157	0.2
328.368	0.32
328.578	0.27
328.789	0.24
328.999	0.24
329.21	0.24
329.421	0.34
329.631	0.24
329.842	0.16
330.052	0.25
330.263	0.25
330.473	0.27
330.684	0.21
330.894	0.28
331.105	0.33
331.315	0.29
331.526	0.2
331.736	0.35
331.947	0.28
332.157	0.31
332.367	0.19
332.578	0.32
332.788	0.33
332.999	0.29
333.209	0.22
333.419	0.19
333.629	0.28
333.84	0.28
334.05	0.25
334.26	0.37
334.47	0.23
334.681	0.32
334.891	0.26
335.101	0.3
335.311	0.35
335.521	0.27
335.732	0.19
335.942	0.34
336.152	0.33
336.362	0.29
336.572	0.3
336.782	0.33
336.992	0.24
337.202	0.22
337.412	0.25
337.622	0.33
337.832	0.25
338.042	0.24
338.252	0.21
338.462	0.25
338.672	0.29
338.882	0.24
339.092	0.29
339.302	0.39
339.511	0.32
339.721	0.25
339.931	0.17
340.141	0.33
340.351	0.33
340.561	0.3
340.77	0.28
340.98	0.26
341.19	0.27
341.4	0.23
341.609	0.17
341.819	0.29
342.029	0.24
342.238	0.27
342.448	0.24
342.658	0.32
342.867	0.25
343.077	0.28
343.286	0.22
343.496	0.29
343.706	0.33
343.915	0.23
344.125	0.28
344.334	0.32
344.544	0.21
344.753	0.21
344.963	0.24
345.172	0.21
345.381	0.24
345.591	0.22
345.8	0.22
346.01	0.31
346.219	0.31
346.428	0.17
346.638	0.24
346.847	0.3
347.056	0.33
347.266	0.23
347.475	0.19
347.684	0.32
347.893	0.3
348.103	0.26
348.312	0.23
348.521	0.28
348.73	0.28
348.94	0.25
349.149	0.22
349.358	0.27
349.567	0.21
349.776	0.18
349.985	0.2
350.194	0.28
350.403	0.3
350.612	0.2
350.821	0.16
351.03	0.27
351.239	0.19
351.448	0.26
351.657	0.22
351.866	0.35
352.075	0.3
352.284	0.32
352.493	0.18
352.702	0.3
352.911	0.26
353.12	0.27
353.329	0.22
353.538	0.26
353.746	0.26
353.955	0.22
354.164	0.24
354.373	0.24
354.582	0.29
354.79	0.25
354.999	0.26
355.208	0.19
355.416	0.37
355.625	0.22
355.834	0.22
356.042	0.32
356.251	0.26
356.46	0.19
356.668	0.24
356.877	0.36
357.085	0.29
357.294	0.15
357.503	0.26
357.711	0.27
357.92	0.4
358.128	0.27
358.337	0.22
358.545	0.29
358.754	0.23
358.962	0.3
359.17	0.19
359.379	0.33
359.587	0.28
359.796	0.25
360.004	0.3
360.212	0.32
360.421	0.3
360.629	0.21
360.837	0.25
361.046	0.34
361.254	0.39
361.462	0.25
361.67	0.24
361.879	0.32
362.087	0.31
362.295	0.26
362.503	0.21
362.711	0.15
362.92	0.21
363.128	0.2
363.336	0.19
363.544	0.15
363.752	0.25
363.96	0.23
364.168	0.17
364.376	0.3
364.584	0.26
364.792	0.37
365	0.27
365.208	0.28
365.416	0.33
365.624	0.32
365.832	0.18
366.04	0.34
366.248	0.28
366.456	0.26
366.664	0.26
366.872	0.23
367.079	0.25
367.287	0.22
367.495	0.28
367.703	0.27
367.911	0.23
368.118	0.23
368.326	0.22
368.534	0.17
368.742	0.28
368.949	0.14
369.157	0.2
369.365	0.3
369.572	0.22
369.78	0.2
369.988	0.29
370.195	0.26
370.403	0.31
370.61	0.2
370.818	0.27
371.026	0.36
371.233	0.27
371.441	0.26
371.648	0.24
371.856	0.3
372.063	0.24
372.271	0.24
372.478	0.23
372.685	0.24
372.893	0.34
373.1	0.25
373.308	0.2
373.515	0.4
373.722	0.3
373.93	0.23
374.137	0.28
374.344	0.35
374.552	0.33
374.759	0.26
374.966	0.25
375.173	0.24
375.381	0.35
375.588	0.26
375.795	0.19
376.002	0.24
376.209	0.19
376.417	0.23
376.624	0.29
376.831	0.28
377.038	0.25
377.245	0.16
377.452	0.23
377.659	0.27
377.866	0.2
378.073	0.23
378.28	0.24
378.487	0.38
378.694	0.27
378.901	0.23
379.108	0.24
379.315	0.33
379.522	0.38
379.729	0.29
379.936	0.25
380.143	0.28
380.35	0.28
380.557	0.25
380.763	0.28
380.97	0.29
381.177	0.29
381.384	0.3
381.591	0.26
381.797	0.31
382.004	0.32
382.211	0.31
382.418	0.25
382.624	0.28
382.831	0.35
383.038	0.22
383.244	0.3
383.451	0.26
383.658	0.32
383.864	0.26
384.071	0.22
384.277	0.39
384.484	0.25
384.69	0.32
384.897	0.26
385.103	0.26
385.31	0.25
385.516	0.24
385.723	0.26
385.929	0.26
386.136	0.21
386.342	0.29
386.549	0.25
386.755	0.36
386.961	0.32
387.168	0.28
387.374	0.24
387.58	0.33
387.787	0.33
387.993	0.3
388.199	0.3
388.406	0.26
388.612	0.27
388.818	0.26
389.024	0.24
389.231	0.3
389.437	0.39
389.643	0.31
389.849	0.3
390.055	0.28
390.261	0.3
390.467	0.34
390.674	0.26
390.88	0.3
391.086	0.34
391.292	0.27
391.498	0.33
391.704	0.32
391.91	0.28
392.116	0.29
392.322	0.22
392.528	0.33
392.734	0.28
392.94	0.29
393.146	0.3
393.352	0.35
393.557	0.25
393.763	0.33
393.969	0.38
394.175	0.32
394.381	0.33
394.587	0.22
394.792	0.29
394.998	0.34
395.204	0.34
395.41	0.27
395.615	0.3
395.821	0.36
396.027	0.37
396.233	0.25
396.438	0.33
396.644	0.42
396.85	0.36
397.055	0.32
397.261	0.28
397.466	0.44
397.672	0.32
397.878	0.4
398.083	0.4
398.289	0.35
398.494	0.42
398.7	0.34
398.905	0.25
399.111	0.46
399.316	0.26
399.522	0.36
399.727	0.3
399.932	0.36
400.138	0.26
400.343	0.37
400.549	0.37
400.754	0.36
400.959	0.35
401.165	0.37
401.37	0.34
401.575	0.49
401.78	0.4
401.986	0.38
402.191	0.32
402.396	0.39
402.601	0.42
402.807	0.43
403.012	0.42
403.217	0.47
403.422	0.38
403.627	0.46
403.832	0.37
404.037	0.49
404.243	0.43
404.448	0.42
404.653	0.41
404.858	0.47
405.063	0.48
405.268	0.39
405.473	0.4
405.678	0.42
405.883	0.64
406.088	0.52
406.293	0.41
406.498	0.47
406.703	0.54
406.907	0.46
407.112	0.41
407.317	0.5
407.522	0.5
407.727	0.45
407.932	0.54
408.136	0.74
408.341	0.54
408.546	0.55
408.751	0.56
408.956	0.55
409.16	0.68
409.365	0.64
409.57	0.6
409.774	0.59
409.979	0.63
410.184	0.68
410.388	0.59
410.593	0.74
410.798	0.73
411.002	0.71
411.207	0.72
411.411	0.76
411.616	0.69
411.82	0.86
412.025	0.84
412.229	0.81
412.434	0.98
412.638	0.86
412.843	0.91
413.047	0.91
413.252	0.92
413.456	0.97
413.66	1.01
413.865	0.96
414.069	1.13
414.273	1.05
414.478	1.03
414.682	1.09
414.886	1.13
415.091	1.08
415.295	1.17
415.499	1.35
415.703	1.29
415.908	1.4
416.112	1.21
416.316	1.49
416.52	1.48
416.724	1.4
416.929	1.52
417.133	1.7
417.337	1.59
417.541	1.68
417.745	1.73
417.949	1.81
418.153	1.89
418.357	1.83
418.561	2.08
418.765	2.01
418.969	2.2
419.173	2.25
419.377	2.24
419.581	2.41
419.785	2.34
419.989	2.48
420.193	2.6
420.397	2.6
420.601	2.79
420.804	2.9
421.008	2.86
421.212	2.94
421.416	2.97
421.62	2.98
421.823	3.07
422.027	3.29
422.231	3.24
422.435	3.18
422.638	3.26
422.842	3.39
423.046	3.39
423.249	3.57
423.453	3.63
423.657	3.85
423.86	3.87
424.064	4.01
424.268	4.14
424.471	4.12
424.675	4.27
424.878	4.46
425.082	4.49
425.285	4.72
425.489	4.7
425.692	4.76
425.896	4.82
426.099	4.97
426.303	5.14
426.506	5.18
426.71	5.54
426.913	5.66
427.116	5.83
427.32	5.78
427.523	5.96
427.726	6.19
427.93	6.25
428.133	6.59
428.336	6.64
428.54	6.82
428.743	7.09
428.946	7.38
429.149	7.37
429.353	7.42
429.556	7.48
429.759	7.41
429.962	7.59
430.165	7.84
430.368	7.46
430.571	7.43
430.775	7.59
430.978	7.55
431.181	7.68
431.384	7.8
431.587	7.76
431.79	8.16
431.993	8.12
432.196	8.47
432.399	8.86
432.602	8.97
432.805	9.07
433.008	9.46
433.211	9.42
433.414	9.67
433.616	9.77
433.819	9.75
434.022	9.81
434.225	10.16
434.428	10.14
434.631	10.65
434.833	10.32
435.036	10.67
435.239	10.75
435.442	10.89
435.645	10.93
435.847	10.92
436.05	11.43
436.253	11.46
436.455	11.57
436.658	11.45
436.861	11.83
437.063	11.91
437.266	11.91
437.468	12.29
437.671	12.57
437.874	12.55
438.076	12.39
438.279	12.87
438.481	12.81
438.684	13.61
438.886	13.19
439.089	13.49
439.291	13.44
439.494	13.87
439.696	14.01
439.899	14.48
440.101	14.98
440.303	15.16
440.506	15.88
440.708	15.57
440.91	15.94
441.113	15.97
441.315	16.21
441.517	15.98
441.72	16.52
441.922	16.04
442.124	16.04
442.326	16.38
442.529	16.77
442.731	16.64
442.933	16.94
443.135	16.79
443.337	16.76
443.539	17.38
443.742	17.01
443.944	17.71
444.146	17.4
444.348	17.46
444.55	17.31
444.752	17.54
444.954	17.46
445.156	17.49
445.358	17.87
445.56	18.07
445.762	17.95
445.964	18.14
446.166	17.97
446.368	18.11
446.57	18.1
446.772	17.69
446.974	17.59
447.175	17.9
447.377	17.57
447.579	18.1
447.781	17.63
447.983	17.64
448.184	17.19
448.386	17.64
448.588	16.94
448.79	17.03
448.991	17.48
449.193	17.44
449.395	16.85
449.597	16.47
449.798	16.43
450	16.02
450.202	15.88
450.403	15.95
450.605	15.89
450.806	15.48
451.008	15.41
451.21	15.14
451.411	14.72
451.613	14.01
451.814	14.38
452.016	14.32
452.217	13.58
452.419	13.57
452.62	13.42
452.821	13.03
453.023	12.98
453.224	12.65
453.426	12.26
453.627	11.43
453.828	11.68
454.03	11.74
454.231	11.71
454.432	11.46
454.634	11.32
454.835	11.02
455.036	10.92
455.238	10.39
455.439	10.26
455.64	9.91
455.841	9.87
456.042	9.96
456.244	9.69
456.445	9.35
456.646	8.96
456.847	9.02
457.048	8.89
457.249	8.87
457.45	8.66
457.651	8.12
457.852	7.95
458.054	7.66
458.255	7.49
458.456	7.64
458.657	7.47
458.858	6.94
459.058	6.96
459.259	7.06
459.46	6.71
459.661	6.67
459.862	6.81
460.063	6.56
460.264	6.5
460.465	6.21
460.666	6.37
460.866	6.05
461.067	5.79
461.268	5.77
461.469	5.73
461.67	5.65
461.87	5.4
462.071	5.39
462.272	5.39
462.473	5.34
462.673	5.52
462.874	5.37
463.075	5.34
463.275	5.3
463.476	5.39
463.676	5.36
463.877	5.12
464.078	5.1
464.278	5.19
464.479	5.03
464.679	4.96
464.88	4.89
465.08	4.81
465.281	4.75
465.481	4.49
465.682	4.28
465.882	4.34
466.083	4.23
466.283	4.18
466.483	4.12
466.684	3.98
466.884	3.75
467.085	3.82
467.285	4
467.485	3.79
467.686	3.72
467.886	3.62
468.086	3.56
468.286	3.55
468.487	3.64
468.687	3.4
468.887	3.39
469.087	3.57
469.287	3.36
469.488	3.18
469.688	3.3
469.888	3.37
470.088	3.3
470.288	3.2
470.488	3.22
470.688	3.02
470.888	2.93
471.088	2.85
471.288	2.95
471.488	2.94
471.688	2.9
471.888	2.79
472.088	2.99
472.288	2.89
472.488	2.8
472.688	2.66
472.888	2.74
473.088	2.72
473.288	2.58
473.488	2.61
473.688	2.74
473.887	2.61
474.087	2.48
474.287	2.57
474.487	2.47
474.687	2.56
474.886	2.52
475.086	2.41
475.286	2.44
475.486	2.39
475.685	2.38
475.885	2.34
476.085	2.45
476.284	2.37
476.484	2.35
476.684	2.32
476.883	2.42
477.083	2.34
477.282	2.25
477.482	2.28
477.681	2.2
477.881	2.16
478.08	2.17
478.28	2.1
478.479	2.17
478.679	2.26
478.878	2.17
479.078	2.14
479.277	2.21
479.477	2.17
479.676	2.1
479.875	2.07
480.075	2.04
480.274	2.13
480.473	2.15
480.673	2.1
480.872	2.15
481.071	2.11
481.271	2.15
481.47	2.05
481.669	2.04
481.868	2.07
482.067	2.05
482.267	1.99
482.466	2.02
482.665	2.01
482.864	2.05
483.063	2
483.262	2.09
483.461	2.13
483.661	2.11
483.86	2.04
484.059	2.14
484.258	2.12
484.457	2.06
484.656	2.07
484.855	2.18
485.054	1.98
485.253	2.07
485.452	2.06
485.651	2.1
485.849	2.08
486.048	2.04
486.247	2.06
486.446	2.12
486.645	2.07
486.844	2.13
487.043	2.12
487.241	2.19
487.44	2.1
487.639	2.19
487.838	2.17
488.037	2.17
488.235	2.23
488.434	2.2
488.633	2.06
488.831	2.25
489.03	2.27
489.229	2.27
489.427	2.25
489.626	2.32
489.825	2.36
490.023	2.38
490.222	2.34
490.42	2.36
490.619	2.39
490.817	2.38
491.016	2.37
491.214	2.45
491.413	2.43
491.611	2.42
491.81	2.45
492.008	2.49
492.207	2.59
492.405	2.56
492.604	2.47
492.802	2.56
493	2.62
493.199	2.63
493.397	2.62
493.595	2.72
493.794	2.68
493.992	2.82
494.19	2.73
494.388	2.87
494.587	2.76
494.785	2.78
494.983	2.75
495.181	2.87
495.379	2.9
495.578	2.92
495.776	2.94
495.974	2.93
496.172	2.99
496.37	3.07
496.568	3.11
496.766	3.05
496.964	3.17
497.162	3.17
497.36	3.21
497.558	3.27
497.756	3.26
497.954	3.28
498.152	3.33
498.35	3.44
498.548	3.34
498.746	3.44
498.944	3.41
499.142	3.42
499.34	3.5
499.538	3.61
499.736	3.49
499.933	3.62
500.131	3.61
500.329	3.82
500.527	3.75
500.725	3.84
500.922	3.9
501.12	3.83
501.318	3.93
501.516	3.88
501.713	3.99
501.911	3.93
502.109	3.87
502.306	4.08
502.504	4
