Data from Apollo_Calib_20240827__AbsoluteIrradiance__40__23-49-00-180.txt Node

Date: Tue Aug 27 23:49:00 BST 2024
User: biology
Spectrometer: FLMT08252
Trigger mode: 0
Integration Time (sec): 5.000000E-1
Scans to average: 5
Electric dark correction enabled: true
Nonlinearity correction enabled: false
Boxcar width: 0
XAxis mode: Wavelengths
Number of Pixels in Spectrum: 3648
>>>>>Begin Spectral Data<<<<<
179.588	-0
179.809	-0
180.03	-0
180.251	-0
180.473	-0
180.694	0
180.915	0
181.136	-0
181.357	0
181.578	-0
181.799	0
182.02	-0
182.241	0
182.462	-0
182.683	0
182.904	-0
183.125	-0
183.346	0
183.567	0
183.788	0
184.009	0
184.23	0
184.451	0
184.672	0
184.892	0
185.113	0
185.334	0
185.555	0
185.776	0
185.996	0
186.217	0
186.438	0
186.659	0
186.879	0
187.1	0
187.321	0
187.541	0
187.762	0
187.983	0
188.203	0
188.424	0
188.644	0
188.865	0
189.086	0
189.306	0
189.527	0
189.747	0
189.968	0
190.188	0
190.409	0
190.629	0
190.849	0
191.07	0
191.29	0
191.511	0
191.731	0
191.951	0
192.172	0
192.392	0
192.612	0
192.833	0
193.053	0
193.273	0
193.493	0
193.714	0
193.934	0
194.154	0
194.374	0
194.594	0
194.815	0
195.035	0
195.255	0
195.475	0
195.695	0
195.915	0
196.135	0
196.355	0
196.575	0
196.795	0
197.015	0
197.235	0
197.455	0
197.675	0
197.895	0
198.115	0
198.335	0
198.555	0
198.775	0
198.995	0
199.214	0
199.434	0
199.654	0
199.874	0
200.094	3.38
200.313	2.33
200.533	2.65
200.753	2.07
200.973	3.81
201.192	3.51
201.412	1.29
201.632	2.01
201.851	2.84
202.071	1.47
202.291	1.72
202.51	1.61
202.73	2.63
202.95	2.16
203.169	1.49
203.389	1.89
203.608	1.68
203.828	1.86
204.047	1.4
204.267	2.24
204.486	2.32
204.706	2.72
204.925	1.81
205.145	1.5
205.364	1.94
205.583	2.43
205.803	1.58
206.022	1
206.242	1.42
206.461	1.65
206.68	1.33
206.9	1.72
207.119	2.39
207.338	2.47
207.557	1.06
207.777	1.35
207.996	1.28
208.215	1.93
208.434	1.19
208.654	1.04
208.873	1.2
209.092	1.98
209.311	1.13
209.53	1.35
209.749	1.08
209.968	0.97
210.187	1.19
210.407	0.78
210.626	1.02
210.845	1.49
211.064	1.42
211.283	1.05
211.502	1.69
211.721	1.3
211.94	1.02
212.159	1.31
212.377	1.21
212.596	1.4
212.815	1.32
213.034	0.99
213.253	1.35
213.472	1.46
213.691	1.04
213.91	0.66
214.128	1
214.347	1.35
214.566	0.57
214.785	0.7
215.003	1.19
215.222	0.93
215.441	1.22
215.66	0.5
215.878	0.98
216.097	1.17
216.316	0.65
216.534	1.05
216.753	1.11
216.972	0.87
217.19	0.94
217.409	0.67
217.627	0.82
217.846	0.73
218.064	0.92
218.283	0.74
218.501	1.26
218.72	1.07
218.938	0.64
219.157	0.6
219.375	1.19
219.594	0.99
219.812	0.63
220.031	0.65
220.249	0.98
220.467	1.02
220.686	0.71
220.904	0.56
221.122	0.77
221.341	1.03
221.559	0.8
221.777	0.56
221.995	0.8
222.214	0.89
222.432	0.63
222.65	0.88
222.868	0.73
223.086	0.98
223.305	0.86
223.523	0.62
223.741	1.09
223.959	0.72
224.177	0.45
224.395	0.63
224.613	0.79
224.831	0.92
225.049	0.52
225.267	0.64
225.485	0.78
225.703	0.71
225.921	0.56
226.139	0.63
226.357	0.75
226.575	0.77
226.793	0.52
227.011	1.4
227.229	0.75
227.447	0.97
227.665	0.54
227.883	0.35
228.1	0.71
228.318	0.68
228.536	0.45
228.754	0.42
228.972	0.68
229.189	0.71
229.407	0.57
229.625	0.52
229.843	0.77
230.06	0.76
230.278	0.58
230.496	0.63
230.713	0.62
230.931	0.74
231.149	0.61
231.366	0.31
231.584	0.56
231.801	1.06
232.019	0.55
232.236	0.35
232.454	0.46
232.671	0.7
232.889	0.54
233.106	0.43
233.324	0.51
233.541	0.59
233.759	0.57
233.976	0.44
234.194	0.51
234.411	0.46
234.628	0.32
234.846	0.51
235.063	0.49
235.28	0.48
235.498	0.62
235.715	0.43
235.932	0.64
236.149	0.55
236.367	0.42
236.584	0.61
236.801	0.42
237.018	0.5
237.236	0.58
237.453	0.31
237.67	0.65
237.887	0.49
238.104	0.48
238.321	0.39
238.538	0.39
238.755	0.61
238.973	0.3
239.19	0.51
239.407	0.57
239.624	0.6
239.841	0.29
240.058	0.41
240.275	0.52
240.492	0.46
240.709	0.42
240.925	0.48
241.142	0.5
241.359	0.42
241.576	0.33
241.793	0.41
242.01	0.47
242.227	0.6
242.444	0.63
242.66	0.6
242.877	0.48
243.094	0.45
243.311	0.54
243.527	0.44
243.744	0.49
243.961	0.58
244.178	0.43
244.394	0.44
244.611	0.63
244.828	0.67
245.044	0.39
245.261	0.45
245.477	0.47
245.694	0.56
245.911	0.37
246.127	0.41
246.344	0.59
246.56	0.58
246.777	0.39
246.993	0.45
247.21	0.5
247.426	0.49
247.643	0.34
247.859	0.32
248.076	0.44
248.292	0.66
248.508	0.39
248.725	0.45
248.941	0.53
249.157	0.57
249.374	0.4
249.59	0.4
249.806	0.45
250.023	0.39
250.239	0.41
250.455	0.36
250.671	0.41
250.888	0.43
251.104	0.46
251.32	0.43
251.536	0.43
251.752	0.38
251.969	0.45
252.185	0.45
252.401	0.6
252.617	0.46
252.833	0.29
253.049	0.39
253.265	0.43
253.481	0.5
253.697	0.36
253.913	0.24
254.129	0.44
254.345	0.42
254.561	0.4
254.777	0.41
254.993	0.47
255.209	0.37
255.425	0.39
255.641	0.33
255.857	0.39
256.073	0.4
256.288	0.34
256.504	0.33
256.72	0.43
256.936	0.44
257.152	0.41
257.367	0.31
257.583	0.41
257.799	0.49
258.015	0.35
258.23	0.35
258.446	0.61
258.662	0.43
258.877	0.33
259.093	0.34
259.309	0.43
259.524	0.34
259.74	0.36
259.955	0.27
260.171	0.38
260.387	0.33
260.602	0.5
260.818	0.49
261.033	0.32
261.249	0.37
261.464	0.29
261.68	0.27
261.895	0.41
262.11	0.53
262.326	0.28
262.541	0.31
262.757	0.52
262.972	0.47
263.187	0.41
263.403	0.38
263.618	0.49
263.833	0.41
264.049	0.36
264.264	0.41
264.479	0.43
264.694	0.52
264.91	0.25
265.125	0.36
265.34	0.47
265.555	0.5
265.77	0.38
265.986	0.33
266.201	0.38
266.416	0.43
266.631	0.33
266.846	0.3
267.061	0.4
267.276	0.45
267.491	0.2
267.706	0.41
267.921	0.42
268.136	0.41
268.351	0.32
268.566	0.28
268.781	0.49
268.996	0.45
269.211	0.34
269.426	0.29
269.641	0.26
269.856	0.42
270.071	0.27
270.285	0.24
270.5	0.43
270.715	0.47
270.93	0.25
271.145	0.35
271.359	0.4
271.574	0.27
271.789	0.39
272.004	0.37
272.218	0.32
272.433	0.45
272.648	0.31
272.862	0.46
273.077	0.35
273.292	0.38
273.506	0.34
273.721	0.35
273.936	0.35
274.15	0.4
274.365	0.26
274.579	0.38
274.794	0.34
275.008	0.44
275.223	0.26
275.437	0.34
275.652	0.49
275.866	0.35
276.081	0.28
276.295	0.37
276.509	0.33
276.724	0.33
276.938	0.33
277.153	0.32
277.367	0.41
277.581	0.28
277.796	0.27
278.01	0.26
278.224	0.4
278.438	0.4
278.653	0.28
278.867	0.24
279.081	0.38
279.295	0.3
279.51	0.36
279.724	0.22
279.938	0.38
280.152	0.36
280.366	0.28
280.58	0.34
280.794	0.4
281.008	0.38
281.222	0.38
281.437	0.45
281.651	0.39
281.865	0.39
282.079	0.32
282.293	0.19
282.507	0.27
282.721	0.27
282.935	0.32
283.148	0.24
283.362	0.26
283.576	0.22
283.79	0.27
284.004	0.22
284.218	0.36
284.432	0.29
284.646	0.28
284.859	0.29
285.073	0.31
285.287	0.31
285.501	0.28
285.714	0.29
285.928	0.32
286.142	0.32
286.356	0.21
286.569	0.29
286.783	0.41
286.997	0.27
287.21	0.31
287.424	0.28
287.637	0.32
287.851	0.28
288.065	0.31
288.278	0.3
288.492	0.28
288.705	0.24
288.919	0.28
289.132	0.21
289.346	0.34
289.559	0.2
289.773	0.25
289.986	0.28
290.2	0.28
290.413	0.38
290.626	0.29
290.84	0.27
291.053	0.33
291.267	0.36
291.48	0.28
291.693	0.3
291.906	0.23
292.12	0.27
292.333	0.24
292.546	0.26
292.76	0.33
292.973	0.28
293.186	0.34
293.399	0.24
293.612	0.35
293.826	0.25
294.039	0.25
294.252	0.25
294.465	0.28
294.678	0.27
294.891	0.26
295.104	0.21
295.317	0.29
295.53	0.3
295.743	0.24
295.956	0.26
296.169	0.37
296.382	0.31
296.595	0.27
296.808	0.2
297.021	0.29
297.234	0.33
297.447	0.25
297.66	0.31
297.873	0.34
298.086	0.26
298.299	0.26
298.511	0.22
298.724	0.31
298.937	0.2
299.15	0.21
299.363	0.23
299.575	0.33
299.788	0.26
300.001	0.3
300.213	0.26
300.426	0.26
300.639	0.26
300.852	0.24
301.064	0.33
301.277	0.32
301.489	0.28
301.702	0.26
301.915	0.21
302.127	0.26
302.34	0.33
302.552	0.29
302.765	0.22
302.977	0.3
303.19	0.21
303.402	0.3
303.615	0.24
303.827	0.26
304.04	0.25
304.252	0.28
304.464	0.24
304.677	0.39
304.889	0.26
305.102	0.22
305.314	0.24
305.526	0.29
305.739	0.29
305.951	0.21
306.163	0.24
306.375	0.32
306.588	0.23
306.8	0.2
307.012	0.2
307.224	0.29
307.436	0.32
307.649	0.19
307.861	0.23
308.073	0.3
308.285	0.22
308.497	0.22
308.709	0.23
308.921	0.31
309.133	0.36
309.346	0.25
309.558	0.26
309.77	0.3
309.982	0.36
310.194	0.29
310.406	0.22
310.617	0.32
310.829	0.27
311.041	0.29
311.253	0.22
311.465	0.25
311.677	0.28
311.889	0.24
312.101	0.22
312.313	0.3
312.524	0.32
312.736	0.17
312.948	0.24
313.16	0.3
313.372	0.28
313.583	0.26
313.795	0.26
314.007	0.23
314.218	0.31
314.43	0.25
314.642	0.24
314.853	0.2
315.065	0.28
315.277	0.25
315.488	0.3
315.7	0.32
315.912	0.28
316.123	0.23
316.335	0.21
316.546	0.34
316.758	0.24
316.969	0.22
317.181	0.26
317.392	0.22
317.604	0.33
317.815	0.2
318.026	0.19
318.238	0.25
318.449	0.27
318.661	0.21
318.872	0.23
319.083	0.22
319.295	0.23
319.506	0.25
319.717	0.27
319.929	0.33
320.14	0.29
320.351	0.28
320.562	0.25
320.774	0.36
320.985	0.25
321.196	0.22
321.407	0.17
321.618	0.29
321.829	0.27
322.041	0.29
322.252	0.19
322.463	0.32
322.674	0.27
322.885	0.19
323.096	0.26
323.307	0.25
323.518	0.25
323.729	0.2
323.94	0.23
324.151	0.26
324.362	0.26
324.573	0.25
324.784	0.21
324.995	0.27
325.206	0.26
325.417	0.23
325.628	0.22
325.838	0.27
326.049	0.29
326.26	0.3
326.471	0.24
326.682	0.26
326.892	0.3
327.103	0.22
327.314	0.24
327.525	0.37
327.735	0.25
327.946	0.25
328.157	0.24
328.368	0.3
328.578	0.23
328.789	0.31
328.999	0.26
329.21	0.28
329.421	0.3
329.631	0.23
329.842	0.18
330.052	0.29
330.263	0.29
330.473	0.31
330.684	0.23
330.894	0.27
331.105	0.28
331.315	0.27
331.526	0.19
331.736	0.36
331.947	0.29
332.157	0.26
332.367	0.18
332.578	0.28
332.788	0.29
332.999	0.28
333.209	0.28
333.419	0.2
333.629	0.25
333.84	0.3
334.05	0.23
334.26	0.32
334.47	0.25
334.681	0.31
334.891	0.24
335.101	0.29
335.311	0.34
335.521	0.24
335.732	0.19
335.942	0.37
336.152	0.29
336.362	0.21
336.572	0.27
336.782	0.3
336.992	0.23
337.202	0.23
337.412	0.25
337.622	0.26
337.832	0.25
338.042	0.21
338.252	0.22
338.462	0.22
338.672	0.25
338.882	0.22
339.092	0.26
339.302	0.31
339.511	0.26
339.721	0.22
339.931	0.26
340.141	0.32
340.351	0.28
340.561	0.31
340.77	0.26
340.98	0.26
341.19	0.29
341.4	0.24
341.609	0.24
341.819	0.27
342.029	0.16
342.238	0.29
342.448	0.23
342.658	0.29
342.867	0.28
343.077	0.26
343.286	0.28
343.496	0.21
343.706	0.31
343.915	0.19
344.125	0.25
344.334	0.29
344.544	0.19
344.753	0.24
344.963	0.22
345.172	0.24
345.381	0.26
345.591	0.23
345.8	0.27
346.01	0.31
346.219	0.29
346.428	0.15
346.638	0.25
346.847	0.27
347.056	0.35
347.266	0.24
347.475	0.29
347.684	0.28
347.893	0.3
348.103	0.24
348.312	0.23
348.521	0.27
348.73	0.24
348.94	0.26
349.149	0.23
349.358	0.24
349.567	0.17
349.776	0.19
349.985	0.21
350.194	0.31
350.403	0.29
350.612	0.19
350.821	0.21
351.03	0.24
351.239	0.21
351.448	0.3
351.657	0.21
351.866	0.3
352.075	0.27
352.284	0.28
352.493	0.17
352.702	0.29
352.911	0.28
353.12	0.26
353.329	0.23
353.538	0.29
353.746	0.21
353.955	0.2
354.164	0.3
354.373	0.25
354.582	0.3
354.79	0.25
354.999	0.3
355.208	0.21
355.416	0.29
355.625	0.22
355.834	0.24
356.042	0.27
356.251	0.24
356.46	0.2
356.668	0.26
356.877	0.34
357.085	0.32
357.294	0.17
357.503	0.26
357.711	0.27
357.92	0.4
358.128	0.28
358.337	0.23
358.545	0.29
358.754	0.25
358.962	0.3
359.17	0.26
359.379	0.25
359.587	0.28
359.796	0.23
360.004	0.31
360.212	0.26
360.421	0.33
360.629	0.26
360.837	0.23
361.046	0.29
361.254	0.39
361.462	0.25
361.67	0.21
361.879	0.24
362.087	0.3
362.295	0.23
362.503	0.22
362.711	0.22
362.92	0.25
363.128	0.24
363.336	0.2
363.544	0.18
363.752	0.26
363.96	0.24
364.168	0.2
364.376	0.27
364.584	0.25
364.792	0.27
365	0.23
365.208	0.21
365.416	0.25
365.624	0.3
365.832	0.2
366.04	0.32
366.248	0.27
366.456	0.25
366.664	0.26
366.872	0.21
367.079	0.22
367.287	0.25
367.495	0.25
367.703	0.24
367.911	0.22
368.118	0.23
368.326	0.26
368.534	0.23
368.742	0.25
368.949	0.23
369.157	0.23
369.365	0.27
369.572	0.27
369.78	0.19
369.988	0.3
370.195	0.25
370.403	0.26
370.61	0.21
370.818	0.26
371.026	0.31
371.233	0.18
371.441	0.21
371.648	0.26
371.856	0.26
372.063	0.26
372.271	0.23
372.478	0.23
372.685	0.21
372.893	0.28
373.1	0.23
373.308	0.28
373.515	0.35
373.722	0.29
373.93	0.22
374.137	0.29
374.344	0.34
374.552	0.28
374.759	0.28
374.966	0.31
375.173	0.22
375.381	0.31
375.588	0.22
375.795	0.21
376.002	0.24
376.209	0.22
376.417	0.29
376.624	0.31
376.831	0.27
377.038	0.23
377.245	0.18
377.452	0.28
377.659	0.31
377.866	0.24
378.073	0.26
378.28	0.24
378.487	0.31
378.694	0.28
378.901	0.22
379.108	0.22
379.315	0.31
379.522	0.35
379.729	0.26
379.936	0.25
380.143	0.3
380.35	0.29
380.557	0.25
380.763	0.3
380.97	0.28
381.177	0.28
381.384	0.28
381.591	0.24
381.797	0.29
382.004	0.29
382.211	0.3
382.418	0.28
382.624	0.28
382.831	0.3
383.038	0.29
383.244	0.27
383.451	0.32
383.658	0.27
383.864	0.25
384.071	0.22
384.277	0.32
384.484	0.23
384.69	0.33
384.897	0.22
385.103	0.26
385.31	0.24
385.516	0.22
385.723	0.26
385.929	0.29
386.136	0.23
386.342	0.28
386.549	0.24
386.755	0.34
386.961	0.29
387.168	0.28
387.374	0.33
387.58	0.34
387.787	0.27
387.993	0.3
388.199	0.3
388.406	0.26
388.612	0.25
388.818	0.29
389.024	0.29
389.231	0.29
389.437	0.42
389.643	0.32
389.849	0.25
390.055	0.28
390.261	0.29
390.467	0.32
390.674	0.29
390.88	0.26
391.086	0.31
391.292	0.24
391.498	0.31
391.704	0.33
391.91	0.31
392.116	0.31
392.322	0.2
392.528	0.33
392.734	0.28
392.94	0.3
393.146	0.31
393.352	0.29
393.557	0.28
393.763	0.31
393.969	0.32
394.175	0.33
394.381	0.31
394.587	0.26
394.792	0.29
394.998	0.38
395.204	0.35
395.41	0.32
395.615	0.35
395.821	0.31
396.027	0.35
396.233	0.31
396.438	0.35
396.644	0.43
396.85	0.33
397.055	0.29
397.261	0.35
397.466	0.33
397.672	0.34
397.878	0.31
398.083	0.37
398.289	0.31
398.494	0.38
398.7	0.36
398.905	0.26
399.111	0.4
399.316	0.31
399.522	0.42
399.727	0.34
399.932	0.35
400.138	0.31
400.343	0.41
400.549	0.35
400.754	0.38
400.959	0.38
401.165	0.38
401.37	0.4
401.575	0.31
401.78	0.36
401.986	0.35
402.191	0.39
402.396	0.4
402.601	0.4
402.807	0.39
403.012	0.39
403.217	0.46
403.422	0.46
403.627	0.43
403.832	0.4
404.037	0.44
404.243	0.43
404.448	0.33
404.653	0.39
404.858	0.44
405.063	0.47
405.268	0.44
405.473	0.37
405.678	0.44
405.883	0.6
406.088	0.47
406.293	0.4
406.498	0.47
406.703	0.47
406.907	0.52
407.112	0.47
407.317	0.49
407.522	0.61
407.727	0.5
407.932	0.55
408.136	0.66
408.341	0.56
408.546	0.6
408.751	0.59
408.956	0.55
409.16	0.62
409.365	0.58
409.57	0.59
409.774	0.64
409.979	0.73
410.184	0.67
410.388	0.62
410.593	0.75
410.798	0.74
411.002	0.73
411.207	0.82
411.411	0.81
411.616	0.78
411.82	0.8
412.025	0.84
412.229	0.82
412.434	1.02
412.638	0.94
412.843	0.95
413.047	0.94
413.252	0.96
413.456	1
413.66	1.06
413.865	1.02
414.069	1.15
414.273	1.14
414.478	1.18
414.682	1.22
414.886	1.26
415.091	1.21
415.295	1.27
415.499	1.39
415.703	1.35
415.908	1.44
416.112	1.46
416.316	1.6
416.52	1.59
416.724	1.59
416.929	1.61
417.133	1.82
417.337	1.76
417.541	1.86
417.745	1.94
417.949	1.95
418.153	2.12
418.357	2.05
418.561	2.24
418.765	2.24
418.969	2.39
419.173	2.43
419.377	2.47
419.581	2.63
419.785	2.63
419.989	2.68
420.193	2.82
420.397	2.97
420.601	3.03
420.804	3.1
421.008	3.13
421.212	3.27
421.416	3.32
421.62	3.32
421.823	3.33
422.027	3.57
422.231	3.49
422.435	3.56
422.638	3.62
422.842	3.69
423.046	3.79
423.249	3.96
423.453	3.98
423.657	4.19
423.86	4.2
424.064	4.37
424.268	4.53
424.471	4.48
424.675	4.7
424.878	4.76
425.082	4.93
425.285	5.24
425.489	5.06
425.692	5.29
425.896	5.32
426.099	5.5
426.303	5.64
426.506	5.89
426.71	6.01
426.913	6.21
427.116	6.38
427.32	6.3
427.523	6.43
427.726	6.7
427.93	6.87
428.133	7.15
428.336	7.24
428.54	7.43
428.743	7.63
428.946	7.89
429.149	7.82
429.353	8.02
429.556	8.01
429.759	8.13
429.962	8.16
430.165	8.41
430.368	8
430.571	8.11
430.775	8.11
430.978	8.18
431.181	8.14
431.384	8.35
431.587	8.39
431.79	8.75
431.993	8.66
432.196	8.97
432.399	9.32
432.602	9.49
432.805	9.56
433.008	10.07
433.211	9.95
433.414	10.28
433.616	10.29
433.819	10.26
434.022	10.48
434.225	10.63
434.428	10.65
434.631	11.08
434.833	10.8
435.036	11.15
435.239	11.36
435.442	11.36
435.645	11.55
435.847	11.6
436.05	11.94
436.253	12.12
436.455	12.19
436.658	12.15
436.861	12.43
437.063	12.53
437.266	12.41
437.468	12.74
437.671	13.05
437.874	13.17
438.076	13.02
438.279	13.59
438.481	13.58
438.684	14.31
438.886	13.95
439.089	14.3
439.291	14.08
439.494	14.59
439.696	14.83
439.899	15.38
440.101	15.77
440.303	15.89
440.506	16.56
440.708	16.26
440.91	16.57
441.113	16.8
441.315	16.99
441.517	16.94
441.72	17.31
441.922	17.04
442.124	16.96
442.326	17.38
442.529	17.48
442.731	17.4
442.933	17.83
443.135	17.41
443.337	17.6
443.539	18.13
443.742	17.84
443.944	18.4
444.146	18.11
444.348	18.24
444.55	18.11
444.752	18.3
444.954	18.37
445.156	18.05
445.358	18.59
445.56	18.92
445.762	18.67
445.964	18.87
446.166	18.73
446.368	18.6
446.57	18.67
446.772	18.32
446.974	17.89
447.175	18.48
447.377	18.04
447.579	18.36
447.781	18.22
447.983	17.76
448.184	17.5
448.386	17.77
448.588	17.33
448.79	17.42
448.991	17.76
449.193	17.48
449.395	16.96
449.597	16.61
449.798	16.47
450	15.97
450.202	15.89
450.403	15.84
450.605	15.8
450.806	15.38
451.008	15.33
451.21	15.01
451.411	14.62
451.613	13.8
451.814	14.19
452.016	14.06
452.217	13.43
452.419	13.31
452.62	13.03
452.821	12.67
453.023	12.65
453.224	12.26
453.426	11.78
453.627	11.07
453.828	11.18
454.03	11.31
454.231	11.26
454.432	11.08
454.634	10.77
454.835	10.51
455.036	10.41
455.238	10.04
455.439	9.78
455.64	9.48
455.841	9.41
456.042	9.54
456.244	9.23
456.445	8.88
456.646	8.61
456.847	8.49
457.048	8.43
457.249	8.47
457.45	8.2
457.651	7.59
457.852	7.67
458.054	7.29
458.255	7.27
458.456	7.35
458.657	7.06
458.858	6.78
459.058	6.68
459.259	6.72
459.46	6.49
459.661	6.39
459.862	6.44
460.063	6.36
460.264	6.14
460.465	6
460.666	6.04
460.866	5.71
461.067	5.48
461.268	5.6
461.469	5.47
461.67	5.35
461.87	5.29
462.071	5.32
462.272	5.15
462.473	5.12
462.673	5.31
462.874	5.23
463.075	5.14
463.275	5.1
463.476	5.09
463.676	5.23
463.877	4.92
464.078	4.89
464.278	5
464.479	4.88
464.679	4.71
464.88	4.76
465.08	4.7
465.281	4.48
465.481	4.3
465.682	4.1
465.882	4.15
466.083	4.06
466.283	4.04
466.483	3.92
466.684	3.74
466.884	3.61
467.085	3.67
467.285	3.73
467.485	3.64
467.686	3.55
467.886	3.4
468.086	3.32
468.286	3.34
468.487	3.42
468.687	3.25
468.887	3.17
469.087	3.36
469.287	3.26
469.488	3.07
469.688	3.16
469.888	3.16
470.088	3.15
470.288	3
470.488	3.04
470.688	2.89
470.888	2.86
471.088	2.67
471.288	2.74
471.488	2.72
471.688	2.73
471.888	2.65
472.088	2.82
472.288	2.69
472.488	2.6
472.688	2.53
472.888	2.57
473.088	2.56
473.288	2.55
473.488	2.44
473.688	2.62
473.887	2.48
474.087	2.43
474.287	2.46
474.487	2.4
474.687	2.41
474.886	2.33
475.086	2.29
475.286	2.3
475.486	2.28
475.685	2.19
475.885	2.21
476.085	2.21
476.284	2.23
476.484	2.24
476.684	2.23
476.883	2.34
477.083	2.16
477.282	2.13
477.482	2.18
477.681	2.12
477.881	2.02
478.08	2.08
478.28	2.04
478.479	2.04
478.679	2.12
478.878	1.99
479.078	1.99
479.277	2.05
479.477	2.01
479.676	2.04
479.875	2.01
480.075	1.95
480.274	2.02
480.473	2.02
480.673	1.96
480.872	2.07
481.071	2.04
481.271	2.03
481.47	1.94
481.669	2
481.868	1.94
482.067	2
482.267	1.92
482.466	1.94
482.665	1.9
482.864	1.94
483.063	1.89
483.262	1.97
483.461	2.06
483.661	2.07
483.86	1.95
484.059	2.05
484.258	2.02
484.457	2.03
484.656	2.04
484.855	2.1
485.054	1.91
485.253	1.97
485.452	1.99
485.651	2.04
485.849	2.01
486.048	1.98
486.247	2.05
486.446	2.09
486.645	2.01
486.844	2.05
487.043	2.04
487.241	2.08
487.44	2.09
487.639	2.09
487.838	2.11
488.037	2.1
488.235	2.2
488.434	2.17
488.633	2.03
488.831	2.19
489.03	2.26
489.229	2.2
489.427	2.21
489.626	2.22
489.825	2.28
490.023	2.32
490.222	2.26
490.42	2.28
490.619	2.33
490.817	2.32
491.016	2.36
491.214	2.41
491.413	2.41
491.611	2.41
491.81	2.37
492.008	2.4
492.207	2.53
492.405	2.52
492.604	2.44
492.802	2.58
493	2.59
493.199	2.59
493.397	2.67
493.595	2.71
493.794	2.62
493.992	2.8
494.19	2.72
494.388	2.83
494.587	2.71
494.785	2.84
494.983	2.73
495.181	2.82
495.379	2.89
495.578	2.92
495.776	2.94
495.974	2.9
496.172	2.93
496.37	3.09
496.568	3.08
496.766	3.1
496.964	3.18
497.162	3.16
497.36	3.17
497.558	3.23
497.756	3.31
497.954	3.26
498.152	3.31
498.35	3.41
498.548	3.33
498.746	3.34
498.944	3.37
499.142	3.43
499.34	3.5
499.538	3.6
499.736	3.54
499.933	3.59
500.131	3.6
500.329	3.73
500.527	3.73
500.725	3.82
500.922	3.84
501.12	3.87
501.318	3.94
501.516	3.94
501.713	3.99
501.911	3.99
502.109	3.94
502.306	4.11
502.504	4.04
502.701	4.1
502.899	4.12
