Data from Apollo_Calib_20240827__AbsoluteIrradiance__29__23-38-01-009.txt Node

Date: Tue Aug 27 23:38:01 BST 2024
User: biology
Spectrometer: FLMT08252
Trigger mode: 0
Integration Time (sec): 5.000000E-1
Scans to average: 5
Electric dark correction enabled: true
Nonlinearity correction enabled: false
Boxcar width: 0
XAxis mode: Wavelengths
Number of Pixels in Spectrum: 3648
>>>>>Begin Spectral Data<<<<<
179.588	-0
179.809	-0
180.03	-0
180.251	-0
180.473	-0
180.694	0
180.915	0
181.136	-0
181.357	0
181.578	-0
181.799	-0
182.02	-0
182.241	-0
182.462	-0
182.683	0
182.904	-0
183.125	-0
183.346	0
183.567	0
183.788	0
184.009	0
184.23	0
184.451	0
184.672	0
184.892	0
185.113	0
185.334	0
185.555	0
185.776	0
185.996	0
186.217	0
186.438	0
186.659	0
186.879	0
187.1	0
187.321	0
187.541	0
187.762	0
187.983	0
188.203	0
188.424	0
188.644	0
188.865	0
189.086	0
189.306	0
189.527	0
189.747	0
189.968	0
190.188	0
190.409	0
190.629	0
190.849	0
191.07	0
191.29	0
191.511	0
191.731	0
191.951	0
192.172	0
192.392	0
192.612	0
192.833	0
193.053	0
193.273	0
193.493	0
193.714	0
193.934	0
194.154	0
194.374	0
194.594	0
194.815	0
195.035	0
195.255	0
195.475	0
195.695	0
195.915	0
196.135	0
196.355	0
196.575	0
196.795	0
197.015	0
197.235	0
197.455	0
197.675	0
197.895	0
198.115	0
198.335	0
198.555	0
198.775	0
198.995	0
199.214	0
199.434	0
199.654	0
199.874	0
200.094	3.32
200.313	2.07
200.533	1.98
200.753	2.12
200.973	3.53
201.192	2.83
201.412	1.91
201.632	1.95
201.851	3.12
202.071	1.86
202.291	1.93
202.51	1.75
202.73	2.78
202.95	2.35
203.169	1.12
203.389	2.05
203.608	1.85
203.828	1.2
204.047	1.67
204.267	2.06
204.486	1.83
204.706	1.84
204.925	1.95
205.145	1.57
205.364	2.24
205.583	2.2
205.803	1.42
206.022	1.19
206.242	1.55
206.461	1.48
206.68	1.21
206.9	1.62
207.119	2.17
207.338	2.01
207.557	1.41
207.777	1.33
207.996	1.41
208.215	1.85
208.434	1.15
208.654	0.79
208.873	1.36
209.092	1.84
209.311	1.33
209.53	1.25
209.749	1.24
209.968	0.99
210.187	1.25
210.407	0.93
210.626	1.27
210.845	1.47
211.064	1.05
211.283	0.92
211.502	1.41
211.721	0.99
211.94	1.19
212.159	1.35
212.377	1.11
212.596	1.36
212.815	1.23
213.034	1.3
213.253	1.2
213.472	1.23
213.691	0.93
213.91	0.6
214.128	0.74
214.347	1.26
214.566	0.66
214.785	0.54
215.003	1.21
215.222	1.05
215.441	1.06
215.66	0.58
215.878	0.81
216.097	1.12
216.316	0.66
216.534	0.89
216.753	1.01
216.972	0.84
217.19	0.9
217.409	0.7
217.627	0.63
217.846	0.91
218.064	0.94
218.283	0.83
218.501	1.41
218.72	0.96
218.938	0.48
219.157	0.77
219.375	1.04
219.594	1.02
219.812	0.57
220.031	0.64
220.249	1.14
220.467	1.07
220.686	0.74
220.904	0.62
221.122	0.61
221.341	1.13
221.559	0.92
221.777	0.47
221.995	0.79
222.214	1.07
222.432	0.68
222.65	0.89
222.868	0.61
223.086	0.88
223.305	0.86
223.523	0.6
223.741	1.06
223.959	0.71
224.177	0.4
224.395	0.6
224.613	0.77
224.831	0.74
225.049	0.52
225.267	0.56
225.485	0.81
225.703	0.73
225.921	0.68
226.139	0.59
226.357	0.7
226.575	0.77
226.793	0.56
227.011	1.34
227.229	0.76
227.447	0.76
227.665	0.58
227.883	0.45
228.1	0.54
228.318	0.6
228.536	0.33
228.754	0.49
228.972	0.69
229.189	0.68
229.407	0.59
229.625	0.54
229.843	0.7
230.06	0.77
230.278	0.49
230.496	0.59
230.713	0.55
230.931	0.88
231.149	0.51
231.366	0.42
231.584	0.65
231.801	0.93
232.019	0.47
232.236	0.35
232.454	0.47
232.671	0.65
232.889	0.64
233.106	0.41
233.324	0.6
233.541	0.44
233.759	0.55
233.976	0.48
234.194	0.64
234.411	0.59
234.628	0.44
234.846	0.49
235.063	0.46
235.28	0.57
235.498	0.48
235.715	0.39
235.932	0.71
236.149	0.46
236.367	0.4
236.584	0.49
236.801	0.51
237.018	0.69
237.236	0.53
237.453	0.37
237.67	0.52
237.887	0.39
238.104	0.54
238.321	0.44
238.538	0.35
238.755	0.57
238.973	0.39
239.19	0.55
239.407	0.53
239.624	0.52
239.841	0.36
240.058	0.42
240.275	0.59
240.492	0.46
240.709	0.49
240.925	0.4
241.142	0.49
241.359	0.35
241.576	0.42
241.793	0.33
242.01	0.48
242.227	0.61
242.444	0.57
242.66	0.6
242.877	0.51
243.094	0.44
243.311	0.43
243.527	0.47
243.744	0.46
243.961	0.46
244.178	0.37
244.394	0.44
244.611	0.6
244.828	0.54
245.044	0.31
245.261	0.38
245.477	0.46
245.694	0.57
245.911	0.35
246.127	0.52
246.344	0.62
246.56	0.59
246.777	0.35
246.993	0.52
247.21	0.44
247.426	0.58
247.643	0.43
247.859	0.3
248.076	0.39
248.292	0.61
248.508	0.38
248.725	0.46
248.941	0.42
249.157	0.51
249.374	0.35
249.59	0.42
249.806	0.42
250.023	0.42
250.239	0.38
250.455	0.34
250.671	0.43
250.888	0.51
251.104	0.48
251.32	0.4
251.536	0.45
251.752	0.36
251.969	0.37
252.185	0.4
252.401	0.61
252.617	0.48
252.833	0.4
253.049	0.41
253.265	0.45
253.481	0.39
253.697	0.35
253.913	0.38
254.129	0.45
254.345	0.42
254.561	0.37
254.777	0.42
254.993	0.45
255.209	0.44
255.425	0.29
255.641	0.32
255.857	0.46
256.073	0.4
256.288	0.35
256.504	0.38
256.72	0.49
256.936	0.55
257.152	0.42
257.367	0.28
257.583	0.44
257.799	0.5
258.015	0.28
258.23	0.29
258.446	0.59
258.662	0.42
258.877	0.37
259.093	0.36
259.309	0.34
259.524	0.37
259.74	0.28
259.955	0.26
260.171	0.35
260.387	0.43
260.602	0.43
260.818	0.36
261.033	0.35
261.249	0.3
261.464	0.35
261.68	0.21
261.895	0.39
262.11	0.43
262.326	0.32
262.541	0.2
262.757	0.43
262.972	0.43
263.187	0.41
263.403	0.36
263.618	0.44
263.833	0.34
264.049	0.27
264.264	0.36
264.479	0.36
264.694	0.46
264.91	0.3
265.125	0.3
265.34	0.42
265.555	0.56
265.77	0.39
265.986	0.33
266.201	0.46
266.416	0.45
266.631	0.29
266.846	0.34
267.061	0.38
267.276	0.38
267.491	0.15
267.706	0.31
267.921	0.43
268.136	0.35
268.351	0.33
268.566	0.23
268.781	0.47
268.996	0.43
269.211	0.35
269.426	0.33
269.641	0.31
269.856	0.39
270.071	0.31
270.285	0.24
270.5	0.37
270.715	0.4
270.93	0.33
271.145	0.36
271.359	0.42
271.574	0.28
271.789	0.33
272.004	0.41
272.218	0.33
272.433	0.42
272.648	0.29
272.862	0.38
273.077	0.27
273.292	0.33
273.506	0.27
273.721	0.32
273.936	0.41
274.15	0.39
274.365	0.3
274.579	0.36
274.794	0.37
275.008	0.38
275.223	0.29
275.437	0.31
275.652	0.52
275.866	0.41
276.081	0.27
276.295	0.36
276.509	0.33
276.724	0.37
276.938	0.29
277.153	0.36
277.367	0.38
277.581	0.24
277.796	0.29
278.01	0.28
278.224	0.4
278.438	0.46
278.653	0.28
278.867	0.29
279.081	0.39
279.295	0.31
279.51	0.32
279.724	0.24
279.938	0.34
280.152	0.31
280.366	0.23
280.58	0.35
280.794	0.36
281.008	0.34
281.222	0.39
281.437	0.45
281.651	0.35
281.865	0.35
282.079	0.31
282.293	0.18
282.507	0.26
282.721	0.29
282.935	0.31
283.148	0.22
283.362	0.29
283.576	0.25
283.79	0.33
284.004	0.27
284.218	0.33
284.432	0.29
284.646	0.32
284.859	0.26
285.073	0.27
285.287	0.29
285.501	0.29
285.714	0.26
285.928	0.32
286.142	0.27
286.356	0.24
286.569	0.26
286.783	0.33
286.997	0.3
287.21	0.27
287.424	0.28
287.637	0.25
287.851	0.27
288.065	0.34
288.278	0.3
288.492	0.34
288.705	0.27
288.919	0.24
289.132	0.23
289.346	0.3
289.559	0.21
289.773	0.23
289.986	0.22
290.2	0.26
290.413	0.35
290.626	0.28
290.84	0.21
291.053	0.26
291.267	0.34
291.48	0.24
291.693	0.24
291.906	0.28
292.12	0.25
292.333	0.24
292.546	0.25
292.76	0.34
292.973	0.34
293.186	0.3
293.399	0.25
293.612	0.33
293.826	0.33
294.039	0.29
294.252	0.28
294.465	0.32
294.678	0.25
294.891	0.26
295.104	0.21
295.317	0.22
295.53	0.25
295.743	0.24
295.956	0.28
296.169	0.36
296.382	0.3
296.595	0.34
296.808	0.22
297.021	0.34
297.234	0.29
297.447	0.24
297.66	0.31
297.873	0.28
298.086	0.31
298.299	0.23
298.511	0.22
298.724	0.27
298.937	0.22
299.15	0.22
299.363	0.27
299.575	0.27
299.788	0.3
300.001	0.2
300.213	0.21
300.426	0.24
300.639	0.24
300.852	0.23
301.064	0.31
301.277	0.34
301.489	0.29
301.702	0.29
301.915	0.28
302.127	0.26
302.34	0.28
302.552	0.31
302.765	0.18
302.977	0.28
303.19	0.22
303.402	0.24
303.615	0.27
303.827	0.26
304.04	0.24
304.252	0.29
304.464	0.22
304.677	0.34
304.889	0.28
305.102	0.22
305.314	0.2
305.526	0.31
305.739	0.29
305.951	0.2
306.163	0.21
306.375	0.3
306.588	0.21
306.8	0.25
307.012	0.19
307.224	0.29
307.436	0.34
307.649	0.18
307.861	0.23
308.073	0.25
308.285	0.23
308.497	0.19
308.709	0.2
308.921	0.26
309.133	0.32
309.346	0.26
309.558	0.21
309.77	0.33
309.982	0.36
310.194	0.3
310.406	0.19
310.617	0.31
310.829	0.27
311.041	0.23
311.253	0.19
311.465	0.23
311.677	0.22
311.889	0.23
312.101	0.25
312.313	0.31
312.524	0.31
312.736	0.21
312.948	0.22
313.16	0.36
313.372	0.28
313.583	0.28
313.795	0.23
314.007	0.2
314.218	0.31
314.43	0.24
314.642	0.24
314.853	0.2
315.065	0.28
315.277	0.26
315.488	0.27
315.7	0.31
315.912	0.27
316.123	0.24
316.335	0.25
316.546	0.3
316.758	0.25
316.969	0.23
317.181	0.24
317.392	0.25
317.604	0.28
317.815	0.19
318.026	0.16
318.238	0.21
318.449	0.24
318.661	0.16
318.872	0.2
319.083	0.23
319.295	0.29
319.506	0.19
319.717	0.25
319.929	0.23
320.14	0.27
320.351	0.26
320.562	0.24
320.774	0.22
320.985	0.23
321.196	0.18
321.407	0.18
321.618	0.31
321.829	0.28
322.041	0.25
322.252	0.27
322.463	0.29
322.674	0.27
322.885	0.25
323.096	0.26
323.307	0.26
323.518	0.23
323.729	0.24
323.94	0.25
324.151	0.19
324.362	0.28
324.573	0.22
324.784	0.2
324.995	0.3
325.206	0.22
325.417	0.25
325.628	0.21
325.838	0.28
326.049	0.29
326.26	0.29
326.471	0.24
326.682	0.25
326.892	0.21
327.103	0.21
327.314	0.2
327.525	0.3
327.735	0.2
327.946	0.26
328.157	0.28
328.368	0.29
328.578	0.26
328.789	0.27
328.999	0.26
329.21	0.24
329.421	0.31
329.631	0.21
329.842	0.24
330.052	0.26
330.263	0.24
330.473	0.25
330.684	0.24
330.894	0.23
331.105	0.28
331.315	0.31
331.526	0.18
331.736	0.35
331.947	0.28
332.157	0.22
332.367	0.19
332.578	0.31
332.788	0.33
332.999	0.33
333.209	0.25
333.419	0.21
333.629	0.24
333.84	0.27
334.05	0.25
334.26	0.32
334.47	0.31
334.681	0.29
334.891	0.21
335.101	0.29
335.311	0.34
335.521	0.23
335.732	0.22
335.942	0.34
336.152	0.29
336.362	0.27
336.572	0.25
336.782	0.25
336.992	0.22
337.202	0.23
337.412	0.19
337.622	0.28
337.832	0.28
338.042	0.27
338.252	0.17
338.462	0.21
338.672	0.25
338.882	0.29
339.092	0.23
339.302	0.33
339.511	0.3
339.721	0.25
339.931	0.22
340.141	0.29
340.351	0.34
340.561	0.27
340.77	0.26
340.98	0.22
341.19	0.3
341.4	0.22
341.609	0.17
341.819	0.24
342.029	0.24
342.238	0.27
342.448	0.2
342.658	0.29
342.867	0.24
343.077	0.24
343.286	0.26
343.496	0.26
343.706	0.28
343.915	0.19
344.125	0.22
344.334	0.28
344.544	0.22
344.753	0.22
344.963	0.23
345.172	0.19
345.381	0.25
345.591	0.23
345.8	0.28
346.01	0.27
346.219	0.29
346.428	0.1
346.638	0.26
346.847	0.21
347.056	0.3
347.266	0.25
347.475	0.26
347.684	0.3
347.893	0.27
348.103	0.29
348.312	0.23
348.521	0.23
348.73	0.21
348.94	0.26
349.149	0.22
349.358	0.26
349.567	0.18
349.776	0.18
349.985	0.21
350.194	0.29
350.403	0.31
350.612	0.19
350.821	0.22
351.03	0.21
351.239	0.19
351.448	0.26
351.657	0.19
351.866	0.36
352.075	0.22
352.284	0.27
352.493	0.14
352.702	0.27
352.911	0.25
353.12	0.24
353.329	0.19
353.538	0.25
353.746	0.24
353.955	0.2
354.164	0.27
354.373	0.22
354.582	0.27
354.79	0.27
354.999	0.24
355.208	0.21
355.416	0.28
355.625	0.21
355.834	0.26
356.042	0.25
356.251	0.19
356.46	0.23
356.668	0.26
356.877	0.33
357.085	0.25
357.294	0.23
357.503	0.26
357.711	0.22
357.92	0.38
358.128	0.24
358.337	0.22
358.545	0.27
358.754	0.21
358.962	0.26
359.17	0.23
359.379	0.24
359.587	0.27
359.796	0.21
360.004	0.29
360.212	0.26
360.421	0.29
360.629	0.25
360.837	0.25
361.046	0.27
361.254	0.37
361.462	0.26
361.67	0.22
361.879	0.27
362.087	0.33
362.295	0.21
362.503	0.23
362.711	0.19
362.92	0.26
363.128	0.21
363.336	0.18
363.544	0.16
363.752	0.26
363.96	0.25
364.168	0.22
364.376	0.27
364.584	0.24
364.792	0.29
365	0.25
365.208	0.29
365.416	0.27
365.624	0.29
365.832	0.21
366.04	0.31
366.248	0.24
366.456	0.24
366.664	0.27
366.872	0.26
367.079	0.19
367.287	0.24
367.495	0.26
367.703	0.23
367.911	0.22
368.118	0.28
368.326	0.22
368.534	0.21
368.742	0.28
368.949	0.15
369.157	0.22
369.365	0.25
369.572	0.23
369.78	0.2
369.988	0.31
370.195	0.22
370.403	0.25
370.61	0.23
370.818	0.26
371.026	0.32
371.233	0.22
371.441	0.25
371.648	0.23
371.856	0.21
372.063	0.26
372.271	0.2
372.478	0.22
372.685	0.23
372.893	0.29
373.1	0.25
373.308	0.27
373.515	0.35
373.722	0.24
373.93	0.25
374.137	0.3
374.344	0.31
374.552	0.3
374.759	0.28
374.966	0.25
375.173	0.23
375.381	0.28
375.588	0.21
375.795	0.21
376.002	0.25
376.209	0.23
376.417	0.24
376.624	0.24
376.831	0.27
377.038	0.22
377.245	0.16
377.452	0.24
377.659	0.29
377.866	0.25
378.073	0.25
378.28	0.27
378.487	0.28
378.694	0.31
378.901	0.23
379.108	0.26
379.315	0.28
379.522	0.34
379.729	0.27
379.936	0.3
380.143	0.3
380.35	0.27
380.557	0.27
380.763	0.25
380.97	0.25
381.177	0.26
381.384	0.26
381.591	0.24
381.797	0.31
382.004	0.24
382.211	0.3
382.418	0.28
382.624	0.3
382.831	0.28
383.038	0.26
383.244	0.3
383.451	0.25
383.658	0.28
383.864	0.24
384.071	0.2
384.277	0.38
384.484	0.25
384.69	0.33
384.897	0.27
385.103	0.26
385.31	0.25
385.516	0.26
385.723	0.27
385.929	0.28
386.136	0.29
386.342	0.29
386.549	0.26
386.755	0.35
386.961	0.29
387.168	0.25
387.374	0.29
387.58	0.33
387.787	0.31
387.993	0.32
388.199	0.28
388.406	0.21
388.612	0.27
388.818	0.26
389.024	0.29
389.231	0.32
389.437	0.33
389.643	0.3
389.849	0.31
390.055	0.31
390.261	0.29
390.467	0.36
390.674	0.25
390.88	0.31
391.086	0.27
391.292	0.24
391.498	0.3
391.704	0.29
391.91	0.31
392.116	0.29
392.322	0.21
392.528	0.3
392.734	0.27
392.94	0.32
393.146	0.31
393.352	0.36
393.557	0.28
393.763	0.26
393.969	0.3
394.175	0.28
394.381	0.32
394.587	0.24
394.792	0.27
394.998	0.36
395.204	0.37
395.41	0.31
395.615	0.34
395.821	0.35
396.027	0.32
396.233	0.31
396.438	0.37
396.644	0.4
396.85	0.35
397.055	0.28
397.261	0.31
397.466	0.33
397.672	0.27
397.878	0.37
398.083	0.37
398.289	0.32
398.494	0.33
398.7	0.36
398.905	0.23
399.111	0.41
399.316	0.27
399.522	0.41
399.727	0.34
399.932	0.37
400.138	0.33
400.343	0.37
400.549	0.37
400.754	0.36
400.959	0.38
401.165	0.32
401.37	0.4
401.575	0.43
401.78	0.38
401.986	0.34
402.191	0.32
402.396	0.38
402.601	0.43
402.807	0.4
403.012	0.38
403.217	0.4
403.422	0.41
403.627	0.41
403.832	0.38
404.037	0.49
404.243	0.45
404.448	0.37
404.653	0.43
404.858	0.45
405.063	0.47
405.268	0.44
405.473	0.37
405.678	0.42
405.883	0.58
406.088	0.51
406.293	0.41
406.498	0.4
406.703	0.46
406.907	0.52
407.112	0.44
407.317	0.52
407.522	0.55
407.727	0.49
407.932	0.5
408.136	0.6
408.341	0.55
408.546	0.55
408.751	0.57
408.956	0.56
409.16	0.68
409.365	0.61
409.57	0.63
409.774	0.6
409.979	0.65
410.184	0.66
410.388	0.61
410.593	0.72
410.798	0.71
411.002	0.75
411.207	0.78
411.411	0.85
411.616	0.74
411.82	0.78
412.025	0.84
412.229	0.82
412.434	0.97
412.638	0.85
412.843	0.86
413.047	0.94
413.252	0.92
413.456	1.01
413.66	1.04
413.865	1.01
414.069	1.15
414.273	1.11
414.478	1.14
414.682	1.11
414.886	1.17
415.091	1.21
415.295	1.2
415.499	1.35
415.703	1.31
415.908	1.45
416.112	1.33
416.316	1.59
416.52	1.54
416.724	1.59
416.929	1.59
417.133	1.85
417.337	1.69
417.541	1.83
417.745	1.84
417.949	1.89
418.153	2.02
418.357	1.94
418.561	2.2
418.765	2.23
418.969	2.35
419.173	2.39
419.377	2.36
419.581	2.55
419.785	2.6
419.989	2.61
420.193	2.83
420.397	2.88
420.601	2.97
420.804	3.05
421.008	3.09
421.212	3.23
421.416	3.27
421.62	3.23
421.823	3.3
422.027	3.54
422.231	3.46
422.435	3.46
422.638	3.55
422.842	3.67
423.046	3.71
423.249	3.95
423.453	3.89
423.657	4.1
423.86	4.13
424.064	4.39
424.268	4.48
424.471	4.39
424.675	4.59
424.878	4.72
425.082	4.85
425.285	5.11
425.489	4.96
425.692	5.18
425.896	5.21
426.099	5.51
426.303	5.5
426.506	5.72
426.71	5.9
426.913	6.09
427.116	6.27
427.32	6.26
427.523	6.32
427.726	6.65
427.93	6.82
428.133	7.01
428.336	7.15
428.54	7.3
428.743	7.55
428.946	7.8
429.149	7.77
429.353	7.9
429.556	7.93
429.759	8.03
429.962	8.08
430.165	8.35
430.368	7.91
430.571	8.1
430.775	8.05
430.978	8.1
431.181	8.13
431.384	8.09
431.587	8.24
431.79	8.66
431.993	8.62
432.196	8.93
432.399	9.37
432.602	9.41
432.805	9.55
433.008	10.02
433.211	9.97
433.414	10.25
433.616	10.33
433.819	10.16
434.022	10.33
434.225	10.58
434.428	10.73
434.631	11.06
434.833	10.71
435.036	11.16
435.239	11.14
435.442	11.36
435.645	11.39
435.847	11.52
436.05	11.83
436.253	12.1
436.455	12.26
436.658	11.93
436.861	12.28
437.063	12.45
437.266	12.38
437.468	12.81
437.671	13.03
437.874	13.17
438.076	12.91
438.279	13.4
438.481	13.42
438.684	14.2
438.886	13.84
439.089	13.99
439.291	14.07
439.494	14.41
439.696	14.63
439.899	15.16
440.101	15.64
440.303	15.79
440.506	16.62
440.708	16.25
440.91	16.46
441.113	16.71
441.315	17.01
441.517	16.73
441.72	17.24
441.922	16.9
442.124	16.82
442.326	17.28
442.529	17.38
442.731	17.33
442.933	17.65
443.135	17.49
443.337	17.43
443.539	18.07
443.742	17.61
443.944	18.38
444.146	18.08
444.348	18.04
444.55	18.02
444.752	18.19
444.954	18.11
445.156	18.09
445.358	18.59
445.56	18.65
445.762	18.51
445.964	18.83
446.166	18.64
446.368	18.6
446.57	18.57
446.772	18.23
446.974	17.97
447.175	18.31
447.377	18.03
447.579	18.46
447.781	18.12
447.983	17.81
448.184	17.45
448.386	17.91
448.588	17.33
448.79	17.27
448.991	17.45
449.193	17.66
449.395	16.86
449.597	16.51
449.798	16.41
450	16
450.202	15.79
450.403	15.86
450.605	15.72
450.806	15.41
451.008	15.23
451.21	15.1
451.411	14.6
451.613	13.88
451.814	14.13
452.016	14.06
452.217	13.3
452.419	13.39
452.62	13.13
452.821	12.88
453.023	12.76
453.224	12.28
453.426	11.96
453.627	11.19
453.828	11.28
454.03	11.42
454.231	11.47
454.432	11.15
454.634	10.9
454.835	10.52
455.036	10.43
455.238	10.1
455.439	9.83
455.64	9.59
455.841	9.42
456.042	9.45
456.244	9.33
456.445	8.98
456.646	8.64
456.847	8.67
457.048	8.44
457.249	8.58
457.45	8.33
457.651	7.79
457.852	7.63
458.054	7.26
458.255	7.26
458.456	7.3
458.657	7.17
458.858	6.78
459.058	6.77
459.259	6.69
459.46	6.47
459.661	6.42
459.862	6.53
460.063	6.28
460.264	6.23
460.465	5.97
460.666	6.13
460.866	5.83
461.067	5.5
461.268	5.55
461.469	5.51
461.67	5.39
461.87	5.28
462.071	5.28
462.272	5.11
462.473	5.04
462.673	5.28
462.874	5.2
463.075	5.21
463.275	5.08
463.476	5.13
463.676	5.12
463.877	4.89
464.078	4.93
464.278	5.02
464.479	4.88
464.679	4.76
464.88	4.7
465.08	4.64
465.281	4.44
465.481	4.28
465.682	4.07
465.882	4.15
466.083	4.12
466.283	4.07
466.483	3.92
466.684	3.76
466.884	3.64
467.085	3.73
467.285	3.79
467.485	3.64
467.686	3.58
467.886	3.43
468.086	3.34
468.286	3.35
468.487	3.46
468.687	3.24
468.887	3.25
469.087	3.38
469.287	3.23
469.488	3.09
469.688	3.19
469.888	3.13
470.088	3.16
470.288	3.01
470.488	2.98
470.688	2.88
470.888	2.87
471.088	2.77
471.288	2.81
471.488	2.76
471.688	2.76
471.888	2.74
472.088	2.83
472.288	2.71
472.488	2.59
472.688	2.52
472.888	2.59
473.088	2.57
473.288	2.55
473.488	2.42
473.688	2.59
473.887	2.49
474.087	2.37
474.287	2.47
474.487	2.37
474.687	2.46
474.886	2.39
475.086	2.28
475.286	2.36
475.486	2.25
475.685	2.24
475.885	2.2
476.085	2.28
476.284	2.24
476.484	2.2
476.684	2.26
476.883	2.27
477.083	2.21
477.282	2.1
477.482	2.15
477.681	2.18
477.881	2.12
478.08	2.08
478.28	2.07
478.479	2.08
478.679	2.17
478.878	2.05
479.078	2.04
479.277	2.11
479.477	2.06
479.676	2.03
479.875	2.01
480.075	1.94
480.274	2.05
480.473	2.06
480.673	2.04
480.872	2.05
481.071	2.04
481.271	2.03
481.47	2.01
481.669	1.97
481.868	1.95
482.067	1.98
482.267	1.92
482.466	1.96
482.665	1.93
482.864	2.01
483.063	1.94
483.262	1.98
483.461	2.06
483.661	2.03
483.86	1.98
484.059	2.04
484.258	2.09
484.457	2
484.656	2.02
484.855	2.07
485.054	1.89
485.253	1.98
485.452	1.99
485.651	2.05
485.849	1.99
486.048	2
486.247	2.02
486.446	2.03
486.645	2.06
486.844	2.06
487.043	2.04
487.241	2.09
487.44	2.09
487.639	2.14
487.838	2.13
488.037	2.12
488.235	2.18
488.434	2.16
488.633	2.03
488.831	2.2
489.03	2.2
489.229	2.24
489.427	2.22
489.626	2.26
489.825	2.25
490.023	2.29
490.222	2.29
490.42	2.35
490.619	2.36
490.817	2.37
491.016	2.37
491.214	2.42
491.413	2.4
491.611	2.36
491.81	2.42
492.008	2.42
492.207	2.55
492.405	2.53
492.604	2.44
492.802	2.51
493	2.63
493.199	2.62
493.397	2.63
493.595	2.68
493.794	2.63
493.992	2.78
494.19	2.76
494.388	2.82
494.587	2.72
494.785	2.77
494.983	2.74
495.181	2.88
495.379	2.88
495.578	2.94
495.776	2.92
495.974	2.9
496.172	2.98
496.37	3.11
496.568	3.09
496.766	3.07
496.964	3.14
497.162	3.15
497.36	3.2
497.558	3.25
497.756	3.3
497.954	3.27
498.152	3.35
498.35	3.44
498.548	3.36
498.746	3.34
498.944	3.4
499.142	3.46
499.34	3.52
499.538	3.65
499.736	3.53
499.933	3.62
500.131	3.6
500.329	3.8
500.527	3.76
500.725	3.82
500.922	3.84
501.12	3.84
501.318	3.95
501.516	3.91
501.713	4.02
501.911	3.95
502.109	3.97
502.306	4.08
