Data from Apollo_Calib_20240827__AbsoluteIrradiance__777__12-06-02-991.txt Node

Date: Wed Aug 28 12:06:02 BST 2024
User: biology
Spectrometer: FLMT08252
Trigger mode: 0
Integration Time (sec): 5.000000E-1
Scans to average: 5
Electric dark correction enabled: true
Nonlinearity correction enabled: false
Boxcar width: 0
XAxis mode: Wavelengths
Number of Pixels in Spectrum: 3648
>>>>>Begin Spectral Data<<<<<
179.588	-0
179.809	-0
180.03	-0
180.251	-0
180.473	-0
180.694	0
180.915	0
181.136	-0
181.357	0
181.578	-0
181.799	-0
182.02	-0
182.241	0
182.462	-0
182.683	0
182.904	-0
183.125	-0
183.346	0
183.567	0
183.788	0
184.009	0
184.23	0
184.451	0
184.672	0
184.892	0
185.113	0
185.334	0
185.555	0
185.776	0
185.996	0
186.217	0
186.438	0
186.659	0
186.879	0
187.1	0
187.321	0
187.541	0
187.762	0
187.983	0
188.203	0
188.424	0
188.644	0
188.865	0
189.086	0
189.306	0
189.527	0
189.747	0
189.968	0
190.188	0
190.409	0
190.629	0
190.849	0
191.07	0
191.29	0
191.511	0
191.731	0
191.951	0
192.172	0
192.392	0
192.612	0
192.833	0
193.053	0
193.273	0
193.493	0
193.714	0
193.934	0
194.154	0
194.374	0
194.594	0
194.815	0
195.035	0
195.255	0
195.475	0
195.695	0
195.915	0
196.135	0
196.355	0
196.575	0
196.795	0
197.015	0
197.235	0
197.455	0
197.675	0
197.895	0
198.115	0
198.335	0
198.555	0
198.775	0
198.995	0
199.214	0
199.434	0
199.654	0
199.874	0
200.094	3.96
200.313	2.65
200.533	1.95
200.753	1.79
200.973	3.92
201.192	3.16
201.412	1.33
201.632	1.45
201.851	3.29
202.071	1.13
202.291	1.42
202.51	1.38
202.73	2.81
202.95	1.76
203.169	1.26
203.389	1.95
203.608	2.34
203.828	1.43
204.047	1.65
204.267	1.98
204.486	1.98
204.706	2.52
204.925	2.03
205.145	1.47
205.364	2
205.583	2.69
205.803	1.43
206.022	0.79
206.242	2.09
206.461	1.49
206.68	1.08
206.9	1.62
207.119	2.4
207.338	2.17
207.557	0.93
207.777	1.17
207.996	1.39
208.215	2.39
208.434	0.87
208.654	0.91
208.873	1.39
209.092	1.81
209.311	0.89
209.53	0.96
209.749	1.16
209.968	1.05
210.187	0.72
210.407	0.77
210.626	1.12
210.845	1.61
211.064	1.53
211.283	0.97
211.502	1.38
211.721	0.89
211.94	0.94
212.159	1.19
212.377	1.43
212.596	1.34
212.815	1.1
213.034	1.06
213.253	1.29
213.472	1.47
213.691	1
213.91	0.47
214.128	0.79
214.347	1.34
214.566	0.58
214.785	0.46
215.003	1.24
215.222	1.14
215.441	0.82
215.66	0.54
215.878	0.81
216.097	1.09
216.316	0.55
216.534	0.85
216.753	1.06
216.972	0.92
217.19	0.96
217.409	0.74
217.627	0.65
217.846	0.61
218.064	1.03
218.283	0.67
218.501	1.36
218.72	1.07
218.938	0.5
219.157	0.67
219.375	1.13
219.594	1.06
219.812	0.54
220.031	0.53
220.249	1.1
220.467	0.92
220.686	0.59
220.904	0.56
221.122	0.58
221.341	1.14
221.559	0.88
221.777	0.6
221.995	0.75
222.214	0.97
222.432	0.45
222.65	0.71
222.868	0.8
223.086	0.74
223.305	0.82
223.523	0.67
223.741	1.21
223.959	0.78
224.177	0.45
224.395	0.67
224.613	0.8
224.831	0.89
225.049	0.35
225.267	0.55
225.485	0.62
225.703	0.48
225.921	0.58
226.139	0.5
226.357	0.82
226.575	0.72
226.793	0.44
227.011	1.43
227.229	0.74
227.447	0.87
227.665	0.52
227.883	0.24
228.1	0.6
228.318	0.81
228.536	0.27
228.754	0.46
228.972	0.78
229.189	0.68
229.407	0.51
229.625	0.54
229.843	0.83
230.06	0.69
230.278	0.55
230.496	0.65
230.713	0.71
230.931	0.88
231.149	0.44
231.366	0.24
231.584	0.54
231.801	0.95
232.019	0.5
232.236	0.37
232.454	0.43
232.671	0.72
232.889	0.49
233.106	0.36
233.324	0.53
233.541	0.52
233.759	0.56
233.976	0.41
234.194	0.58
234.411	0.48
234.628	0.35
234.846	0.42
235.063	0.41
235.28	0.7
235.498	0.53
235.715	0.34
235.932	0.82
236.149	0.49
236.367	0.35
236.584	0.46
236.801	0.48
237.018	0.75
237.236	0.41
237.453	0.21
237.67	0.68
237.887	0.57
238.104	0.49
238.321	0.24
238.538	0.39
238.755	0.69
238.973	0.28
239.19	0.47
239.407	0.57
239.624	0.48
239.841	0.32
240.058	0.32
240.275	0.51
240.492	0.49
240.709	0.44
240.925	0.45
241.142	0.46
241.359	0.37
241.576	0.3
241.793	0.4
242.01	0.48
242.227	0.61
242.444	0.5
242.66	0.58
242.877	0.38
243.094	0.43
243.311	0.53
243.527	0.41
243.744	0.47
243.961	0.45
244.178	0.36
244.394	0.36
244.611	0.53
244.828	0.63
245.044	0.42
245.261	0.36
245.477	0.36
245.694	0.52
245.911	0.38
246.127	0.43
246.344	0.59
246.56	0.5
246.777	0.43
246.993	0.44
247.21	0.49
247.426	0.51
247.643	0.33
247.859	0.32
248.076	0.35
248.292	0.56
248.508	0.38
248.725	0.43
248.941	0.51
249.157	0.54
249.374	0.24
249.59	0.38
249.806	0.42
250.023	0.58
250.239	0.43
250.455	0.27
250.671	0.36
250.888	0.45
251.104	0.49
251.32	0.29
251.536	0.44
251.752	0.26
251.969	0.44
252.185	0.41
252.401	0.62
252.617	0.53
252.833	0.35
253.049	0.36
253.265	0.43
253.481	0.42
253.697	0.31
253.913	0.25
254.129	0.48
254.345	0.38
254.561	0.34
254.777	0.26
254.993	0.52
255.209	0.38
255.425	0.38
255.641	0.27
255.857	0.49
256.073	0.49
256.288	0.24
256.504	0.34
256.72	0.49
256.936	0.55
257.152	0.34
257.367	0.23
257.583	0.41
257.799	0.48
258.015	0.36
258.23	0.28
258.446	0.57
258.662	0.32
258.877	0.24
259.093	0.23
259.309	0.43
259.524	0.52
259.74	0.31
259.955	0.22
260.171	0.29
260.387	0.32
260.602	0.38
260.818	0.41
261.033	0.24
261.249	0.3
261.464	0.32
261.68	0.21
261.895	0.43
262.11	0.41
262.326	0.36
262.541	0.22
262.757	0.47
262.972	0.48
263.187	0.4
263.403	0.4
263.618	0.51
263.833	0.43
264.049	0.2
264.264	0.3
264.479	0.37
264.694	0.48
264.91	0.27
265.125	0.31
265.34	0.4
265.555	0.57
265.77	0.34
265.986	0.24
266.201	0.42
266.416	0.37
266.631	0.32
266.846	0.28
267.061	0.35
267.276	0.38
267.491	0.23
267.706	0.4
267.921	0.4
268.136	0.39
268.351	0.32
268.566	0.2
268.781	0.4
268.996	0.43
269.211	0.27
269.426	0.26
269.641	0.31
269.856	0.41
270.071	0.23
270.285	0.22
270.5	0.46
270.715	0.39
270.93	0.29
271.145	0.39
271.359	0.48
271.574	0.32
271.789	0.29
272.004	0.31
272.218	0.25
272.433	0.42
272.648	0.24
272.862	0.4
273.077	0.35
273.292	0.3
273.506	0.25
273.721	0.27
273.936	0.36
274.15	0.43
274.365	0.3
274.579	0.4
274.794	0.37
275.008	0.46
275.223	0.25
275.437	0.31
275.652	0.41
275.866	0.41
276.081	0.33
276.295	0.37
276.509	0.31
276.724	0.31
276.938	0.32
277.153	0.33
277.367	0.35
277.581	0.27
277.796	0.31
278.01	0.19
278.224	0.39
278.438	0.5
278.653	0.22
278.867	0.25
279.081	0.17
279.295	0.31
279.51	0.33
279.724	0.14
279.938	0.4
280.152	0.31
280.366	0.27
280.58	0.3
280.794	0.46
281.008	0.43
281.222	0.36
281.437	0.49
281.651	0.3
281.865	0.41
282.079	0.24
282.293	0.14
282.507	0.25
282.721	0.26
282.935	0.23
283.148	0.19
283.362	0.25
283.576	0.22
283.79	0.3
284.004	0.28
284.218	0.4
284.432	0.26
284.646	0.27
284.859	0.2
285.073	0.27
285.287	0.32
285.501	0.27
285.714	0.26
285.928	0.32
286.142	0.28
286.356	0.17
286.569	0.27
286.783	0.34
286.997	0.39
287.21	0.32
287.424	0.24
287.637	0.25
287.851	0.19
288.065	0.33
288.278	0.24
288.492	0.3
288.705	0.31
288.919	0.34
289.132	0.15
289.346	0.31
289.559	0.23
289.773	0.2
289.986	0.24
290.2	0.29
290.413	0.3
290.626	0.24
290.84	0.26
291.053	0.29
291.267	0.33
291.48	0.29
291.693	0.28
291.906	0.2
292.12	0.24
292.333	0.2
292.546	0.28
292.76	0.36
292.973	0.3
293.186	0.26
293.399	0.24
293.612	0.34
293.826	0.23
294.039	0.27
294.252	0.21
294.465	0.3
294.678	0.32
294.891	0.27
295.104	0.2
295.317	0.21
295.53	0.33
295.743	0.26
295.956	0.24
296.169	0.37
296.382	0.29
296.595	0.26
296.808	0.2
297.021	0.33
297.234	0.29
297.447	0.26
297.66	0.34
297.873	0.32
298.086	0.32
298.299	0.21
298.511	0.23
298.724	0.28
298.937	0.23
299.15	0.19
299.363	0.22
299.575	0.29
299.788	0.32
300.001	0.21
300.213	0.22
300.426	0.2
300.639	0.23
300.852	0.2
301.064	0.3
301.277	0.33
301.489	0.28
301.702	0.27
301.915	0.21
302.127	0.23
302.34	0.33
302.552	0.28
302.765	0.22
302.977	0.33
303.19	0.24
303.402	0.23
303.615	0.21
303.827	0.24
304.04	0.26
304.252	0.32
304.464	0.23
304.677	0.39
304.889	0.27
305.102	0.21
305.314	0.16
305.526	0.25
305.739	0.3
305.951	0.21
306.163	0.22
306.375	0.37
306.588	0.22
306.8	0.24
307.012	0.19
307.224	0.31
307.436	0.38
307.649	0.15
307.861	0.22
308.073	0.32
308.285	0.2
308.497	0.19
308.709	0.25
308.921	0.26
309.133	0.3
309.346	0.25
309.558	0.24
309.77	0.29
309.982	0.3
310.194	0.28
310.406	0.21
310.617	0.33
310.829	0.27
311.041	0.27
311.253	0.21
311.465	0.25
311.677	0.25
311.889	0.22
312.101	0.19
312.313	0.32
312.524	0.3
312.736	0.19
312.948	0.25
313.16	0.33
313.372	0.27
313.583	0.25
313.795	0.19
314.007	0.22
314.218	0.26
314.43	0.24
314.642	0.23
314.853	0.2
315.065	0.27
315.277	0.23
315.488	0.25
315.7	0.28
315.912	0.28
316.123	0.24
316.335	0.23
316.546	0.34
316.758	0.26
316.969	0.2
317.181	0.28
317.392	0.28
317.604	0.31
317.815	0.16
318.026	0.18
318.238	0.22
318.449	0.34
318.661	0.17
318.872	0.2
319.083	0.24
319.295	0.29
319.506	0.26
319.717	0.24
319.929	0.28
320.14	0.24
320.351	0.3
320.562	0.23
320.774	0.25
320.985	0.28
321.196	0.2
321.407	0.16
321.618	0.28
321.829	0.26
322.041	0.28
322.252	0.24
322.463	0.32
322.674	0.3
322.885	0.19
323.096	0.25
323.307	0.23
323.518	0.26
323.729	0.25
323.94	0.24
324.151	0.27
324.362	0.28
324.573	0.21
324.784	0.29
324.995	0.32
325.206	0.28
325.417	0.16
325.628	0.18
325.838	0.22
326.049	0.29
326.26	0.27
326.471	0.24
326.682	0.26
326.892	0.28
327.103	0.17
327.314	0.19
327.525	0.26
327.735	0.3
327.946	0.23
328.157	0.2
328.368	0.3
328.578	0.24
328.789	0.31
328.999	0.25
329.21	0.25
329.421	0.28
329.631	0.21
329.842	0.2
330.052	0.21
330.263	0.27
330.473	0.28
330.684	0.21
330.894	0.25
331.105	0.24
331.315	0.28
331.526	0.14
331.736	0.32
331.947	0.29
332.157	0.23
332.367	0.13
332.578	0.28
332.788	0.32
332.999	0.33
333.209	0.25
333.419	0.19
333.629	0.29
333.84	0.29
334.05	0.25
334.26	0.3
334.47	0.27
334.681	0.32
334.891	0.19
335.101	0.28
335.311	0.36
335.521	0.24
335.732	0.19
335.942	0.33
336.152	0.27
336.362	0.25
336.572	0.26
336.782	0.28
336.992	0.24
337.202	0.23
337.412	0.19
337.622	0.26
337.832	0.23
338.042	0.27
338.252	0.2
338.462	0.22
338.672	0.26
338.882	0.23
339.092	0.22
339.302	0.36
339.511	0.3
339.721	0.21
339.931	0.21
340.141	0.28
340.351	0.32
340.561	0.26
340.77	0.26
340.98	0.25
341.19	0.31
341.4	0.25
341.609	0.18
341.819	0.22
342.029	0.18
342.238	0.23
342.448	0.19
342.658	0.29
342.867	0.22
343.077	0.28
343.286	0.23
343.496	0.24
343.706	0.29
343.915	0.18
344.125	0.26
344.334	0.28
344.544	0.19
344.753	0.21
344.963	0.17
345.172	0.22
345.381	0.24
345.591	0.22
345.8	0.24
346.01	0.33
346.219	0.31
346.428	0.11
346.638	0.24
346.847	0.24
347.056	0.33
347.266	0.23
347.475	0.24
347.684	0.28
347.893	0.32
348.103	0.25
348.312	0.21
348.521	0.28
348.73	0.27
348.94	0.26
349.149	0.2
349.358	0.21
349.567	0.22
349.776	0.18
349.985	0.23
350.194	0.3
350.403	0.26
350.612	0.14
350.821	0.2
351.03	0.22
351.239	0.15
351.448	0.25
351.657	0.23
351.866	0.32
352.075	0.24
352.284	0.22
352.493	0.19
352.702	0.32
352.911	0.25
353.12	0.26
353.329	0.22
353.538	0.25
353.746	0.24
353.955	0.17
354.164	0.26
354.373	0.18
354.582	0.26
354.79	0.25
354.999	0.26
355.208	0.23
355.416	0.33
355.625	0.2
355.834	0.19
356.042	0.27
356.251	0.19
356.46	0.18
356.668	0.25
356.877	0.37
357.085	0.3
357.294	0.13
357.503	0.23
357.711	0.22
357.92	0.41
358.128	0.28
358.337	0.2
358.545	0.27
358.754	0.21
358.962	0.31
359.17	0.21
359.379	0.23
359.587	0.29
359.796	0.26
360.004	0.33
360.212	0.31
360.421	0.28
360.629	0.22
360.837	0.24
361.046	0.26
361.254	0.37
361.462	0.21
361.67	0.2
361.879	0.29
362.087	0.34
362.295	0.23
362.503	0.19
362.711	0.2
362.92	0.22
363.128	0.2
363.336	0.18
363.544	0.18
363.752	0.21
363.96	0.22
364.168	0.18
364.376	0.23
364.584	0.23
364.792	0.34
365	0.28
365.208	0.27
365.416	0.28
365.624	0.29
365.832	0.17
366.04	0.32
366.248	0.29
366.456	0.19
366.664	0.24
366.872	0.26
367.079	0.22
367.287	0.23
367.495	0.25
367.703	0.25
367.911	0.21
368.118	0.24
368.326	0.25
368.534	0.21
368.742	0.3
368.949	0.2
369.157	0.19
369.365	0.28
369.572	0.21
369.78	0.22
369.988	0.25
370.195	0.25
370.403	0.27
370.61	0.18
370.818	0.26
371.026	0.31
371.233	0.26
371.441	0.23
371.648	0.24
371.856	0.24
372.063	0.21
372.271	0.22
372.478	0.22
372.685	0.21
372.893	0.29
373.1	0.24
373.308	0.25
373.515	0.4
373.722	0.32
373.93	0.24
374.137	0.27
374.344	0.31
374.552	0.28
374.759	0.31
374.966	0.23
375.173	0.23
375.381	0.29
375.588	0.26
375.795	0.11
376.002	0.23
376.209	0.23
376.417	0.23
376.624	0.31
376.831	0.28
377.038	0.26
377.245	0.17
377.452	0.26
377.659	0.21
377.866	0.22
378.073	0.26
378.28	0.22
378.487	0.3
378.694	0.32
378.901	0.24
379.108	0.2
379.315	0.32
379.522	0.35
379.729	0.3
379.936	0.23
380.143	0.27
380.35	0.25
380.557	0.25
380.763	0.23
380.97	0.26
381.177	0.32
381.384	0.25
381.591	0.22
381.797	0.29
382.004	0.34
382.211	0.28
382.418	0.24
382.624	0.27
382.831	0.33
383.038	0.26
383.244	0.25
383.451	0.25
383.658	0.27
383.864	0.21
384.071	0.22
384.277	0.37
384.484	0.24
384.69	0.3
384.897	0.23
385.103	0.26
385.31	0.24
385.516	0.23
385.723	0.22
385.929	0.25
386.136	0.21
386.342	0.29
386.549	0.23
386.755	0.31
386.961	0.31
387.168	0.25
387.374	0.27
387.58	0.33
387.787	0.33
387.993	0.27
388.199	0.29
388.406	0.26
388.612	0.31
388.818	0.25
389.024	0.23
389.231	0.31
389.437	0.38
389.643	0.3
389.849	0.31
390.055	0.29
390.261	0.27
390.467	0.29
390.674	0.26
390.88	0.28
391.086	0.33
391.292	0.22
391.498	0.36
391.704	0.32
391.91	0.27
392.116	0.29
392.322	0.2
392.528	0.35
392.734	0.25
392.94	0.32
393.146	0.27
393.352	0.29
393.557	0.23
393.763	0.26
393.969	0.31
394.175	0.3
394.381	0.35
394.587	0.29
394.792	0.28
394.998	0.38
395.204	0.4
395.41	0.24
395.615	0.34
395.821	0.33
396.027	0.34
396.233	0.25
396.438	0.32
396.644	0.3
396.85	0.29
397.055	0.33
397.261	0.33
397.466	0.42
397.672	0.35
397.878	0.37
398.083	0.32
398.289	0.27
398.494	0.42
398.7	0.32
398.905	0.25
399.111	0.41
399.316	0.33
399.522	0.32
399.727	0.4
399.932	0.31
400.138	0.28
400.343	0.39
400.549	0.33
400.754	0.36
400.959	0.34
401.165	0.39
401.37	0.36
401.575	0.48
401.78	0.33
401.986	0.33
402.191	0.36
402.396	0.36
402.601	0.37
402.807	0.4
403.012	0.36
403.217	0.47
403.422	0.41
403.627	0.39
403.832	0.4
404.037	0.43
404.243	0.44
404.448	0.39
404.653	0.37
404.858	0.45
405.063	0.45
405.268	0.35
405.473	0.35
405.678	0.41
405.883	0.67
406.088	0.47
406.293	0.4
406.498	0.45
406.703	0.52
406.907	0.49
407.112	0.44
407.317	0.51
407.522	0.6
407.727	0.45
407.932	0.47
408.136	0.67
408.341	0.53
408.546	0.56
408.751	0.54
408.956	0.59
409.16	0.68
409.365	0.58
409.57	0.65
409.774	0.62
409.979	0.7
410.184	0.7
410.388	0.65
410.593	0.81
410.798	0.71
411.002	0.73
411.207	0.75
411.411	0.77
411.616	0.75
411.82	0.78
412.025	0.83
412.229	0.85
412.434	0.98
412.638	0.91
412.843	0.9
413.047	0.98
413.252	0.93
413.456	1.01
413.66	1
413.865	1.06
414.069	1.15
414.273	1.11
414.478	1.14
414.682	1.17
414.886	1.24
415.091	1.19
415.295	1.22
415.499	1.4
415.703	1.4
415.908	1.46
416.112	1.38
416.316	1.63
416.52	1.58
416.724	1.59
416.929	1.67
417.133	1.88
417.337	1.71
417.541	1.8
417.745	1.85
417.949	1.93
418.153	2.04
418.357	1.99
418.561	2.25
418.765	2.21
418.969	2.38
419.173	2.45
419.377	2.42
419.581	2.68
419.785	2.69
419.989	2.74
420.193	2.83
420.397	2.92
420.601	3.11
420.804	3.14
421.008	3.14
421.212	3.31
421.416	3.37
421.62	3.32
421.823	3.33
422.027	3.52
422.231	3.53
422.435	3.6
422.638	3.59
422.842	3.68
423.046	3.8
423.249	3.96
423.453	3.98
423.657	4.21
423.86	4.26
424.064	4.39
424.268	4.56
424.471	4.49
424.675	4.72
424.878	4.83
425.082	4.84
425.285	5.17
425.489	5.18
425.692	5.28
425.896	5.35
426.099	5.48
426.303	5.59
426.506	5.8
426.71	6.08
426.913	6.29
427.116	6.43
427.32	6.41
427.523	6.45
427.726	6.85
427.93	6.93
428.133	7.09
428.336	7.26
428.54	7.44
428.743	7.72
428.946	8
429.149	7.93
429.353	8.02
429.556	8.13
429.759	8.14
429.962	8.21
430.165	8.43
430.368	8.09
430.571	8.14
430.775	8.09
430.978	8.14
431.181	8.21
431.384	8.33
431.587	8.39
431.79	8.72
431.993	8.7
432.196	8.92
432.399	9.33
432.602	9.54
432.805	9.6
433.008	10.13
433.211	9.96
433.414	10.29
433.616	10.43
433.819	10.35
434.022	10.47
434.225	10.73
434.428	10.65
434.631	11.08
434.833	10.95
435.036	11.2
435.239	11.32
435.442	11.35
435.645	11.65
435.847	11.64
436.05	11.93
436.253	12.24
436.455	12.17
436.658	11.98
436.861	12.34
437.063	12.51
437.266	12.48
437.468	12.88
437.671	13.02
437.874	13.15
438.076	12.92
438.279	13.44
438.481	13.48
438.684	14.31
438.886	13.95
439.089	14.14
439.291	14.28
439.494	14.59
439.696	14.7
439.899	15.23
440.101	15.67
440.303	15.97
440.506	16.57
440.708	16.36
440.91	16.63
441.113	16.81
441.315	17.14
441.517	16.92
441.72	17.36
441.922	17.11
442.124	16.87
442.326	17.29
442.529	17.5
442.731	17.47
442.933	17.83
443.135	17.63
443.337	17.59
443.539	17.98
443.742	17.81
443.944	18.34
444.146	18.15
444.348	18.16
444.55	18.02
444.752	18.26
444.954	18.15
445.156	18
445.358	18.42
445.56	18.72
445.762	18.5
445.964	18.86
446.166	18.71
446.368	18.62
446.57	18.69
446.772	18.17
446.974	17.95
447.175	18.28
447.377	17.96
447.579	18.38
447.781	18.13
447.983	17.91
448.184	17.4
448.386	17.67
448.588	17.26
448.79	17.15
448.991	17.46
449.193	17.46
449.395	16.83
449.597	16.53
449.798	16.4
450	16.06
450.202	15.85
450.403	15.86
450.605	15.61
450.806	15.37
451.008	15.09
451.21	14.94
451.411	14.48
451.613	13.78
451.814	14.03
452.016	14.03
452.217	13.26
452.419	13.33
452.62	12.97
452.821	12.66
453.023	12.46
453.224	12.15
453.426	11.82
453.627	11.06
453.828	11.13
454.03	11.25
454.231	11.16
454.432	11.04
454.634	10.75
454.835	10.49
455.036	10.38
455.238	9.94
455.439	9.79
455.64	9.42
455.841	9.25
456.042	9.45
456.244	9.11
456.445	8.84
456.646	8.56
456.847	8.54
457.048	8.43
457.249	8.33
457.45	8.15
457.651	7.63
457.852	7.5
458.054	7.16
458.255	7.17
458.456	7.21
458.657	7.16
458.858	6.54
459.058	6.64
459.259	6.69
459.46	6.36
459.661	6.32
459.862	6.43
460.063	6.27
460.264	6.23
460.465	5.92
460.666	6.03
460.866	5.69
461.067	5.39
461.268	5.48
461.469	5.46
461.67	5.28
461.87	5.17
462.071	5.22
462.272	5.03
462.473	5.05
462.673	5.28
462.874	5
463.075	5.11
463.275	4.97
463.476	5.17
463.676	5.01
463.877	4.81
464.078	4.98
464.278	4.92
464.479	4.77
464.679	4.7
464.88	4.61
465.08	4.62
465.281	4.5
465.481	4.32
465.682	4.08
465.882	4.13
466.083	4.07
466.283	3.99
466.483	3.91
466.684	3.66
466.884	3.62
467.085	3.66
467.285	3.7
467.485	3.57
467.686	3.49
467.886	3.41
468.086	3.35
468.286	3.31
468.487	3.44
468.687	3.15
468.887	3.18
469.087	3.34
469.287	3.2
469.488	3.03
469.688	3.15
469.888	3.18
470.088	3.08
470.288	3.01
470.488	2.93
470.688	2.86
470.888	2.8
471.088	2.63
471.288	2.84
471.488	2.7
471.688	2.73
471.888	2.66
472.088	2.81
472.288	2.75
472.488	2.62
472.688	2.5
472.888	2.58
473.088	2.54
473.288	2.48
473.488	2.39
473.688	2.58
473.887	2.45
474.087	2.34
474.287	2.43
474.487	2.42
474.687	2.39
474.886	2.32
475.086	2.29
475.286	2.29
475.486	2.24
475.685	2.24
475.885	2.18
476.085	2.25
476.284	2.24
476.484	2.21
476.684	2.21
476.883	2.33
477.083	2.15
477.282	2.15
477.482	2.15
477.681	2.09
477.881	2.08
478.08	2.09
478.28	2.02
478.479	2.09
478.679	2.15
478.878	2.01
479.078	2.01
479.277	2.09
479.477	2.07
479.676	2.01
479.875	2.02
480.075	1.97
480.274	2.01
480.473	2.06
480.673	2.07
480.872	2.07
481.071	2.02
481.271	2.02
481.47	1.97
481.669	2.02
481.868	1.95
482.067	2.01
482.267	1.91
482.466	1.97
482.665	1.9
482.864	1.96
483.063	1.9
483.262	2.03
483.461	2.02
483.661	2.03
483.86	1.99
484.059	2
484.258	2.03
484.457	1.99
484.656	2.06
484.855	2.09
485.054	1.92
485.253	1.95
485.452	1.93
485.651	2.07
485.849	1.99
486.048	2
486.247	2.01
486.446	2.07
486.645	1.99
486.844	2.07
487.043	2.03
487.241	2.07
487.44	2.06
487.639	2.12
487.838	2.1
488.037	2.08
488.235	2.21
488.434	2.12
488.633	2.05
488.831	2.22
489.03	2.24
489.229	2.22
489.427	2.21
489.626	2.27
489.825	2.3
490.023	2.33
490.222	2.25
490.42	2.33
490.619	2.37
490.817	2.33
491.016	2.34
491.214	2.47
491.413	2.39
491.611	2.36
491.81	2.39
492.008	2.45
492.207	2.54
492.405	2.53
492.604	2.5
492.802	2.53
493	2.58
493.199	2.63
493.397	2.64
493.595	2.69
493.794	2.69
493.992	2.84
494.19	2.72
494.388	2.78
494.587	2.77
494.785	2.79
494.983	2.73
495.181	2.87
495.379	2.88
495.578	2.96
495.776	2.95
495.974	2.96
496.172	2.95
496.37	3.04
496.568	3.12
496.766	3.07
496.964	3.13
497.162	3.18
497.36	3.3
497.558	3.27
497.756	3.32
497.954	3.26
498.152	3.38
498.35	3.44
498.548	3.36
498.746	3.43
498.944	3.42
499.142	3.41
499.34	3.48
499.538	3.64
499.736	3.5
499.933	3.67
500.131	3.69
500.329	3.8
500.527	3.73
500.725	3.89
500.922	3.88
501.12	3.91
501.318	3.97
501.516	3.93
501.713	4.01
501.911	4.03
502.109	3.94
502.306	4.08
502.504	4.01
