Data from Apollo_Calib_20240827__AbsoluteIrradiance__42__23-51-01-776.txt Node

Date: Tue Aug 27 23:51:01 BST 2024
User: biology
Spectrometer: FLMT08252
Trigger mode: 0
Integration Time (sec): 5.000000E-1
Scans to average: 5
Electric dark correction enabled: true
Nonlinearity correction enabled: false
Boxcar width: 0
XAxis mode: Wavelengths
Number of Pixels in Spectrum: 3648
>>>>>Begin Spectral Data<<<<<
179.588	-0
179.809	-0
180.03	-0
180.251	-0
180.473	-0
180.694	0
180.915	0
181.136	-0
181.357	0
181.578	-0
181.799	-0
182.02	-0
182.241	-0
182.462	-0
182.683	0
182.904	-0
183.125	-0
183.346	0
183.567	0
183.788	0
184.009	0
184.23	0
184.451	0
184.672	0
184.892	0
185.113	0
185.334	0
185.555	0
185.776	0
185.996	0
186.217	0
186.438	0
186.659	0
186.879	0
187.1	0
187.321	0
187.541	0
187.762	0
187.983	0
188.203	0
188.424	0
188.644	0
188.865	0
189.086	0
189.306	0
189.527	0
189.747	0
189.968	0
190.188	0
190.409	0
190.629	0
190.849	0
191.07	0
191.29	0
191.511	0
191.731	0
191.951	0
192.172	0
192.392	0
192.612	0
192.833	0
193.053	0
193.273	0
193.493	0
193.714	0
193.934	0
194.154	0
194.374	0
194.594	0
194.815	0
195.035	0
195.255	0
195.475	0
195.695	0
195.915	0
196.135	0
196.355	0
196.575	0
196.795	0
197.015	0
197.235	0
197.455	0
197.675	0
197.895	0
198.115	0
198.335	0
198.555	0
198.775	0
198.995	0
199.214	0
199.434	0
199.654	0
199.874	0
200.094	3.6
200.313	2.6
200.533	1.94
200.753	1.6
200.973	3.34
201.192	2.83
201.412	1.78
201.632	2.36
201.851	3.25
202.071	1.99
202.291	2.09
202.51	1.05
202.73	2.39
202.95	1.88
203.169	1.56
203.389	1.73
203.608	2.05
203.828	1.88
204.047	1.4
204.267	2.46
204.486	2.11
204.706	2.29
204.925	1.68
205.145	1.61
205.364	2.56
205.583	2.49
205.803	1.5
206.022	1.34
206.242	1.77
206.461	1.83
206.68	0.94
206.9	1.56
207.119	2.12
207.338	1.95
207.557	1.14
207.777	1.5
207.996	1.18
208.215	1.85
208.434	1.14
208.654	1.01
208.873	1.55
209.092	1.77
209.311	1.18
209.53	1.11
209.749	1.11
209.968	1.32
210.187	1.18
210.407	0.72
210.626	1.17
210.845	1.5
211.064	1.2
211.283	0.91
211.502	1.35
211.721	1.14
211.94	1.19
212.159	1.29
212.377	1.53
212.596	1.49
212.815	1.33
213.034	1.18
213.253	1.13
213.472	1.25
213.691	0.77
213.91	0.71
214.128	0.95
214.347	1.35
214.566	0.69
214.785	0.46
215.003	1.26
215.222	0.85
215.441	1.03
215.66	0.58
215.878	0.83
216.097	1.15
216.316	0.59
216.534	0.84
216.753	0.98
216.972	0.81
217.19	0.82
217.409	0.93
217.627	0.6
217.846	0.83
218.064	0.93
218.283	0.84
218.501	1.27
218.72	1.01
218.938	0.56
219.157	0.66
219.375	1.11
219.594	1.01
219.812	0.74
220.031	0.58
220.249	1.25
220.467	1.34
220.686	0.85
220.904	0.56
221.122	0.57
221.341	1.03
221.559	0.86
221.777	0.51
221.995	0.79
222.214	0.97
222.432	0.64
222.65	0.96
222.868	0.87
223.086	0.81
223.305	0.89
223.523	0.68
223.741	0.9
223.959	0.64
224.177	0.44
224.395	0.7
224.613	0.77
224.831	0.85
225.049	0.59
225.267	0.64
225.485	0.74
225.703	0.63
225.921	0.76
226.139	0.62
226.357	0.92
226.575	0.73
226.793	0.51
227.011	1.41
227.229	0.56
227.447	0.84
227.665	0.64
227.883	0.51
228.1	0.74
228.318	0.75
228.536	0.33
228.754	0.57
228.972	0.74
229.189	0.7
229.407	0.58
229.625	0.61
229.843	0.76
230.06	0.67
230.278	0.41
230.496	0.61
230.713	0.69
230.931	0.74
231.149	0.51
231.366	0.37
231.584	0.56
231.801	0.84
232.019	0.51
232.236	0.4
232.454	0.58
232.671	0.59
232.889	0.55
233.106	0.43
233.324	0.63
233.541	0.55
233.759	0.54
233.976	0.48
234.194	0.58
234.411	0.56
234.628	0.53
234.846	0.49
235.063	0.51
235.28	0.54
235.498	0.52
235.715	0.39
235.932	0.65
236.149	0.53
236.367	0.37
236.584	0.66
236.801	0.57
237.018	0.57
237.236	0.52
237.453	0.35
237.67	0.55
237.887	0.53
238.104	0.44
238.321	0.42
238.538	0.43
238.755	0.61
238.973	0.35
239.19	0.5
239.407	0.55
239.624	0.48
239.841	0.47
240.058	0.38
240.275	0.66
240.492	0.48
240.709	0.47
240.925	0.4
241.142	0.5
241.359	0.36
241.576	0.4
241.793	0.33
242.01	0.46
242.227	0.55
242.444	0.54
242.66	0.57
242.877	0.5
243.094	0.45
243.311	0.4
243.527	0.43
243.744	0.45
243.961	0.53
244.178	0.36
244.394	0.42
244.611	0.68
244.828	0.69
245.044	0.37
245.261	0.44
245.477	0.42
245.694	0.55
245.911	0.37
246.127	0.47
246.344	0.55
246.56	0.53
246.777	0.44
246.993	0.41
247.21	0.44
247.426	0.41
247.643	0.32
247.859	0.35
248.076	0.33
248.292	0.73
248.508	0.37
248.725	0.42
248.941	0.49
249.157	0.52
249.374	0.4
249.59	0.39
249.806	0.41
250.023	0.43
250.239	0.32
250.455	0.31
250.671	0.44
250.888	0.42
251.104	0.53
251.32	0.35
251.536	0.4
251.752	0.45
251.969	0.35
252.185	0.46
252.401	0.57
252.617	0.43
252.833	0.36
253.049	0.45
253.265	0.4
253.481	0.41
253.697	0.36
253.913	0.32
254.129	0.46
254.345	0.42
254.561	0.36
254.777	0.33
254.993	0.44
255.209	0.48
255.425	0.39
255.641	0.3
255.857	0.47
256.073	0.4
256.288	0.31
256.504	0.32
256.72	0.41
256.936	0.59
257.152	0.34
257.367	0.36
257.583	0.46
257.799	0.38
258.015	0.25
258.23	0.37
258.446	0.61
258.662	0.44
258.877	0.29
259.093	0.29
259.309	0.37
259.524	0.42
259.74	0.33
259.955	0.25
260.171	0.36
260.387	0.35
260.602	0.42
260.818	0.39
261.033	0.26
261.249	0.42
261.464	0.29
261.68	0.24
261.895	0.46
262.11	0.38
262.326	0.36
262.541	0.24
262.757	0.44
262.972	0.43
263.187	0.39
263.403	0.38
263.618	0.42
263.833	0.37
264.049	0.29
264.264	0.35
264.479	0.46
264.694	0.5
264.91	0.27
265.125	0.31
265.34	0.35
265.555	0.6
265.77	0.38
265.986	0.32
266.201	0.37
266.416	0.44
266.631	0.31
266.846	0.35
267.061	0.43
267.276	0.46
267.491	0.18
267.706	0.42
267.921	0.42
268.136	0.4
268.351	0.39
268.566	0.25
268.781	0.43
268.996	0.41
269.211	0.38
269.426	0.35
269.641	0.31
269.856	0.38
270.071	0.32
270.285	0.25
270.5	0.42
270.715	0.4
270.93	0.36
271.145	0.35
271.359	0.43
271.574	0.35
271.789	0.34
272.004	0.34
272.218	0.36
272.433	0.42
272.648	0.3
272.862	0.39
273.077	0.3
273.292	0.36
273.506	0.28
273.721	0.32
273.936	0.44
274.15	0.37
274.365	0.3
274.579	0.4
274.794	0.35
275.008	0.46
275.223	0.23
275.437	0.31
275.652	0.5
275.866	0.31
276.081	0.3
276.295	0.48
276.509	0.34
276.724	0.36
276.938	0.31
277.153	0.38
277.367	0.38
277.581	0.28
277.796	0.27
278.01	0.26
278.224	0.35
278.438	0.42
278.653	0.23
278.867	0.28
279.081	0.38
279.295	0.29
279.51	0.3
279.724	0.23
279.938	0.36
280.152	0.31
280.366	0.23
280.58	0.3
280.794	0.44
281.008	0.32
281.222	0.34
281.437	0.44
281.651	0.34
281.865	0.4
282.079	0.26
282.293	0.23
282.507	0.24
282.721	0.27
282.935	0.34
283.148	0.25
283.362	0.27
283.576	0.24
283.79	0.35
284.004	0.28
284.218	0.37
284.432	0.25
284.646	0.32
284.859	0.24
285.073	0.23
285.287	0.31
285.501	0.28
285.714	0.31
285.928	0.27
286.142	0.32
286.356	0.23
286.569	0.29
286.783	0.33
286.997	0.37
287.21	0.3
287.424	0.29
287.637	0.25
287.851	0.33
288.065	0.36
288.278	0.3
288.492	0.3
288.705	0.3
288.919	0.33
289.132	0.22
289.346	0.3
289.559	0.17
289.773	0.25
289.986	0.29
290.2	0.28
290.413	0.3
290.626	0.28
290.84	0.23
291.053	0.3
291.267	0.34
291.48	0.3
291.693	0.26
291.906	0.24
292.12	0.26
292.333	0.25
292.546	0.28
292.76	0.34
292.973	0.32
293.186	0.28
293.399	0.25
293.612	0.3
293.826	0.26
294.039	0.25
294.252	0.24
294.465	0.33
294.678	0.33
294.891	0.28
295.104	0.21
295.317	0.28
295.53	0.3
295.743	0.25
295.956	0.29
296.169	0.37
296.382	0.29
296.595	0.2
296.808	0.22
297.021	0.3
297.234	0.31
297.447	0.3
297.66	0.27
297.873	0.35
298.086	0.29
298.299	0.23
298.511	0.2
298.724	0.26
298.937	0.21
299.15	0.2
299.363	0.25
299.575	0.31
299.788	0.2
300.001	0.24
300.213	0.2
300.426	0.29
300.639	0.22
300.852	0.23
301.064	0.31
301.277	0.32
301.489	0.26
301.702	0.28
301.915	0.3
302.127	0.27
302.34	0.26
302.552	0.31
302.765	0.2
302.977	0.26
303.19	0.23
303.402	0.23
303.615	0.26
303.827	0.25
304.04	0.21
304.252	0.29
304.464	0.23
304.677	0.4
304.889	0.25
305.102	0.22
305.314	0.21
305.526	0.29
305.739	0.27
305.951	0.27
306.163	0.22
306.375	0.33
306.588	0.25
306.8	0.22
307.012	0.17
307.224	0.29
307.436	0.29
307.649	0.16
307.861	0.25
308.073	0.32
308.285	0.24
308.497	0.21
308.709	0.2
308.921	0.26
309.133	0.31
309.346	0.25
309.558	0.26
309.77	0.28
309.982	0.34
310.194	0.29
310.406	0.23
310.617	0.35
310.829	0.3
311.041	0.25
311.253	0.26
311.465	0.26
311.677	0.27
311.889	0.24
312.101	0.19
312.313	0.25
312.524	0.33
312.736	0.17
312.948	0.24
313.16	0.35
313.372	0.26
313.583	0.23
313.795	0.27
314.007	0.24
314.218	0.28
314.43	0.29
314.642	0.2
314.853	0.22
315.065	0.34
315.277	0.24
315.488	0.27
315.7	0.29
315.912	0.3
316.123	0.26
316.335	0.27
316.546	0.33
316.758	0.26
316.969	0.2
317.181	0.23
317.392	0.25
317.604	0.37
317.815	0.25
318.026	0.22
318.238	0.21
318.449	0.26
318.661	0.22
318.872	0.2
319.083	0.19
319.295	0.31
319.506	0.23
319.717	0.26
319.929	0.32
320.14	0.28
320.351	0.28
320.562	0.22
320.774	0.26
320.985	0.22
321.196	0.2
321.407	0.2
321.618	0.27
321.829	0.28
322.041	0.29
322.252	0.22
322.463	0.24
322.674	0.25
322.885	0.2
323.096	0.22
323.307	0.24
323.518	0.26
323.729	0.27
323.94	0.26
324.151	0.22
324.362	0.29
324.573	0.25
324.784	0.26
324.995	0.3
325.206	0.27
325.417	0.23
325.628	0.23
325.838	0.24
326.049	0.29
326.26	0.27
326.471	0.23
326.682	0.27
326.892	0.22
327.103	0.23
327.314	0.24
327.525	0.31
327.735	0.22
327.946	0.22
328.157	0.26
328.368	0.31
328.578	0.27
328.789	0.34
328.999	0.28
329.21	0.23
329.421	0.35
329.631	0.22
329.842	0.21
330.052	0.26
330.263	0.29
330.473	0.27
330.684	0.24
330.894	0.22
331.105	0.26
331.315	0.25
331.526	0.22
331.736	0.33
331.947	0.27
332.157	0.26
332.367	0.2
332.578	0.26
332.788	0.31
332.999	0.31
333.209	0.24
333.419	0.2
333.629	0.27
333.84	0.25
334.05	0.27
334.26	0.37
334.47	0.3
334.681	0.26
334.891	0.22
335.101	0.28
335.311	0.35
335.521	0.24
335.732	0.22
335.942	0.31
336.152	0.29
336.362	0.24
336.572	0.23
336.782	0.28
336.992	0.24
337.202	0.23
337.412	0.21
337.622	0.27
337.832	0.26
338.042	0.23
338.252	0.23
338.462	0.3
338.672	0.27
338.882	0.23
339.092	0.24
339.302	0.36
339.511	0.25
339.721	0.26
339.931	0.18
340.141	0.29
340.351	0.35
340.561	0.28
340.77	0.25
340.98	0.25
341.19	0.25
341.4	0.19
341.609	0.16
341.819	0.23
342.029	0.19
342.238	0.27
342.448	0.23
342.658	0.28
342.867	0.23
343.077	0.24
343.286	0.26
343.496	0.26
343.706	0.34
343.915	0.19
344.125	0.23
344.334	0.21
344.544	0.2
344.753	0.26
344.963	0.23
345.172	0.2
345.381	0.23
345.591	0.24
345.8	0.28
346.01	0.3
346.219	0.3
346.428	0.12
346.638	0.25
346.847	0.26
347.056	0.33
347.266	0.24
347.475	0.25
347.684	0.32
347.893	0.25
348.103	0.26
348.312	0.22
348.521	0.23
348.73	0.25
348.94	0.25
349.149	0.25
349.358	0.29
349.567	0.2
349.776	0.2
349.985	0.23
350.194	0.31
350.403	0.3
350.612	0.18
350.821	0.25
351.03	0.23
351.239	0.2
351.448	0.26
351.657	0.22
351.866	0.29
352.075	0.25
352.284	0.3
352.493	0.15
352.702	0.28
352.911	0.29
353.12	0.22
353.329	0.24
353.538	0.26
353.746	0.24
353.955	0.22
354.164	0.25
354.373	0.27
354.582	0.28
354.79	0.28
354.999	0.29
355.208	0.28
355.416	0.31
355.625	0.22
355.834	0.23
356.042	0.26
356.251	0.24
356.46	0.22
356.668	0.27
356.877	0.36
357.085	0.26
357.294	0.16
357.503	0.3
357.711	0.22
357.92	0.34
358.128	0.26
358.337	0.18
358.545	0.24
358.754	0.22
358.962	0.32
359.17	0.24
359.379	0.27
359.587	0.26
359.796	0.21
360.004	0.28
360.212	0.27
360.421	0.31
360.629	0.24
360.837	0.23
361.046	0.32
361.254	0.36
361.462	0.27
361.67	0.2
361.879	0.26
362.087	0.3
362.295	0.24
362.503	0.26
362.711	0.18
362.92	0.24
363.128	0.22
363.336	0.17
363.544	0.18
363.752	0.28
363.96	0.22
364.168	0.21
364.376	0.23
364.584	0.25
364.792	0.29
365	0.24
365.208	0.27
365.416	0.27
365.624	0.29
365.832	0.22
366.04	0.26
366.248	0.26
366.456	0.26
366.664	0.24
366.872	0.23
367.079	0.24
367.287	0.25
367.495	0.27
367.703	0.23
367.911	0.21
368.118	0.2
368.326	0.21
368.534	0.19
368.742	0.29
368.949	0.17
369.157	0.23
369.365	0.25
369.572	0.24
369.78	0.21
369.988	0.27
370.195	0.27
370.403	0.26
370.61	0.26
370.818	0.24
371.026	0.33
371.233	0.2
371.441	0.26
371.648	0.19
371.856	0.27
372.063	0.26
372.271	0.22
372.478	0.25
372.685	0.24
372.893	0.33
373.1	0.26
373.308	0.23
373.515	0.35
373.722	0.26
373.93	0.2
374.137	0.27
374.344	0.32
374.552	0.26
374.759	0.24
374.966	0.26
375.173	0.22
375.381	0.31
375.588	0.26
375.795	0.15
376.002	0.23
376.209	0.24
376.417	0.25
376.624	0.27
376.831	0.27
377.038	0.27
377.245	0.21
377.452	0.26
377.659	0.31
377.866	0.25
378.073	0.19
378.28	0.24
378.487	0.3
378.694	0.27
378.901	0.26
379.108	0.21
379.315	0.27
379.522	0.31
379.729	0.26
379.936	0.27
380.143	0.29
380.35	0.28
380.557	0.27
380.763	0.24
380.97	0.27
381.177	0.25
381.384	0.24
381.591	0.21
381.797	0.28
382.004	0.33
382.211	0.27
382.418	0.28
382.624	0.28
382.831	0.28
383.038	0.24
383.244	0.29
383.451	0.28
383.658	0.27
383.864	0.28
384.071	0.21
384.277	0.32
384.484	0.24
384.69	0.35
384.897	0.24
385.103	0.23
385.31	0.26
385.516	0.25
385.723	0.25
385.929	0.29
386.136	0.21
386.342	0.24
386.549	0.23
386.755	0.32
386.961	0.34
387.168	0.27
387.374	0.22
387.58	0.32
387.787	0.3
387.993	0.29
388.199	0.29
388.406	0.23
388.612	0.28
388.818	0.23
389.024	0.26
389.231	0.3
389.437	0.36
389.643	0.32
389.849	0.26
390.055	0.35
390.261	0.29
390.467	0.34
390.674	0.28
390.88	0.33
391.086	0.31
391.292	0.27
391.498	0.25
391.704	0.31
391.91	0.25
392.116	0.3
392.322	0.2
392.528	0.34
392.734	0.29
392.94	0.3
393.146	0.31
393.352	0.31
393.557	0.29
393.763	0.29
393.969	0.34
394.175	0.31
394.381	0.31
394.587	0.27
394.792	0.29
394.998	0.36
395.204	0.33
395.41	0.29
395.615	0.36
395.821	0.32
396.027	0.3
396.233	0.28
396.438	0.35
396.644	0.39
396.85	0.34
397.055	0.37
397.261	0.34
397.466	0.38
397.672	0.35
397.878	0.36
398.083	0.33
398.289	0.31
398.494	0.44
398.7	0.37
398.905	0.28
399.111	0.43
399.316	0.29
399.522	0.36
399.727	0.37
399.932	0.34
400.138	0.35
400.343	0.39
400.549	0.35
400.754	0.37
400.959	0.37
401.165	0.35
401.37	0.34
401.575	0.42
401.78	0.38
401.986	0.35
402.191	0.34
402.396	0.38
402.601	0.41
402.807	0.45
403.012	0.35
403.217	0.43
403.422	0.39
403.627	0.44
403.832	0.37
404.037	0.45
404.243	0.44
404.448	0.4
404.653	0.44
404.858	0.45
405.063	0.43
405.268	0.43
405.473	0.43
405.678	0.42
405.883	0.62
406.088	0.52
406.293	0.44
406.498	0.42
406.703	0.52
406.907	0.49
407.112	0.45
407.317	0.48
407.522	0.54
407.727	0.46
407.932	0.51
408.136	0.65
408.341	0.56
408.546	0.6
408.751	0.54
408.956	0.55
409.16	0.65
409.365	0.6
409.57	0.59
409.774	0.65
409.979	0.65
410.184	0.68
410.388	0.68
410.593	0.78
410.798	0.74
411.002	0.72
411.207	0.81
411.411	0.8
411.616	0.82
411.82	0.8
412.025	0.88
412.229	0.83
412.434	0.98
412.638	0.92
412.843	0.9
413.047	0.98
413.252	0.92
413.456	1.04
413.66	1.04
413.865	1.03
414.069	1.14
414.273	1.11
414.478	1.09
414.682	1.19
414.886	1.18
415.091	1.23
415.295	1.24
415.499	1.39
415.703	1.34
415.908	1.45
416.112	1.41
416.316	1.57
416.52	1.53
416.724	1.53
416.929	1.64
417.133	1.87
417.337	1.72
417.541	1.81
417.745	1.88
417.949	1.94
418.153	2.03
418.357	2.06
418.561	2.23
418.765	2.21
418.969	2.37
419.173	2.43
419.377	2.43
419.581	2.66
419.785	2.63
419.989	2.72
420.193	2.77
420.397	2.85
420.601	3
420.804	3.14
421.008	3.14
421.212	3.3
421.416	3.24
421.62	3.3
421.823	3.46
422.027	3.51
422.231	3.53
422.435	3.55
422.638	3.63
422.842	3.71
423.046	3.78
423.249	3.95
423.453	4.01
423.657	4.14
423.86	4.32
424.064	4.4
424.268	4.57
424.471	4.55
424.675	4.76
424.878	4.8
425.082	4.86
425.285	5.14
425.489	5.12
425.692	5.28
425.896	5.27
426.099	5.5
426.303	5.65
426.506	5.79
426.71	6
426.913	6.27
427.116	6.4
427.32	6.34
427.523	6.44
427.726	6.76
427.93	6.88
428.133	7.14
428.336	7.23
428.54	7.37
428.743	7.69
428.946	8.01
429.149	7.98
429.353	7.89
429.556	8.06
429.759	8.08
429.962	8.15
430.165	8.35
430.368	8.04
430.571	8.11
430.775	8.07
430.978	8.16
431.181	8.15
431.384	8.22
431.587	8.4
431.79	8.7
431.993	8.77
432.196	8.94
432.399	9.4
432.602	9.55
432.805	9.58
433.008	10.03
433.211	10
433.414	10.28
433.616	10.33
433.819	10.44
434.022	10.56
434.225	10.67
434.428	10.71
434.631	11.04
434.833	10.86
435.036	11.14
435.239	11.36
435.442	11.41
435.645	11.55
435.847	11.74
436.05	12.02
436.253	12.17
436.455	12.35
436.658	12.29
436.861	12.48
437.063	12.56
437.266	12.51
437.468	12.75
437.671	13.09
437.874	13.23
438.076	13.05
438.279	13.47
438.481	13.4
438.684	14.33
438.886	13.96
439.089	14.25
439.291	14.15
439.494	14.6
439.696	14.66
439.899	15.23
440.101	15.62
440.303	15.92
440.506	16.7
440.708	16.44
440.91	16.56
441.113	16.74
441.315	17.01
441.517	16.81
441.72	17.26
441.922	17.11
442.124	16.97
442.326	17.21
442.529	17.52
442.731	17.45
442.933	17.84
443.135	17.59
443.337	17.61
443.539	18.05
443.742	17.81
443.944	18.49
444.146	18.13
444.348	18.13
444.55	18.05
444.752	18.19
444.954	18.29
445.156	18.12
445.358	18.65
445.56	18.7
445.762	18.62
445.964	18.85
446.166	18.69
446.368	18.8
446.57	18.6
446.772	18.43
446.974	18.1
447.175	18.26
447.377	17.93
447.579	18.43
447.781	18.1
447.983	17.79
448.184	17.4
448.386	17.84
448.588	17.52
448.79	17.24
448.991	17.62
449.193	17.56
449.395	16.88
449.597	16.51
449.798	16.42
450	15.94
450.202	15.98
450.403	15.91
450.605	15.83
450.806	15.47
451.008	15.25
451.21	15.04
451.411	14.55
451.613	13.94
451.814	14.12
452.016	14.02
452.217	13.39
452.419	13.39
452.62	12.93
452.821	12.75
453.023	12.68
453.224	12.34
453.426	11.83
453.627	11.13
453.828	11.18
454.03	11.29
454.231	11.34
454.432	11.08
454.634	10.74
454.835	10.61
455.036	10.46
455.238	10.1
455.439	9.69
455.64	9.49
455.841	9.33
456.042	9.51
456.244	9.13
456.445	8.87
456.646	8.54
456.847	8.52
457.048	8.38
457.249	8.46
457.45	8.26
457.651	7.63
457.852	7.53
458.054	7.2
458.255	7.31
458.456	7.31
458.657	7.12
458.858	6.68
459.058	6.72
459.259	6.76
459.46	6.48
459.661	6.38
459.862	6.42
460.063	6.32
460.264	6.24
460.465	6
460.666	6.06
460.866	5.78
461.067	5.53
461.268	5.56
461.469	5.53
461.67	5.33
461.87	5.23
462.071	5.24
462.272	5.16
462.473	5.04
462.673	5.32
462.874	5.12
463.075	5.12
463.275	5.19
463.476	5.14
463.676	5.11
463.877	4.89
464.078	4.92
464.278	4.88
464.479	4.82
464.679	4.85
464.88	4.66
465.08	4.62
465.281	4.47
465.481	4.28
465.682	4.13
465.882	4.18
466.083	4.16
466.283	3.98
466.483	3.89
466.684	3.69
466.884	3.62
467.085	3.59
467.285	3.8
467.485	3.63
467.686	3.5
467.886	3.43
468.086	3.4
468.286	3.29
468.487	3.43
468.687	3.32
468.887	3.17
469.087	3.31
469.287	3.24
469.488	3.05
469.688	3.18
469.888	3.2
470.088	3.15
470.288	3.03
470.488	3
470.688	2.87
470.888	2.82
471.088	2.67
471.288	2.78
471.488	2.78
471.688	2.73
471.888	2.64
472.088	2.78
472.288	2.66
472.488	2.54
472.688	2.54
472.888	2.57
473.088	2.53
473.288	2.41
473.488	2.38
473.688	2.6
473.887	2.5
474.087	2.4
474.287	2.41
474.487	2.33
474.687	2.41
474.886	2.34
475.086	2.28
475.286	2.34
475.486	2.24
475.685	2.27
475.885	2.18
476.085	2.28
476.284	2.28
476.484	2.25
476.684	2.19
476.883	2.24
477.083	2.17
477.282	2.13
477.482	2.17
477.681	2.11
477.881	2.01
478.08	2.06
478.28	2.02
478.479	2.11
478.679	2.09
478.878	2.04
479.078	2.02
479.277	2.09
479.477	2.05
479.676	2.01
479.875	2.02
480.075	1.96
480.274	2.08
480.473	2.06
480.673	1.99
480.872	2.04
481.071	2.02
481.271	2.06
481.47	1.98
481.669	1.98
481.868	1.94
482.067	2.02
482.267	1.91
482.466	1.95
482.665	1.9
482.864	1.97
483.063	1.97
483.262	2.06
483.461	2.01
483.661	2.05
483.86	1.98
484.059	2.01
484.258	2
484.457	2.04
484.656	2.02
484.855	2.07
485.054	1.9
485.253	2
485.452	1.96
485.651	2.05
485.849	2
486.048	2
486.247	2.05
486.446	2
486.645	2
486.844	2.03
487.043	2.04
487.241	2.05
487.44	2.09
487.639	2.14
487.838	2.1
488.037	2.1
488.235	2.16
488.434	2.15
488.633	2.05
488.831	2.25
489.03	2.19
489.229	2.2
489.427	2.19
489.626	2.24
489.825	2.26
490.023	2.25
490.222	2.28
490.42	2.3
490.619	2.36
490.817	2.32
491.016	2.35
491.214	2.41
491.413	2.42
491.611	2.36
491.81	2.38
492.008	2.45
492.207	2.54
492.405	2.48
492.604	2.43
492.802	2.52
493	2.62
493.199	2.61
493.397	2.6
493.595	2.64
493.794	2.66
493.992	2.73
494.19	2.76
494.388	2.76
494.587	2.7
494.785	2.79
494.983	2.7
495.181	2.84
495.379	2.91
495.578	2.99
495.776	2.97
495.974	2.93
496.172	2.96
496.37	3.11
496.568	3.08
496.766	3.08
496.964	3.15
497.162	3.19
497.36	3.19
497.558	3.23
497.756	3.3
497.954	3.27
498.152	3.32
498.35	3.42
498.548	3.34
498.746	3.39
498.944	3.39
499.142	3.4
499.34	3.52
499.538	3.67
499.736	3.49
499.933	3.62
500.131	3.6
500.329	3.75
500.527	3.76
500.725	3.83
500.922	3.86
501.12	3.86
501.318	3.93
501.516	3.93
501.713	3.97
501.911	4
502.109	3.94
502.306	4.09
502.504	4.01
502.701	4.06
502.899	4.19
