Data from Apollo_Calib_20240827__AbsoluteIrradiance__35__23-44-02-593.txt Node

Date: Tue Aug 27 23:44:02 BST 2024
User: biology
Spectrometer: FLMT08252
Trigger mode: 0
Integration Time (sec): 5.000000E-1
Scans to average: 5
Electric dark correction enabled: true
Nonlinearity correction enabled: false
Boxcar width: 0
XAxis mode: Wavelengths
Number of Pixels in Spectrum: 3648
>>>>>Begin Spectral Data<<<<<
179.588	-0
179.809	-0
180.03	-0
180.251	-0
180.473	-0
180.694	0
180.915	0
181.136	-0
181.357	0
181.578	0
181.799	-0
182.02	-0
182.241	0
182.462	-0
182.683	0
182.904	-0
183.125	-0
183.346	0
183.567	0
183.788	0
184.009	0
184.23	0
184.451	0
184.672	0
184.892	0
185.113	0
185.334	0
185.555	0
185.776	0
185.996	0
186.217	0
186.438	0
186.659	0
186.879	0
187.1	0
187.321	0
187.541	0
187.762	0
187.983	0
188.203	0
188.424	0
188.644	0
188.865	0
189.086	0
189.306	0
189.527	0
189.747	0
189.968	0
190.188	0
190.409	0
190.629	0
190.849	0
191.07	0
191.29	0
191.511	0
191.731	0
191.951	0
192.172	0
192.392	0
192.612	0
192.833	0
193.053	0
193.273	0
193.493	0
193.714	0
193.934	0
194.154	0
194.374	0
194.594	0
194.815	0
195.035	0
195.255	0
195.475	0
195.695	0
195.915	0
196.135	0
196.355	0
196.575	0
196.795	0
197.015	0
197.235	0
197.455	0
197.675	0
197.895	0
198.115	0
198.335	0
198.555	0
198.775	0
198.995	0
199.214	0
199.434	0
199.654	0
199.874	0
200.094	3.26
200.313	3.03
200.533	2.53
200.753	1.87
200.973	3.19
201.192	2.98
201.412	1.5
201.632	1.86
201.851	3.52
202.071	1.86
202.291	1.95
202.51	1.75
202.73	2.94
202.95	1.69
203.169	1.5
203.389	2.13
203.608	2.17
203.828	1.6
204.047	2.29
204.267	2.39
204.486	1.74
204.706	1.91
204.925	1.88
205.145	1.23
205.364	2.13
205.583	2.77
205.803	1.61
206.022	1.26
206.242	1.47
206.461	1.77
206.68	1.06
206.9	1.92
207.119	2.49
207.338	2.11
207.557	1.26
207.777	1.3
207.996	1.3
208.215	2.17
208.434	1.06
208.654	0.57
208.873	1.18
209.092	2.05
209.311	1.23
209.53	1.24
209.749	1.18
209.968	1.27
210.187	1.22
210.407	0.9
210.626	1.19
210.845	1.34
211.064	1.08
211.283	0.75
211.502	1.43
211.721	1.23
211.94	0.96
212.159	1.68
212.377	1.33
212.596	1.6
212.815	1.18
213.034	1.16
213.253	1.32
213.472	1.23
213.691	0.84
213.91	0.75
214.128	0.9
214.347	1.36
214.566	0.77
214.785	0.61
215.003	1.32
215.222	1.27
215.441	1.08
215.66	0.62
215.878	0.78
216.097	1.13
216.316	0.7
216.534	1
216.753	1.2
216.972	0.88
217.19	0.97
217.409	0.86
217.627	0.92
217.846	0.98
218.064	0.93
218.283	0.66
218.501	1.39
218.72	1.24
218.938	0.61
219.157	0.82
219.375	0.88
219.594	0.96
219.812	0.68
220.031	0.8
220.249	1.15
220.467	1.15
220.686	0.91
220.904	0.43
221.122	0.72
221.341	1.12
221.559	0.78
221.777	0.68
221.995	0.86
222.214	0.76
222.432	0.54
222.65	0.79
222.868	0.76
223.086	0.91
223.305	0.9
223.523	0.69
223.741	1
223.959	0.56
224.177	0.52
224.395	0.58
224.613	0.78
224.831	0.89
225.049	0.55
225.267	0.64
225.485	0.67
225.703	0.71
225.921	0.67
226.139	0.62
226.357	0.81
226.575	0.73
226.793	0.56
227.011	1.41
227.229	0.75
227.447	0.79
227.665	0.51
227.883	0.51
228.1	0.66
228.318	0.64
228.536	0.32
228.754	0.35
228.972	0.63
229.189	0.82
229.407	0.57
229.625	0.59
229.843	0.79
230.06	0.75
230.278	0.48
230.496	0.52
230.713	0.51
230.931	0.61
231.149	0.56
231.366	0.38
231.584	0.58
231.801	0.86
232.019	0.51
232.236	0.49
232.454	0.53
232.671	0.56
232.889	0.52
233.106	0.45
233.324	0.64
233.541	0.54
233.759	0.5
233.976	0.45
234.194	0.57
234.411	0.6
234.628	0.43
234.846	0.48
235.063	0.57
235.28	0.47
235.498	0.54
235.715	0.41
235.932	0.73
236.149	0.53
236.367	0.48
236.584	0.55
236.801	0.47
237.018	0.63
237.236	0.52
237.453	0.32
237.67	0.72
237.887	0.5
238.104	0.53
238.321	0.39
238.538	0.49
238.755	0.66
238.973	0.41
239.19	0.55
239.407	0.59
239.624	0.53
239.841	0.44
240.058	0.4
240.275	0.48
240.492	0.57
240.709	0.51
240.925	0.36
241.142	0.55
241.359	0.34
241.576	0.42
241.793	0.43
242.01	0.51
242.227	0.58
242.444	0.68
242.66	0.61
242.877	0.48
243.094	0.45
243.311	0.49
243.527	0.4
243.744	0.53
243.961	0.57
244.178	0.39
244.394	0.44
244.611	0.56
244.828	0.57
245.044	0.39
245.261	0.39
245.477	0.52
245.694	0.61
245.911	0.42
246.127	0.45
246.344	0.66
246.56	0.52
246.777	0.43
246.993	0.48
247.21	0.53
247.426	0.5
247.643	0.39
247.859	0.35
248.076	0.43
248.292	0.67
248.508	0.39
248.725	0.47
248.941	0.5
249.157	0.62
249.374	0.39
249.59	0.4
249.806	0.43
250.023	0.42
250.239	0.37
250.455	0.37
250.671	0.52
250.888	0.51
251.104	0.55
251.32	0.45
251.536	0.4
251.752	0.44
251.969	0.45
252.185	0.46
252.401	0.61
252.617	0.5
252.833	0.34
253.049	0.39
253.265	0.4
253.481	0.49
253.697	0.34
253.913	0.37
254.129	0.42
254.345	0.37
254.561	0.35
254.777	0.38
254.993	0.52
255.209	0.48
255.425	0.38
255.641	0.35
255.857	0.47
256.073	0.4
256.288	0.28
256.504	0.37
256.72	0.32
256.936	0.59
257.152	0.4
257.367	0.38
257.583	0.35
257.799	0.48
258.015	0.26
258.23	0.35
258.446	0.54
258.662	0.38
258.877	0.34
259.093	0.36
259.309	0.44
259.524	0.45
259.74	0.32
259.955	0.26
260.171	0.41
260.387	0.39
260.602	0.41
260.818	0.49
261.033	0.37
261.249	0.31
261.464	0.41
261.68	0.27
261.895	0.38
262.11	0.44
262.326	0.41
262.541	0.22
262.757	0.39
262.972	0.39
263.187	0.37
263.403	0.39
263.618	0.5
263.833	0.35
264.049	0.35
264.264	0.35
264.479	0.39
264.694	0.43
264.91	0.29
265.125	0.34
265.34	0.41
265.555	0.55
265.77	0.39
265.986	0.35
266.201	0.38
266.416	0.43
266.631	0.3
266.846	0.33
267.061	0.42
267.276	0.47
267.491	0.23
267.706	0.41
267.921	0.39
268.136	0.3
268.351	0.36
268.566	0.23
268.781	0.42
268.996	0.47
269.211	0.32
269.426	0.26
269.641	0.35
269.856	0.38
270.071	0.28
270.285	0.24
270.5	0.43
270.715	0.39
270.93	0.41
271.145	0.38
271.359	0.43
271.574	0.29
271.789	0.35
272.004	0.37
272.218	0.3
272.433	0.38
272.648	0.31
272.862	0.4
273.077	0.38
273.292	0.34
273.506	0.27
273.721	0.3
273.936	0.35
274.15	0.36
274.365	0.21
274.579	0.39
274.794	0.33
275.008	0.42
275.223	0.23
275.437	0.31
275.652	0.48
275.866	0.38
276.081	0.29
276.295	0.39
276.509	0.35
276.724	0.29
276.938	0.34
277.153	0.39
277.367	0.35
277.581	0.28
277.796	0.27
278.01	0.25
278.224	0.37
278.438	0.47
278.653	0.27
278.867	0.26
279.081	0.19
279.295	0.28
279.51	0.3
279.724	0.21
279.938	0.33
280.152	0.33
280.366	0.22
280.58	0.34
280.794	0.4
281.008	0.29
281.222	0.38
281.437	0.42
281.651	0.35
281.865	0.39
282.079	0.29
282.293	0.2
282.507	0.24
282.721	0.33
282.935	0.26
283.148	0.26
283.362	0.3
283.576	0.21
283.79	0.3
284.004	0.27
284.218	0.36
284.432	0.29
284.646	0.32
284.859	0.31
285.073	0.26
285.287	0.29
285.501	0.26
285.714	0.28
285.928	0.29
286.142	0.29
286.356	0.28
286.569	0.25
286.783	0.41
286.997	0.39
287.21	0.24
287.424	0.32
287.637	0.24
287.851	0.25
288.065	0.34
288.278	0.27
288.492	0.28
288.705	0.27
288.919	0.33
289.132	0.25
289.346	0.33
289.559	0.18
289.773	0.29
289.986	0.3
290.2	0.3
290.413	0.36
290.626	0.25
290.84	0.26
291.053	0.29
291.267	0.37
291.48	0.32
291.693	0.25
291.906	0.25
292.12	0.25
292.333	0.23
292.546	0.23
292.76	0.36
292.973	0.32
293.186	0.31
293.399	0.19
293.612	0.32
293.826	0.29
294.039	0.3
294.252	0.29
294.465	0.3
294.678	0.31
294.891	0.31
295.104	0.23
295.317	0.28
295.53	0.33
295.743	0.31
295.956	0.27
296.169	0.29
296.382	0.32
296.595	0.29
296.808	0.25
297.021	0.32
297.234	0.33
297.447	0.31
297.66	0.24
297.873	0.33
298.086	0.3
298.299	0.24
298.511	0.2
298.724	0.33
298.937	0.2
299.15	0.23
299.363	0.27
299.575	0.3
299.788	0.27
300.001	0.23
300.213	0.27
300.426	0.23
300.639	0.24
300.852	0.22
301.064	0.3
301.277	0.33
301.489	0.3
301.702	0.3
301.915	0.25
302.127	0.27
302.34	0.27
302.552	0.28
302.765	0.21
302.977	0.31
303.19	0.2
303.402	0.25
303.615	0.24
303.827	0.25
304.04	0.25
304.252	0.27
304.464	0.26
304.677	0.35
304.889	0.3
305.102	0.24
305.314	0.21
305.526	0.29
305.739	0.32
305.951	0.23
306.163	0.24
306.375	0.34
306.588	0.25
306.8	0.26
307.012	0.19
307.224	0.29
307.436	0.38
307.649	0.19
307.861	0.27
308.073	0.27
308.285	0.25
308.497	0.22
308.709	0.23
308.921	0.28
309.133	0.28
309.346	0.27
309.558	0.24
309.77	0.35
309.982	0.23
310.194	0.31
310.406	0.27
310.617	0.34
310.829	0.27
311.041	0.29
311.253	0.23
311.465	0.25
311.677	0.26
311.889	0.23
312.101	0.18
312.313	0.34
312.524	0.32
312.736	0.19
312.948	0.28
313.16	0.33
313.372	0.3
313.583	0.29
313.795	0.26
314.007	0.22
314.218	0.27
314.43	0.27
314.642	0.23
314.853	0.2
315.065	0.29
315.277	0.27
315.488	0.25
315.7	0.32
315.912	0.26
316.123	0.23
316.335	0.23
316.546	0.37
316.758	0.22
316.969	0.21
317.181	0.28
317.392	0.25
317.604	0.32
317.815	0.21
318.026	0.25
318.238	0.24
318.449	0.27
318.661	0.22
318.872	0.16
319.083	0.22
319.295	0.27
319.506	0.2
319.717	0.25
319.929	0.28
320.14	0.26
320.351	0.3
320.562	0.22
320.774	0.3
320.985	0.25
321.196	0.21
321.407	0.2
321.618	0.32
321.829	0.27
322.041	0.27
322.252	0.29
322.463	0.3
322.674	0.3
322.885	0.22
323.096	0.26
323.307	0.26
323.518	0.29
323.729	0.23
323.94	0.23
324.151	0.17
324.362	0.23
324.573	0.23
324.784	0.23
324.995	0.31
325.206	0.3
325.417	0.24
325.628	0.23
325.838	0.27
326.049	0.3
326.26	0.3
326.471	0.22
326.682	0.31
326.892	0.24
327.103	0.22
327.314	0.16
327.525	0.31
327.735	0.25
327.946	0.29
328.157	0.24
328.368	0.26
328.578	0.24
328.789	0.32
328.999	0.25
329.21	0.29
329.421	0.31
329.631	0.23
329.842	0.24
330.052	0.3
330.263	0.29
330.473	0.29
330.684	0.27
330.894	0.25
331.105	0.3
331.315	0.29
331.526	0.18
331.736	0.34
331.947	0.29
332.157	0.28
332.367	0.23
332.578	0.29
332.788	0.32
332.999	0.28
333.209	0.27
333.419	0.16
333.629	0.27
333.84	0.29
334.05	0.26
334.26	0.35
334.47	0.33
334.681	0.27
334.891	0.23
335.101	0.25
335.311	0.32
335.521	0.25
335.732	0.23
335.942	0.29
336.152	0.28
336.362	0.26
336.572	0.28
336.782	0.3
336.992	0.19
337.202	0.26
337.412	0.24
337.622	0.25
337.832	0.24
338.042	0.31
338.252	0.21
338.462	0.27
338.672	0.27
338.882	0.27
339.092	0.23
339.302	0.32
339.511	0.28
339.721	0.24
339.931	0.2
340.141	0.32
340.351	0.33
340.561	0.31
340.77	0.27
340.98	0.28
341.19	0.27
341.4	0.25
341.609	0.21
341.819	0.21
342.029	0.24
342.238	0.3
342.448	0.21
342.658	0.3
342.867	0.28
343.077	0.25
343.286	0.26
343.496	0.27
343.706	0.29
343.915	0.22
344.125	0.26
344.334	0.26
344.544	0.23
344.753	0.26
344.963	0.25
345.172	0.23
345.381	0.23
345.591	0.18
345.8	0.22
346.01	0.3
346.219	0.29
346.428	0.1
346.638	0.26
346.847	0.25
347.056	0.31
347.266	0.21
347.475	0.28
347.684	0.31
347.893	0.27
348.103	0.27
348.312	0.22
348.521	0.25
348.73	0.23
348.94	0.28
349.149	0.24
349.358	0.21
349.567	0.23
349.776	0.22
349.985	0.17
350.194	0.29
350.403	0.23
350.612	0.21
350.821	0.26
351.03	0.22
351.239	0.17
351.448	0.25
351.657	0.24
351.866	0.28
352.075	0.23
352.284	0.29
352.493	0.21
352.702	0.32
352.911	0.32
353.12	0.27
353.329	0.26
353.538	0.26
353.746	0.27
353.955	0.23
354.164	0.27
354.373	0.26
354.582	0.29
354.79	0.24
354.999	0.26
355.208	0.24
355.416	0.33
355.625	0.17
355.834	0.26
356.042	0.26
356.251	0.23
356.46	0.22
356.668	0.22
356.877	0.4
357.085	0.31
357.294	0.18
357.503	0.25
357.711	0.3
357.92	0.4
358.128	0.24
358.337	0.25
358.545	0.3
358.754	0.22
358.962	0.26
359.17	0.26
359.379	0.28
359.587	0.25
359.796	0.26
360.004	0.26
360.212	0.31
360.421	0.32
360.629	0.22
360.837	0.22
361.046	0.3
361.254	0.36
361.462	0.25
361.67	0.21
361.879	0.22
362.087	0.3
362.295	0.24
362.503	0.23
362.711	0.24
362.92	0.26
363.128	0.19
363.336	0.2
363.544	0.19
363.752	0.23
363.96	0.22
364.168	0.22
364.376	0.24
364.584	0.24
364.792	0.33
365	0.28
365.208	0.26
365.416	0.28
365.624	0.28
365.832	0.21
366.04	0.32
366.248	0.24
366.456	0.3
366.664	0.27
366.872	0.29
367.079	0.22
367.287	0.25
367.495	0.25
367.703	0.26
367.911	0.23
368.118	0.23
368.326	0.23
368.534	0.2
368.742	0.31
368.949	0.2
369.157	0.21
369.365	0.31
369.572	0.24
369.78	0.22
369.988	0.25
370.195	0.27
370.403	0.31
370.61	0.25
370.818	0.25
371.026	0.33
371.233	0.24
371.441	0.31
371.648	0.25
371.856	0.25
372.063	0.3
372.271	0.26
372.478	0.25
372.685	0.21
372.893	0.31
373.1	0.26
373.308	0.25
373.515	0.36
373.722	0.3
373.93	0.22
374.137	0.27
374.344	0.31
374.552	0.27
374.759	0.32
374.966	0.29
375.173	0.23
375.381	0.31
375.588	0.22
375.795	0.16
376.002	0.27
376.209	0.23
376.417	0.28
376.624	0.28
376.831	0.29
377.038	0.27
377.245	0.18
377.452	0.24
377.659	0.27
377.866	0.23
378.073	0.22
378.28	0.26
378.487	0.28
378.694	0.3
378.901	0.23
379.108	0.23
379.315	0.29
379.522	0.35
379.729	0.25
379.936	0.26
380.143	0.28
380.35	0.28
380.557	0.26
380.763	0.26
380.97	0.33
381.177	0.29
381.384	0.28
381.591	0.23
381.797	0.31
382.004	0.26
382.211	0.33
382.418	0.27
382.624	0.31
382.831	0.36
383.038	0.25
383.244	0.3
383.451	0.26
383.658	0.3
383.864	0.26
384.071	0.22
384.277	0.39
384.484	0.25
384.69	0.28
384.897	0.28
385.103	0.3
385.31	0.25
385.516	0.25
385.723	0.23
385.929	0.27
386.136	0.25
386.342	0.32
386.549	0.26
386.755	0.35
386.961	0.33
387.168	0.26
387.374	0.26
387.58	0.38
387.787	0.27
387.993	0.31
388.199	0.3
388.406	0.29
388.612	0.29
388.818	0.27
389.024	0.25
389.231	0.28
389.437	0.4
389.643	0.33
389.849	0.3
390.055	0.29
390.261	0.32
390.467	0.38
390.674	0.26
390.88	0.29
391.086	0.32
391.292	0.26
391.498	0.36
391.704	0.31
391.91	0.28
392.116	0.3
392.322	0.2
392.528	0.34
392.734	0.28
392.94	0.3
393.146	0.31
393.352	0.25
393.557	0.27
393.763	0.28
393.969	0.35
394.175	0.3
394.381	0.3
394.587	0.27
394.792	0.29
394.998	0.34
395.204	0.37
395.41	0.31
395.615	0.37
395.821	0.37
396.027	0.33
396.233	0.29
396.438	0.35
396.644	0.37
396.85	0.41
397.055	0.31
397.261	0.34
397.466	0.46
397.672	0.33
397.878	0.38
398.083	0.35
398.289	0.31
398.494	0.39
398.7	0.36
398.905	0.24
399.111	0.49
399.316	0.29
399.522	0.37
399.727	0.34
399.932	0.34
400.138	0.31
400.343	0.36
400.549	0.36
400.754	0.34
400.959	0.39
401.165	0.36
401.37	0.35
401.575	0.31
401.78	0.39
401.986	0.36
402.191	0.35
402.396	0.37
402.601	0.42
402.807	0.36
403.012	0.38
403.217	0.46
403.422	0.39
403.627	0.4
403.832	0.44
404.037	0.48
404.243	0.46
404.448	0.42
404.653	0.43
404.858	0.45
405.063	0.47
405.268	0.44
405.473	0.42
405.678	0.38
405.883	0.58
406.088	0.5
406.293	0.43
406.498	0.48
406.703	0.48
406.907	0.49
407.112	0.43
407.317	0.52
407.522	0.53
407.727	0.49
407.932	0.55
408.136	0.61
408.341	0.52
408.546	0.65
408.751	0.57
408.956	0.6
409.16	0.65
409.365	0.63
409.57	0.64
409.774	0.64
409.979	0.7
410.184	0.67
410.388	0.64
410.593	0.79
410.798	0.72
411.002	0.71
411.207	0.8
411.411	0.79
411.616	0.73
411.82	0.8
412.025	0.81
412.229	0.84
412.434	0.94
412.638	0.89
412.843	0.91
413.047	0.99
413.252	0.94
413.456	1.01
413.66	1.06
413.865	1.06
414.069	1.15
414.273	1.12
414.478	1.14
414.682	1.18
414.886	1.17
415.091	1.22
415.295	1.28
415.499	1.47
415.703	1.37
415.908	1.4
416.112	1.39
416.316	1.54
416.52	1.54
416.724	1.59
416.929	1.62
417.133	1.9
417.337	1.79
417.541	1.78
417.745	1.86
417.949	1.96
418.153	1.97
418.357	2.07
418.561	2.27
418.765	2.21
418.969	2.31
419.173	2.44
419.377	2.38
419.581	2.57
419.785	2.64
419.989	2.67
420.193	2.82
420.397	2.88
420.601	2.97
420.804	3.1
421.008	3.13
421.212	3.27
421.416	3.26
421.62	3.28
421.823	3.42
422.027	3.48
422.231	3.47
422.435	3.51
422.638	3.57
422.842	3.69
423.046	3.83
423.249	3.91
423.453	4
423.657	4.06
423.86	4.18
424.064	4.28
424.268	4.42
424.471	4.47
424.675	4.79
424.878	4.8
425.082	4.91
425.285	5.12
425.489	5.1
425.692	5.2
425.896	5.2
426.099	5.51
426.303	5.64
426.506	5.68
426.71	6.03
426.913	6.17
427.116	6.28
427.32	6.35
427.523	6.43
427.726	6.73
427.93	6.82
428.133	7.1
428.336	7.3
428.54	7.36
428.743	7.72
428.946	7.85
429.149	7.97
429.353	8
429.556	7.99
429.759	8.09
429.962	8.29
430.165	8.38
430.368	8.02
430.571	8.11
430.775	8.15
430.978	8.07
431.181	8.18
431.384	8.22
431.587	8.39
431.79	8.75
431.993	8.72
432.196	8.97
432.399	9.3
432.602	9.44
432.805	9.54
433.008	10.2
433.211	9.98
433.414	10.37
433.616	10.32
433.819	10.25
434.022	10.53
434.225	10.68
434.428	10.67
434.631	10.96
434.833	10.83
435.036	10.95
435.239	11.36
435.442	11.4
435.645	11.52
435.847	11.61
436.05	11.95
436.253	12.16
436.455	12.12
436.658	12.02
436.861	12.26
437.063	12.52
437.266	12.51
437.468	12.64
437.671	13.05
437.874	13.3
438.076	13.05
438.279	13.41
438.481	13.51
438.684	14.27
438.886	13.87
439.089	14.23
439.291	14.1
439.494	14.5
439.696	14.73
439.899	15.4
440.101	15.74
440.303	15.91
440.506	16.58
440.708	16.4
440.91	16.6
441.113	16.78
441.315	17.05
441.517	16.7
441.72	17.28
441.922	16.91
442.124	16.78
442.326	17.26
442.529	17.43
442.731	17.42
442.933	17.59
443.135	17.4
443.337	17.57
443.539	18.07
443.742	17.75
443.944	18.38
444.146	18.08
444.348	18.17
444.55	18.06
444.752	18.08
444.954	18.25
445.156	18.1
445.358	18.55
445.56	18.88
445.762	18.52
445.964	18.93
446.166	18.81
446.368	18.57
446.57	18.59
446.772	18.18
446.974	17.97
447.175	18.37
447.377	18.02
447.579	18.6
447.781	17.9
447.983	17.95
448.184	17.5
448.386	17.67
448.588	17.26
448.79	17.17
448.991	17.46
449.193	17.69
449.395	16.69
449.597	16.55
449.798	16.4
450	16.08
450.202	15.86
450.403	15.91
450.605	15.85
450.806	15.42
451.008	15.3
451.21	15.1
451.411	14.56
451.613	13.95
451.814	14.13
452.016	13.99
452.217	13.33
452.419	13.38
452.62	13.06
452.821	12.71
453.023	12.63
453.224	12.38
453.426	11.96
453.627	11.14
453.828	11.33
454.03	11.38
454.231	11.36
454.432	11.13
454.634	10.91
454.835	10.55
455.036	10.51
455.238	10.04
455.439	9.79
455.64	9.5
455.841	9.46
456.042	9.53
456.244	9.21
456.445	8.86
456.646	8.73
456.847	8.64
457.048	8.6
457.249	8.52
457.45	8.18
457.651	7.79
457.852	7.55
458.054	7.32
458.255	7.24
458.456	7.21
458.657	7.18
458.858	6.79
459.058	6.66
459.259	6.71
459.46	6.48
459.661	6.41
459.862	6.52
460.063	6.4
460.264	6.28
460.465	5.94
460.666	6.1
460.866	5.76
461.067	5.46
461.268	5.58
461.469	5.49
461.67	5.36
461.87	5.2
462.071	5.22
462.272	5.09
462.473	5.13
462.673	5.26
462.874	5.16
463.075	5.2
463.275	5.17
463.476	5.17
463.676	5.1
463.877	4.91
464.078	4.95
464.278	5.03
464.479	4.95
464.679	4.76
464.88	4.7
465.08	4.72
465.281	4.53
465.481	4.33
465.682	4.06
465.882	4.11
466.083	4.08
466.283	4.01
466.483	3.95
466.684	3.73
466.884	3.67
467.085	3.71
467.285	3.78
467.485	3.7
467.686	3.51
467.886	3.41
468.086	3.33
468.286	3.38
468.487	3.42
468.687	3.29
468.887	3.17
469.087	3.31
469.287	3.29
469.488	3.11
469.688	3.25
469.888	3.18
470.088	3.14
470.288	3.1
470.488	3.05
470.688	2.83
470.888	2.87
471.088	2.74
471.288	2.84
471.488	2.73
471.688	2.74
471.888	2.69
472.088	2.81
472.288	2.75
472.488	2.55
472.688	2.54
472.888	2.61
473.088	2.63
473.288	2.44
473.488	2.48
473.688	2.62
473.887	2.53
474.087	2.4
474.287	2.5
474.487	2.37
474.687	2.48
474.886	2.35
475.086	2.31
475.286	2.38
475.486	2.26
475.685	2.25
475.885	2.21
476.085	2.24
476.284	2.3
476.484	2.26
476.684	2.23
476.883	2.29
477.083	2.19
477.282	2.13
477.482	2.14
477.681	2.16
477.881	2.09
478.08	2.03
478.28	2.05
478.479	2.15
478.679	2.12
478.878	1.98
479.078	2.07
479.277	2.09
479.477	2.08
479.676	2.01
479.875	2.05
480.075	1.99
480.274	2.03
480.473	2.05
480.673	2.05
480.872	2.1
481.071	2.03
481.271	2.06
481.47	1.97
481.669	1.99
481.868	1.98
482.067	2
482.267	1.94
482.466	1.98
482.665	1.97
482.864	1.95
483.063	1.93
483.262	2.03
483.461	1.97
483.661	2.08
483.86	1.98
484.059	2.03
484.258	2.08
484.457	1.97
484.656	2.03
484.855	2.07
485.054	1.92
485.253	1.96
485.452	1.98
485.651	2.03
485.849	2.02
486.048	1.99
486.247	2.01
486.446	2.05
486.645	2.06
486.844	2.07
487.043	2.07
487.241	2.07
487.44	2.05
487.639	2.13
487.838	2.1
488.037	2.1
488.235	2.2
488.434	2.17
488.633	2.07
488.831	2.22
489.03	2.26
489.229	2.17
489.427	2.22
489.626	2.22
489.825	2.28
490.023	2.29
490.222	2.25
490.42	2.31
490.619	2.33
490.817	2.37
491.016	2.35
491.214	2.4
491.413	2.4
491.611	2.35
491.81	2.41
492.008	2.45
492.207	2.53
492.405	2.53
492.604	2.49
492.802	2.56
493	2.57
493.199	2.58
493.397	2.63
493.595	2.71
493.794	2.65
493.992	2.77
494.19	2.76
494.388	2.8
494.587	2.74
494.785	2.75
494.983	2.7
495.181	2.85
495.379	2.92
495.578	2.96
495.776	2.92
495.974	2.92
496.172	2.97
496.37	3.09
496.568	3.1
496.766	3.06
496.964	3.15
497.162	3.13
497.36	3.18
497.558	3.23
497.756	3.3
497.954	3.28
498.152	3.37
498.35	3.42
498.548	3.37
498.746	3.39
498.944	3.41
499.142	3.43
499.34	3.5
499.538	3.64
499.736	3.51
499.933	3.64
500.131	3.63
500.329	3.79
500.527	3.75
500.725	3.82
500.922	3.88
501.12	3.87
501.318	3.91
501.516	3.9
501.713	4.03
501.911	3.99
502.109	3.93
502.306	4.08
502.504	3.98
502.701	4.08
502.899	4.17
