Data from Apollo_Calib_20240827__AbsoluteIrradiance__41__23-50-00-979.txt Node

Date: Tue Aug 27 23:50:00 BST 2024
User: biology
Spectrometer: FLMT08252
Trigger mode: 0
Integration Time (sec): 5.000000E-1
Scans to average: 5
Electric dark correction enabled: true
Nonlinearity correction enabled: false
Boxcar width: 0
XAxis mode: Wavelengths
Number of Pixels in Spectrum: 3648
>>>>>Begin Spectral Data<<<<<
179.588	-0
179.809	-0
180.03	-0
180.251	-0
180.473	-0
180.694	0
180.915	0
181.136	-0
181.357	0
181.578	-0
181.799	0
182.02	-0
182.241	0
182.462	-0
182.683	0
182.904	-0
183.125	-0
183.346	0
183.567	0
183.788	0
184.009	0
184.23	0
184.451	0
184.672	0
184.892	0
185.113	0
185.334	0
185.555	0
185.776	0
185.996	0
186.217	0
186.438	0
186.659	0
186.879	0
187.1	0
187.321	0
187.541	0
187.762	0
187.983	0
188.203	0
188.424	0
188.644	0
188.865	0
189.086	0
189.306	0
189.527	0
189.747	0
189.968	0
190.188	0
190.409	0
190.629	0
190.849	0
191.07	0
191.29	0
191.511	0
191.731	0
191.951	0
192.172	0
192.392	0
192.612	0
192.833	0
193.053	0
193.273	0
193.493	0
193.714	0
193.934	0
194.154	0
194.374	0
194.594	0
194.815	0
195.035	0
195.255	0
195.475	0
195.695	0
195.915	0
196.135	0
196.355	0
196.575	0
196.795	0
197.015	0
197.235	0
197.455	0
197.675	0
197.895	0
198.115	0
198.335	0
198.555	0
198.775	0
198.995	0
199.214	0
199.434	0
199.654	0
199.874	0
200.094	3.28
200.313	2.9
200.533	2.16
200.753	1.6
200.973	3.41
201.192	3.34
201.412	1.39
201.632	1.57
201.851	2.69
202.071	1.75
202.291	1.35
202.51	1.62
202.73	2.37
202.95	1.82
203.169	1.75
203.389	2.17
203.608	1.97
203.828	1.43
204.047	1.44
204.267	2.01
204.486	2.06
204.706	2.05
204.925	2.1
205.145	1.41
205.364	2.19
205.583	2.4
205.803	1.5
206.022	1.21
206.242	1.26
206.461	1.71
206.68	1.04
206.9	1.72
207.119	2.1
207.338	1.92
207.557	1.52
207.777	1.36
207.996	1.27
208.215	2.15
208.434	1.13
208.654	0.9
208.873	1.2
209.092	1.79
209.311	1.37
209.53	1.22
209.749	1.02
209.968	0.86
210.187	0.89
210.407	0.98
210.626	1.14
210.845	1.42
211.064	1.27
211.283	0.94
211.502	1.53
211.721	1.18
211.94	0.92
212.159	1.16
212.377	1.26
212.596	1.44
212.815	1.01
213.034	1.02
213.253	1.46
213.472	1.05
213.691	0.81
213.91	0.85
214.128	0.94
214.347	1.48
214.566	0.61
214.785	0.54
215.003	1.31
215.222	0.91
215.441	0.9
215.66	0.61
215.878	0.89
216.097	1.02
216.316	0.68
216.534	0.96
216.753	1
216.972	0.91
217.19	0.8
217.409	0.55
217.627	1.01
217.846	0.77
218.064	0.74
218.283	0.56
218.501	1.23
218.72	0.99
218.938	0.62
219.157	0.74
219.375	1.03
219.594	0.91
219.812	0.66
220.031	0.48
220.249	1.2
220.467	1.07
220.686	0.66
220.904	0.38
221.122	0.58
221.341	1.05
221.559	0.7
221.777	0.65
221.995	0.71
222.214	0.85
222.432	0.8
222.65	0.9
222.868	0.76
223.086	0.8
223.305	0.8
223.523	0.57
223.741	1.01
223.959	0.61
224.177	0.41
224.395	0.6
224.613	0.78
224.831	0.72
225.049	0.52
225.267	0.62
225.485	0.78
225.703	0.7
225.921	0.62
226.139	0.52
226.357	0.7
226.575	0.73
226.793	0.57
227.011	1.36
227.229	0.64
227.447	0.83
227.665	0.52
227.883	0.31
228.1	0.75
228.318	0.72
228.536	0.43
228.754	0.47
228.972	0.74
229.189	0.77
229.407	0.55
229.625	0.54
229.843	0.72
230.06	0.7
230.278	0.58
230.496	0.49
230.713	0.63
230.931	0.78
231.149	0.51
231.366	0.39
231.584	0.51
231.801	0.87
232.019	0.49
232.236	0.42
232.454	0.47
232.671	0.62
232.889	0.62
233.106	0.46
233.324	0.49
233.541	0.43
233.759	0.48
233.976	0.54
234.194	0.58
234.411	0.56
234.628	0.43
234.846	0.41
235.063	0.55
235.28	0.55
235.498	0.53
235.715	0.42
235.932	0.6
236.149	0.51
236.367	0.32
236.584	0.56
236.801	0.5
237.018	0.58
237.236	0.56
237.453	0.34
237.67	0.62
237.887	0.46
238.104	0.37
238.321	0.41
238.538	0.45
238.755	0.62
238.973	0.24
239.19	0.54
239.407	0.56
239.624	0.52
239.841	0.26
240.058	0.32
240.275	0.53
240.492	0.36
240.709	0.45
240.925	0.46
241.142	0.45
241.359	0.41
241.576	0.48
241.793	0.39
242.01	0.43
242.227	0.55
242.444	0.53
242.66	0.58
242.877	0.41
243.094	0.29
243.311	0.45
243.527	0.37
243.744	0.59
243.961	0.51
244.178	0.31
244.394	0.37
244.611	0.55
244.828	0.58
245.044	0.45
245.261	0.35
245.477	0.46
245.694	0.46
245.911	0.37
246.127	0.44
246.344	0.62
246.56	0.46
246.777	0.36
246.993	0.37
247.21	0.44
247.426	0.58
247.643	0.34
247.859	0.35
248.076	0.33
248.292	0.66
248.508	0.41
248.725	0.46
248.941	0.42
249.157	0.53
249.374	0.36
249.59	0.34
249.806	0.4
250.023	0.49
250.239	0.32
250.455	0.37
250.671	0.46
250.888	0.47
251.104	0.44
251.32	0.36
251.536	0.4
251.752	0.39
251.969	0.34
252.185	0.54
252.401	0.6
252.617	0.46
252.833	0.37
253.049	0.33
253.265	0.42
253.481	0.44
253.697	0.34
253.913	0.27
254.129	0.35
254.345	0.42
254.561	0.35
254.777	0.39
254.993	0.41
255.209	0.48
255.425	0.38
255.641	0.3
255.857	0.52
256.073	0.48
256.288	0.3
256.504	0.3
256.72	0.49
256.936	0.52
257.152	0.35
257.367	0.34
257.583	0.4
257.799	0.45
258.015	0.33
258.23	0.36
258.446	0.43
258.662	0.42
258.877	0.32
259.093	0.21
259.309	0.45
259.524	0.44
259.74	0.28
259.955	0.26
260.171	0.35
260.387	0.38
260.602	0.44
260.818	0.39
261.033	0.32
261.249	0.29
261.464	0.34
261.68	0.27
261.895	0.43
262.11	0.43
262.326	0.29
262.541	0.3
262.757	0.48
262.972	0.37
263.187	0.4
263.403	0.39
263.618	0.4
263.833	0.36
264.049	0.33
264.264	0.32
264.479	0.36
264.694	0.51
264.91	0.24
265.125	0.34
265.34	0.39
265.555	0.54
265.77	0.39
265.986	0.28
266.201	0.38
266.416	0.4
266.631	0.29
266.846	0.37
267.061	0.39
267.276	0.42
267.491	0.21
267.706	0.38
267.921	0.39
268.136	0.37
268.351	0.34
268.566	0.26
268.781	0.46
268.996	0.41
269.211	0.38
269.426	0.23
269.641	0.32
269.856	0.39
270.071	0.3
270.285	0.2
270.5	0.38
270.715	0.44
270.93	0.32
271.145	0.38
271.359	0.37
271.574	0.3
271.789	0.31
272.004	0.36
272.218	0.34
272.433	0.37
272.648	0.25
272.862	0.36
273.077	0.37
273.292	0.36
273.506	0.31
273.721	0.29
273.936	0.36
274.15	0.37
274.365	0.3
274.579	0.36
274.794	0.4
275.008	0.41
275.223	0.26
275.437	0.34
275.652	0.44
275.866	0.31
276.081	0.28
276.295	0.41
276.509	0.29
276.724	0.32
276.938	0.37
277.153	0.34
277.367	0.33
277.581	0.3
277.796	0.27
278.01	0.23
278.224	0.4
278.438	0.5
278.653	0.28
278.867	0.27
279.081	0.12
279.295	0.26
279.51	0.34
279.724	0.26
279.938	0.38
280.152	0.26
280.366	0.25
280.58	0.35
280.794	0.42
281.008	0.34
281.222	0.32
281.437	0.44
281.651	0.3
281.865	0.4
282.079	0.33
282.293	0.22
282.507	0.23
282.721	0.27
282.935	0.31
283.148	0.17
283.362	0.26
283.576	0.22
283.79	0.27
284.004	0.24
284.218	0.35
284.432	0.27
284.646	0.3
284.859	0.29
285.073	0.29
285.287	0.27
285.501	0.3
285.714	0.31
285.928	0.27
286.142	0.29
286.356	0.23
286.569	0.27
286.783	0.38
286.997	0.32
287.21	0.32
287.424	0.29
287.637	0.28
287.851	0.26
288.065	0.36
288.278	0.29
288.492	0.3
288.705	0.22
288.919	0.34
289.132	0.19
289.346	0.39
289.559	0.22
289.773	0.22
289.986	0.29
290.2	0.26
290.413	0.31
290.626	0.24
290.84	0.29
291.053	0.28
291.267	0.36
291.48	0.28
291.693	0.28
291.906	0.27
292.12	0.27
292.333	0.21
292.546	0.25
292.76	0.37
292.973	0.28
293.186	0.26
293.399	0.21
293.612	0.34
293.826	0.25
294.039	0.26
294.252	0.25
294.465	0.35
294.678	0.29
294.891	0.24
295.104	0.2
295.317	0.23
295.53	0.27
295.743	0.32
295.956	0.25
296.169	0.34
296.382	0.24
296.595	0.26
296.808	0.23
297.021	0.29
297.234	0.29
297.447	0.25
297.66	0.28
297.873	0.31
298.086	0.29
298.299	0.17
298.511	0.18
298.724	0.26
298.937	0.22
299.15	0.22
299.363	0.24
299.575	0.32
299.788	0.27
300.001	0.22
300.213	0.23
300.426	0.24
300.639	0.2
300.852	0.2
301.064	0.28
301.277	0.3
301.489	0.3
301.702	0.27
301.915	0.28
302.127	0.3
302.34	0.27
302.552	0.29
302.765	0.22
302.977	0.28
303.19	0.22
303.402	0.26
303.615	0.25
303.827	0.26
304.04	0.22
304.252	0.27
304.464	0.26
304.677	0.34
304.889	0.24
305.102	0.21
305.314	0.19
305.526	0.31
305.739	0.27
305.951	0.19
306.163	0.24
306.375	0.36
306.588	0.27
306.8	0.22
307.012	0.18
307.224	0.29
307.436	0.3
307.649	0.17
307.861	0.25
308.073	0.31
308.285	0.24
308.497	0.16
308.709	0.22
308.921	0.25
309.133	0.29
309.346	0.25
309.558	0.25
309.77	0.33
309.982	0.33
310.194	0.3
310.406	0.23
310.617	0.36
310.829	0.27
311.041	0.3
311.253	0.24
311.465	0.23
311.677	0.23
311.889	0.25
312.101	0.22
312.313	0.31
312.524	0.32
312.736	0.25
312.948	0.22
313.16	0.39
313.372	0.32
313.583	0.28
313.795	0.23
314.007	0.19
314.218	0.27
314.43	0.24
314.642	0.22
314.853	0.18
315.065	0.26
315.277	0.25
315.488	0.26
315.7	0.31
315.912	0.27
316.123	0.22
316.335	0.28
316.546	0.32
316.758	0.21
316.969	0.2
317.181	0.25
317.392	0.28
317.604	0.3
317.815	0.23
318.026	0.19
318.238	0.19
318.449	0.3
318.661	0.19
318.872	0.16
319.083	0.2
319.295	0.3
319.506	0.21
319.717	0.26
319.929	0.28
320.14	0.24
320.351	0.28
320.562	0.22
320.774	0.23
320.985	0.25
321.196	0.23
321.407	0.21
321.618	0.32
321.829	0.29
322.041	0.27
322.252	0.25
322.463	0.29
322.674	0.29
322.885	0.22
323.096	0.23
323.307	0.24
323.518	0.29
323.729	0.22
323.94	0.24
324.151	0.21
324.362	0.27
324.573	0.22
324.784	0.22
324.995	0.28
325.206	0.26
325.417	0.2
325.628	0.23
325.838	0.25
326.049	0.25
326.26	0.27
326.471	0.2
326.682	0.29
326.892	0.26
327.103	0.15
327.314	0.17
327.525	0.34
327.735	0.18
327.946	0.29
328.157	0.21
328.368	0.27
328.578	0.21
328.789	0.26
328.999	0.26
329.21	0.25
329.421	0.29
329.631	0.23
329.842	0.21
330.052	0.23
330.263	0.28
330.473	0.33
330.684	0.26
330.894	0.28
331.105	0.26
331.315	0.28
331.526	0.2
331.736	0.31
331.947	0.27
332.157	0.27
332.367	0.2
332.578	0.26
332.788	0.26
332.999	0.22
333.209	0.2
333.419	0.16
333.629	0.27
333.84	0.3
334.05	0.25
334.26	0.31
334.47	0.29
334.681	0.29
334.891	0.26
335.101	0.24
335.311	0.35
335.521	0.24
335.732	0.18
335.942	0.28
336.152	0.26
336.362	0.24
336.572	0.27
336.782	0.27
336.992	0.2
337.202	0.24
337.412	0.25
337.622	0.29
337.832	0.28
338.042	0.25
338.252	0.18
338.462	0.23
338.672	0.27
338.882	0.19
339.092	0.24
339.302	0.35
339.511	0.28
339.721	0.21
339.931	0.21
340.141	0.25
340.351	0.3
340.561	0.27
340.77	0.24
340.98	0.23
341.19	0.29
341.4	0.25
341.609	0.19
341.819	0.27
342.029	0.21
342.238	0.23
342.448	0.21
342.658	0.26
342.867	0.26
343.077	0.25
343.286	0.23
343.496	0.29
343.706	0.3
343.915	0.21
344.125	0.21
344.334	0.3
344.544	0.21
344.753	0.22
344.963	0.21
345.172	0.2
345.381	0.18
345.591	0.21
345.8	0.23
346.01	0.25
346.219	0.27
346.428	0.11
346.638	0.24
346.847	0.23
347.056	0.32
347.266	0.22
347.475	0.28
347.684	0.25
347.893	0.23
348.103	0.27
348.312	0.21
348.521	0.22
348.73	0.26
348.94	0.29
349.149	0.28
349.358	0.22
349.567	0.26
349.776	0.2
349.985	0.2
350.194	0.3
350.403	0.29
350.612	0.13
350.821	0.21
351.03	0.23
351.239	0.19
351.448	0.24
351.657	0.23
351.866	0.32
352.075	0.24
352.284	0.33
352.493	0.22
352.702	0.26
352.911	0.28
353.12	0.24
353.329	0.22
353.538	0.28
353.746	0.26
353.955	0.21
354.164	0.22
354.373	0.22
354.582	0.24
354.79	0.21
354.999	0.27
355.208	0.22
355.416	0.29
355.625	0.15
355.834	0.24
356.042	0.25
356.251	0.25
356.46	0.22
356.668	0.24
356.877	0.34
357.085	0.28
357.294	0.13
357.503	0.25
357.711	0.22
357.92	0.39
358.128	0.27
358.337	0.23
358.545	0.27
358.754	0.23
358.962	0.25
359.17	0.22
359.379	0.24
359.587	0.21
359.796	0.21
360.004	0.31
360.212	0.28
360.421	0.31
360.629	0.2
360.837	0.2
361.046	0.27
361.254	0.31
361.462	0.2
361.67	0.25
361.879	0.24
362.087	0.33
362.295	0.25
362.503	0.22
362.711	0.18
362.92	0.27
363.128	0.21
363.336	0.19
363.544	0.18
363.752	0.25
363.96	0.21
364.168	0.22
364.376	0.26
364.584	0.2
364.792	0.27
365	0.24
365.208	0.25
365.416	0.3
365.624	0.25
365.832	0.23
366.04	0.31
366.248	0.25
366.456	0.24
366.664	0.25
366.872	0.23
367.079	0.21
367.287	0.25
367.495	0.26
367.703	0.22
367.911	0.2
368.118	0.22
368.326	0.24
368.534	0.19
368.742	0.31
368.949	0.16
369.157	0.21
369.365	0.24
369.572	0.24
369.78	0.23
369.988	0.3
370.195	0.29
370.403	0.24
370.61	0.25
370.818	0.25
371.026	0.34
371.233	0.2
371.441	0.29
371.648	0.24
371.856	0.27
372.063	0.25
372.271	0.23
372.478	0.23
372.685	0.21
372.893	0.31
373.1	0.24
373.308	0.25
373.515	0.3
373.722	0.32
373.93	0.27
374.137	0.31
374.344	0.35
374.552	0.28
374.759	0.29
374.966	0.23
375.173	0.25
375.381	0.28
375.588	0.21
375.795	0.18
376.002	0.22
376.209	0.24
376.417	0.26
376.624	0.29
376.831	0.28
377.038	0.28
377.245	0.19
377.452	0.25
377.659	0.26
377.866	0.24
378.073	0.26
378.28	0.22
378.487	0.26
378.694	0.27
378.901	0.24
379.108	0.25
379.315	0.29
379.522	0.35
379.729	0.29
379.936	0.24
380.143	0.24
380.35	0.22
380.557	0.27
380.763	0.22
380.97	0.25
381.177	0.31
381.384	0.23
381.591	0.22
381.797	0.25
382.004	0.3
382.211	0.34
382.418	0.27
382.624	0.26
382.831	0.31
383.038	0.24
383.244	0.26
383.451	0.23
383.658	0.28
383.864	0.28
384.071	0.23
384.277	0.34
384.484	0.22
384.69	0.32
384.897	0.23
385.103	0.25
385.31	0.25
385.516	0.25
385.723	0.22
385.929	0.23
386.136	0.23
386.342	0.28
386.549	0.25
386.755	0.3
386.961	0.3
387.168	0.27
387.374	0.24
387.58	0.35
387.787	0.28
387.993	0.29
388.199	0.25
388.406	0.27
388.612	0.26
388.818	0.24
389.024	0.24
389.231	0.31
389.437	0.37
389.643	0.31
389.849	0.25
390.055	0.3
390.261	0.28
390.467	0.29
390.674	0.29
390.88	0.27
391.086	0.34
391.292	0.25
391.498	0.36
391.704	0.29
391.91	0.3
392.116	0.28
392.322	0.23
392.528	0.27
392.734	0.26
392.94	0.33
393.146	0.25
393.352	0.31
393.557	0.28
393.763	0.26
393.969	0.33
394.175	0.28
394.381	0.33
394.587	0.23
394.792	0.31
394.998	0.39
395.204	0.34
395.41	0.27
395.615	0.33
395.821	0.33
396.027	0.33
396.233	0.33
396.438	0.36
396.644	0.41
396.85	0.31
397.055	0.32
397.261	0.32
397.466	0.34
397.672	0.35
397.878	0.33
398.083	0.37
398.289	0.32
398.494	0.39
398.7	0.4
398.905	0.25
399.111	0.41
399.316	0.27
399.522	0.37
399.727	0.28
399.932	0.36
400.138	0.33
400.343	0.33
400.549	0.33
400.754	0.34
400.959	0.41
401.165	0.32
401.37	0.31
401.575	0.43
401.78	0.37
401.986	0.37
402.191	0.35
402.396	0.34
402.601	0.37
402.807	0.42
403.012	0.39
403.217	0.42
403.422	0.41
403.627	0.39
403.832	0.36
404.037	0.48
404.243	0.47
404.448	0.41
404.653	0.41
404.858	0.45
405.063	0.47
405.268	0.39
405.473	0.37
405.678	0.37
405.883	0.61
406.088	0.46
406.293	0.39
406.498	0.34
406.703	0.46
406.907	0.48
407.112	0.47
407.317	0.52
407.522	0.56
407.727	0.47
407.932	0.52
408.136	0.58
408.341	0.51
408.546	0.6
408.751	0.52
408.956	0.59
409.16	0.63
409.365	0.63
409.57	0.61
409.774	0.58
409.979	0.67
410.184	0.66
410.388	0.69
410.593	0.72
410.798	0.73
411.002	0.71
411.207	0.83
411.411	0.78
411.616	0.71
411.82	0.84
412.025	0.83
412.229	0.86
412.434	0.96
412.638	0.9
412.843	0.94
413.047	0.96
413.252	0.93
413.456	0.96
413.66	1.09
413.865	1.05
414.069	1.12
414.273	1.12
414.478	1.11
414.682	1.17
414.886	1.18
415.091	1.17
415.295	1.28
415.499	1.34
415.703	1.28
415.908	1.46
416.112	1.39
416.316	1.57
416.52	1.56
416.724	1.58
416.929	1.62
417.133	1.81
417.337	1.7
417.541	1.82
417.745	1.9
417.949	1.93
418.153	2.06
418.357	2.06
418.561	2.29
418.765	2.25
418.969	2.39
419.173	2.44
419.377	2.39
419.581	2.66
419.785	2.58
419.989	2.61
420.193	2.88
420.397	2.87
420.601	3
420.804	3.14
421.008	3.11
421.212	3.28
421.416	3.26
421.62	3.3
421.823	3.31
422.027	3.52
422.231	3.48
422.435	3.53
422.638	3.59
422.842	3.67
423.046	3.72
423.249	3.98
423.453	3.98
423.657	4.1
423.86	4.22
424.064	4.38
424.268	4.45
424.471	4.51
424.675	4.68
424.878	4.76
425.082	4.93
425.285	5.21
425.489	5.17
425.692	5.26
425.896	5.32
426.099	5.46
426.303	5.62
426.506	5.75
426.71	6.05
426.913	6.21
427.116	6.39
427.32	6.35
427.523	6.47
427.726	6.76
427.93	6.88
428.133	7.11
428.336	7.32
428.54	7.4
428.743	7.76
428.946	7.92
429.149	7.9
429.353	8
429.556	8.01
429.759	8.13
429.962	8.16
430.165	8.5
430.368	8.04
430.571	8.1
430.775	8.16
430.978	8.06
431.181	8.18
431.384	8.3
431.587	8.35
431.79	8.74
431.993	8.74
432.196	8.91
432.399	9.35
432.602	9.44
432.805	9.49
433.008	10.13
433.211	9.95
433.414	10.34
433.616	10.34
433.819	10.31
434.022	10.53
434.225	10.56
434.428	10.72
434.631	11.02
434.833	10.88
435.036	11.09
435.239	11.31
435.442	11.39
435.645	11.6
435.847	11.65
436.05	11.88
436.253	12.21
436.455	12.21
436.658	12.04
436.861	12.38
437.063	12.52
437.266	12.47
437.468	12.82
437.671	13.11
437.874	13.24
438.076	12.94
438.279	13.53
438.481	13.6
438.684	14.28
438.886	13.85
439.089	14.2
439.291	14.1
439.494	14.63
439.696	14.62
439.899	15.33
440.101	15.58
440.303	15.87
440.506	16.58
440.708	16.32
440.91	16.58
441.113	16.9
441.315	16.91
441.517	16.91
441.72	17.4
441.922	16.96
442.124	16.91
442.326	17.39
442.529	17.38
442.731	17.49
442.933	17.79
443.135	17.52
443.337	17.59
443.539	18.07
443.742	17.8
443.944	18.31
444.146	18.16
444.348	18.07
444.55	17.95
444.752	18.34
444.954	18.12
445.156	18.09
445.358	18.63
445.56	18.82
445.762	18.67
445.964	18.81
446.166	18.77
446.368	18.67
446.57	18.59
446.772	18.31
446.974	17.98
447.175	18.32
447.377	17.94
447.579	18.43
447.781	17.99
447.983	17.93
448.184	17.4
448.386	17.88
448.588	17.26
448.79	17.14
448.991	17.62
449.193	17.5
449.395	16.87
449.597	16.52
449.798	16.2
450	15.93
450.202	15.74
450.403	15.93
450.605	15.83
450.806	15.5
451.008	15.26
451.21	14.98
451.411	14.63
451.613	13.93
451.814	14.14
452.016	14
452.217	13.3
452.419	13.35
452.62	13.12
452.821	12.69
453.023	12.62
453.224	12.28
453.426	11.83
453.627	11.08
453.828	11.21
454.03	11.3
454.231	11.35
454.432	11.14
454.634	10.83
454.835	10.56
455.036	10.37
455.238	10.01
455.439	9.81
455.64	9.51
455.841	9.47
456.042	9.55
456.244	9.19
456.445	8.88
456.646	8.6
456.847	8.69
457.048	8.39
457.249	8.4
457.45	8.27
457.651	7.77
457.852	7.55
458.054	7.28
458.255	7.13
458.456	7.34
458.657	7.18
458.858	6.71
459.058	6.67
459.259	6.69
459.46	6.46
459.661	6.33
459.862	6.5
460.063	6.35
460.264	6.15
460.465	6.05
460.666	6.03
460.866	5.77
461.067	5.53
461.268	5.53
461.469	5.43
461.67	5.39
461.87	5.27
462.071	5.21
462.272	5.11
462.473	5.12
462.673	5.32
462.874	5.15
463.075	5.09
463.275	5.1
463.476	5.15
463.676	5.11
463.877	4.97
464.078	4.9
464.278	4.99
464.479	4.79
464.679	4.77
464.88	4.71
465.08	4.63
465.281	4.48
465.481	4.28
465.682	4.08
465.882	4.12
466.083	4.1
466.283	4.01
466.483	3.87
466.684	3.73
466.884	3.61
467.085	3.56
467.285	3.76
467.485	3.61
467.686	3.53
467.886	3.42
468.086	3.38
468.286	3.35
468.487	3.4
468.687	3.3
468.887	3.2
469.087	3.35
469.287	3.24
469.488	3.09
469.688	3.11
469.888	3.15
470.088	3.15
470.288	3.09
470.488	2.96
470.688	2.89
470.888	2.74
471.088	2.67
471.288	2.73
471.488	2.81
471.688	2.72
471.888	2.66
472.088	2.8
472.288	2.68
472.488	2.57
472.688	2.54
472.888	2.65
473.088	2.58
473.288	2.47
473.488	2.49
473.688	2.63
473.887	2.46
474.087	2.41
474.287	2.42
474.487	2.34
474.687	2.39
474.886	2.36
475.086	2.28
475.286	2.34
475.486	2.2
475.685	2.25
475.885	2.17
476.085	2.22
476.284	2.19
476.484	2.26
476.684	2.27
476.883	2.3
477.083	2.18
477.282	2.15
477.482	2.16
477.681	2.13
477.881	2.07
478.08	2.11
478.28	2.03
478.479	2.08
478.679	2.07
478.878	2.04
479.078	2.05
479.277	2.11
479.477	2.07
479.676	2.05
479.875	1.97
480.075	1.96
480.274	2
480.473	2
480.673	1.99
480.872	2.05
481.071	2.04
481.271	2.02
481.47	1.99
481.669	1.95
481.868	1.98
482.067	1.94
482.267	1.91
482.466	1.94
482.665	1.9
482.864	1.91
483.063	1.9
483.262	2.01
483.461	2.01
483.661	2.03
483.86	2.02
484.059	2.04
484.258	2.06
484.457	2.03
484.656	1.97
484.855	2.05
485.054	1.88
485.253	1.98
485.452	1.95
485.651	2.07
485.849	1.99
486.048	2.01
486.247	2.01
486.446	2.09
486.645	2
486.844	2.09
487.043	2.04
487.241	2.09
487.44	2.09
487.639	2.11
487.838	2.1
488.037	2.09
488.235	2.19
488.434	2.15
488.633	2.04
488.831	2.16
489.03	2.2
489.229	2.25
489.427	2.22
489.626	2.24
489.825	2.26
490.023	2.28
490.222	2.24
490.42	2.31
490.619	2.36
490.817	2.34
491.016	2.38
491.214	2.36
491.413	2.38
491.611	2.34
491.81	2.36
492.008	2.43
492.207	2.52
492.405	2.49
492.604	2.42
492.802	2.55
493	2.58
493.199	2.61
493.397	2.6
493.595	2.68
493.794	2.66
493.992	2.77
494.19	2.67
494.388	2.81
494.587	2.73
494.785	2.74
494.983	2.68
495.181	2.81
495.379	2.9
495.578	2.95
495.776	2.94
495.974	2.93
496.172	2.95
496.37	3.06
496.568	3.07
496.766	3.07
496.964	3.17
497.162	3.15
497.36	3.2
497.558	3.22
497.756	3.3
497.954	3.3
498.152	3.34
498.35	3.42
498.548	3.36
498.746	3.38
498.944	3.39
499.142	3.45
499.34	3.51
499.538	3.63
499.736	3.55
499.933	3.6
500.131	3.62
500.329	3.75
500.527	3.75
500.725	3.83
500.922	3.84
501.12	3.84
501.318	3.94
501.516	3.93
501.713	4
501.911	3.97
502.109	3.97
502.306	4.07
502.504	4
502.701	4.07
