Data from Apollo_Calib_20240827__AbsoluteIrradiance__872__13-41-01-999.txt Node

Date: Wed Aug 28 13:41:01 BST 2024
User: biology
Spectrometer: FLMT08252
Trigger mode: 0
Integration Time (sec): 5.000000E-1
Scans to average: 5
Electric dark correction enabled: true
Nonlinearity correction enabled: false
Boxcar width: 0
XAxis mode: Wavelengths
Number of Pixels in Spectrum: 3648
>>>>>Begin Spectral Data<<<<<
179.588	-0
179.809	-0
180.03	-0
180.251	-0
180.473	-0
180.694	0
180.915	0
181.136	-0
181.357	-0
181.578	-0
181.799	0
182.02	-0
182.241	0
182.462	-0
182.683	0
182.904	-0
183.125	-0
183.346	0
183.567	0
183.788	0
184.009	0
184.23	0
184.451	0
184.672	0
184.892	0
185.113	0
185.334	0
185.555	0
185.776	0
185.996	0
186.217	0
186.438	0
186.659	0
186.879	0
187.1	0
187.321	0
187.541	0
187.762	0
187.983	0
188.203	0
188.424	0
188.644	0
188.865	0
189.086	0
189.306	0
189.527	0
189.747	0
189.968	0
190.188	0
190.409	0
190.629	0
190.849	0
191.07	0
191.29	0
191.511	0
191.731	0
191.951	0
192.172	0
192.392	0
192.612	0
192.833	0
193.053	0
193.273	0
193.493	0
193.714	0
193.934	0
194.154	0
194.374	0
194.594	0
194.815	0
195.035	0
195.255	0
195.475	0
195.695	0
195.915	0
196.135	0
196.355	0
196.575	0
196.795	0
197.015	0
197.235	0
197.455	0
197.675	0
197.895	0
198.115	0
198.335	0
198.555	0
198.775	0
198.995	0
199.214	0
199.434	0
199.654	0
199.874	0
200.094	4.16
200.313	2.97
200.533	1.95
200.753	2.03
200.973	4.71
201.192	2.76
201.412	1.47
201.632	2.12
201.851	3.58
202.071	2.46
202.291	1.75
202.51	1.54
202.73	2.71
202.95	1.44
203.169	1.42
203.389	1.92
203.608	1.69
203.828	1.89
204.047	1.2
204.267	2.23
204.486	2.05
204.706	2.49
204.925	1.56
205.145	1.22
205.364	2.4
205.583	2.79
205.803	1.16
206.022	1.16
206.242	1.66
206.461	1.88
206.68	1.04
206.9	1.68
207.119	2.56
207.338	2.25
207.557	1.38
207.777	1.04
207.996	1.4
208.215	2.28
208.434	1
208.654	0.8
208.873	1.57
209.092	2.03
209.311	1.28
209.53	0.95
209.749	1.22
209.968	1.22
210.187	1.07
210.407	0.51
210.626	1.31
210.845	1.71
211.064	1.24
211.283	0.75
211.502	1.53
211.721	1.18
211.94	0.94
212.159	1.18
212.377	1.56
212.596	1.5
212.815	1.15
213.034	1.26
213.253	1.29
213.472	1.25
213.691	1.06
213.91	0.66
214.128	0.75
214.347	1.62
214.566	0.48
214.785	0.7
215.003	1.22
215.222	1.43
215.441	1.04
215.66	0.57
215.878	1
216.097	1.25
216.316	0.73
216.534	0.8
216.753	1.05
216.972	0.87
217.19	0.89
217.409	0.68
217.627	0.76
217.846	0.91
218.064	0.99
218.283	0.72
218.501	1.38
218.72	1.15
218.938	0.52
219.157	0.77
219.375	1.09
219.594	1.16
219.812	0.63
220.031	0.53
220.249	1.36
220.467	1.18
220.686	0.59
220.904	0.6
221.122	0.66
221.341	1.11
221.559	0.86
221.777	0.34
221.995	0.86
222.214	0.84
222.432	0.58
222.65	0.79
222.868	0.69
223.086	0.84
223.305	0.87
223.523	0.77
223.741	1.23
223.959	0.74
224.177	0.31
224.395	0.43
224.613	0.79
224.831	1.14
225.049	0.41
225.267	0.69
225.485	0.8
225.703	0.54
225.921	0.5
226.139	0.55
226.357	0.71
226.575	0.91
226.793	0.57
227.011	1.83
227.229	0.74
227.447	0.94
227.665	0.49
227.883	0.36
228.1	0.56
228.318	0.74
228.536	0.17
228.754	0.45
228.972	0.86
229.189	0.93
229.407	0.55
229.625	0.65
229.843	0.85
230.06	0.91
230.278	0.55
230.496	0.59
230.713	0.61
230.931	0.84
231.149	0.52
231.366	0.28
231.584	0.69
231.801	1.02
232.019	0.47
232.236	0.28
232.454	0.38
232.671	0.74
232.889	0.6
233.106	0.41
233.324	0.63
233.541	0.58
233.759	0.52
233.976	0.37
234.194	0.62
234.411	0.4
234.628	0.48
234.846	0.54
235.063	0.55
235.28	0.59
235.498	0.48
235.715	0.4
235.932	0.82
236.149	0.55
236.367	0.32
236.584	0.51
236.801	0.58
237.018	0.71
237.236	0.43
237.453	0.36
237.67	0.73
237.887	0.48
238.104	0.48
238.321	0.33
238.538	0.38
238.755	0.69
238.973	0.37
239.19	0.39
239.407	0.6
239.624	0.63
239.841	0.4
240.058	0.33
240.275	0.55
240.492	0.56
240.709	0.45
240.925	0.47
241.142	0.58
241.359	0.4
241.576	0.3
241.793	0.35
242.01	0.55
242.227	0.62
242.444	0.46
242.66	0.63
242.877	0.57
243.094	0.48
243.311	0.52
243.527	0.42
243.744	0.54
243.961	0.68
244.178	0.35
244.394	0.4
244.611	0.6
244.828	0.69
245.044	0.33
245.261	0.38
245.477	0.45
245.694	0.71
245.911	0.36
246.127	0.46
246.344	0.59
246.56	0.52
246.777	0.36
246.993	0.41
247.21	0.49
247.426	0.43
247.643	0.35
247.859	0.46
248.076	0.36
248.292	0.73
248.508	0.38
248.725	0.52
248.941	0.47
249.157	0.61
249.374	0.35
249.59	0.44
249.806	0.46
250.023	0.52
250.239	0.3
250.455	0.36
250.671	0.47
250.888	0.5
251.104	0.45
251.32	0.27
251.536	0.46
251.752	0.33
251.969	0.43
252.185	0.36
252.401	0.73
252.617	0.51
252.833	0.34
253.049	0.43
253.265	0.41
253.481	0.4
253.697	0.3
253.913	0.31
254.129	0.51
254.345	0.45
254.561	0.34
254.777	0.35
254.993	0.47
255.209	0.47
255.425	0.33
255.641	0.32
255.857	0.56
256.073	0.44
256.288	0.22
256.504	0.32
256.72	0.48
256.936	0.59
257.152	0.38
257.367	0.31
257.583	0.39
257.799	0.58
258.015	0.26
258.23	0.38
258.446	0.66
258.662	0.38
258.877	0.27
259.093	0.27
259.309	0.45
259.524	0.47
259.74	0.3
259.955	0.25
260.171	0.41
260.387	0.47
260.602	0.45
260.818	0.44
261.033	0.29
261.249	0.47
261.464	0.3
261.68	0.23
261.895	0.44
262.11	0.45
262.326	0.29
262.541	0.22
262.757	0.53
262.972	0.44
263.187	0.46
263.403	0.34
263.618	0.52
263.833	0.41
264.049	0.3
264.264	0.36
264.479	0.37
264.694	0.56
264.91	0.27
265.125	0.38
265.34	0.49
265.555	0.6
265.77	0.39
265.986	0.29
266.201	0.45
266.416	0.53
266.631	0.27
266.846	0.31
267.061	0.45
267.276	0.49
267.491	0.17
267.706	0.36
267.921	0.45
268.136	0.46
268.351	0.34
268.566	0.27
268.781	0.48
268.996	0.52
269.211	0.31
269.426	0.26
269.641	0.32
269.856	0.44
270.071	0.26
270.285	0.26
270.5	0.43
270.715	0.44
270.93	0.27
271.145	0.34
271.359	0.43
271.574	0.38
271.789	0.37
272.004	0.35
272.218	0.29
272.433	0.38
272.648	0.28
272.862	0.41
273.077	0.38
273.292	0.36
273.506	0.25
273.721	0.32
273.936	0.41
274.15	0.43
274.365	0.26
274.579	0.37
274.794	0.43
275.008	0.38
275.223	0.22
275.437	0.29
275.652	0.46
275.866	0.43
276.081	0.35
276.295	0.36
276.509	0.37
276.724	0.38
276.938	0.36
277.153	0.39
277.367	0.35
277.581	0.27
277.796	0.22
278.01	0.26
278.224	0.45
278.438	0.48
278.653	0.25
278.867	0.28
279.081	0.35
279.295	0.3
279.51	0.33
279.724	0.2
279.938	0.4
280.152	0.43
280.366	0.31
280.58	0.32
280.794	0.45
281.008	0.44
281.222	0.38
281.437	0.49
281.651	0.33
281.865	0.46
282.079	0.29
282.293	0.16
282.507	0.26
282.721	0.31
282.935	0.28
283.148	0.19
283.362	0.27
283.576	0.22
283.79	0.3
284.004	0.28
284.218	0.44
284.432	0.3
284.646	0.32
284.859	0.25
285.073	0.28
285.287	0.36
285.501	0.34
285.714	0.29
285.928	0.33
286.142	0.33
286.356	0.26
286.569	0.31
286.783	0.43
286.997	0.4
287.21	0.3
287.424	0.21
287.637	0.33
287.851	0.23
288.065	0.34
288.278	0.31
288.492	0.33
288.705	0.27
288.919	0.33
289.132	0.16
289.346	0.35
289.559	0.19
289.773	0.25
289.986	0.26
290.2	0.28
290.413	0.33
290.626	0.27
290.84	0.25
291.053	0.32
291.267	0.42
291.48	0.33
291.693	0.27
291.906	0.23
292.12	0.3
292.333	0.23
292.546	0.22
292.76	0.39
292.973	0.33
293.186	0.33
293.399	0.3
293.612	0.37
293.826	0.27
294.039	0.31
294.252	0.26
294.465	0.36
294.678	0.27
294.891	0.28
295.104	0.23
295.317	0.25
295.53	0.33
295.743	0.32
295.956	0.25
296.169	0.35
296.382	0.36
296.595	0.23
296.808	0.22
297.021	0.34
297.234	0.32
297.447	0.28
297.66	0.28
297.873	0.35
298.086	0.39
298.299	0.25
298.511	0.18
298.724	0.3
298.937	0.25
299.15	0.27
299.363	0.27
299.575	0.33
299.788	0.3
300.001	0.22
300.213	0.21
300.426	0.27
300.639	0.24
300.852	0.24
301.064	0.35
301.277	0.38
301.489	0.33
301.702	0.32
301.915	0.2
302.127	0.29
302.34	0.31
302.552	0.28
302.765	0.24
302.977	0.4
303.19	0.21
303.402	0.22
303.615	0.21
303.827	0.23
304.04	0.27
304.252	0.31
304.464	0.21
304.677	0.38
304.889	0.35
305.102	0.24
305.314	0.19
305.526	0.33
305.739	0.31
305.951	0.25
306.163	0.26
306.375	0.37
306.588	0.25
306.8	0.2
307.012	0.22
307.224	0.31
307.436	0.38
307.649	0.22
307.861	0.24
308.073	0.32
308.285	0.24
308.497	0.2
308.709	0.23
308.921	0.28
309.133	0.32
309.346	0.22
309.558	0.25
309.77	0.32
309.982	0.34
310.194	0.25
310.406	0.25
310.617	0.39
310.829	0.28
311.041	0.33
311.253	0.19
311.465	0.23
311.677	0.27
311.889	0.26
312.101	0.2
312.313	0.3
312.524	0.36
312.736	0.16
312.948	0.23
313.16	0.34
313.372	0.31
313.583	0.3
313.795	0.26
314.007	0.24
314.218	0.35
314.43	0.25
314.642	0.25
314.853	0.18
315.065	0.31
315.277	0.27
315.488	0.27
315.7	0.34
315.912	0.31
316.123	0.26
316.335	0.24
316.546	0.41
316.758	0.26
316.969	0.21
317.181	0.27
317.392	0.28
317.604	0.34
317.815	0.2
318.026	0.26
318.238	0.28
318.449	0.26
318.661	0.21
318.872	0.19
319.083	0.22
319.295	0.31
319.506	0.22
319.717	0.26
319.929	0.36
320.14	0.26
320.351	0.26
320.562	0.23
320.774	0.3
320.985	0.3
321.196	0.19
321.407	0.18
321.618	0.32
321.829	0.29
322.041	0.29
322.252	0.24
322.463	0.29
322.674	0.32
322.885	0.17
323.096	0.24
323.307	0.26
323.518	0.26
323.729	0.22
323.94	0.26
324.151	0.23
324.362	0.25
324.573	0.26
324.784	0.27
324.995	0.29
325.206	0.31
325.417	0.25
325.628	0.28
325.838	0.28
326.049	0.25
326.26	0.28
326.471	0.2
326.682	0.3
326.892	0.26
327.103	0.19
327.314	0.26
327.525	0.35
327.735	0.32
327.946	0.23
328.157	0.17
328.368	0.32
328.578	0.25
328.789	0.3
328.999	0.28
329.21	0.3
329.421	0.34
329.631	0.21
329.842	0.17
330.052	0.3
330.263	0.34
330.473	0.28
330.684	0.24
330.894	0.26
331.105	0.3
331.315	0.3
331.526	0.15
331.736	0.34
331.947	0.34
332.157	0.28
332.367	0.2
332.578	0.28
332.788	0.38
332.999	0.3
333.209	0.26
333.419	0.16
333.629	0.32
333.84	0.28
334.05	0.26
334.26	0.36
334.47	0.24
334.681	0.32
334.891	0.23
335.101	0.31
335.311	0.41
335.521	0.27
335.732	0.21
335.942	0.3
336.152	0.28
336.362	0.27
336.572	0.24
336.782	0.33
336.992	0.23
337.202	0.24
337.412	0.19
337.622	0.28
337.832	0.26
338.042	0.23
338.252	0.21
338.462	0.25
338.672	0.33
338.882	0.28
339.092	0.3
339.302	0.34
339.511	0.28
339.721	0.24
339.931	0.21
340.141	0.33
340.351	0.3
340.561	0.3
340.77	0.27
340.98	0.34
341.19	0.31
341.4	0.26
341.609	0.2
341.819	0.25
342.029	0.17
342.238	0.23
342.448	0.2
342.658	0.27
342.867	0.23
343.077	0.27
343.286	0.26
343.496	0.29
343.706	0.35
343.915	0.21
344.125	0.24
344.334	0.28
344.544	0.23
344.753	0.21
344.963	0.22
345.172	0.23
345.381	0.26
345.591	0.19
345.8	0.27
346.01	0.34
346.219	0.34
346.428	0.17
346.638	0.27
346.847	0.25
347.056	0.37
347.266	0.24
347.475	0.25
347.684	0.35
347.893	0.37
348.103	0.27
348.312	0.25
348.521	0.29
348.73	0.27
348.94	0.28
349.149	0.23
349.358	0.24
349.567	0.25
349.776	0.19
349.985	0.22
350.194	0.29
350.403	0.32
350.612	0.2
350.821	0.19
351.03	0.27
351.239	0.23
351.448	0.28
351.657	0.24
351.866	0.31
352.075	0.25
352.284	0.31
352.493	0.22
352.702	0.32
352.911	0.33
353.12	0.23
353.329	0.23
353.538	0.27
353.746	0.26
353.955	0.2
354.164	0.3
354.373	0.25
354.582	0.34
354.79	0.24
354.999	0.29
355.208	0.28
355.416	0.37
355.625	0.21
355.834	0.22
356.042	0.31
356.251	0.21
356.46	0.2
356.668	0.29
356.877	0.37
357.085	0.34
357.294	0.18
357.503	0.31
357.711	0.26
357.92	0.45
358.128	0.26
358.337	0.18
358.545	0.29
358.754	0.23
358.962	0.32
359.17	0.24
359.379	0.29
359.587	0.26
359.796	0.23
360.004	0.32
360.212	0.32
360.421	0.35
360.629	0.26
360.837	0.21
361.046	0.34
361.254	0.46
361.462	0.26
361.67	0.25
361.879	0.3
362.087	0.36
362.295	0.26
362.503	0.25
362.711	0.2
362.92	0.22
363.128	0.2
363.336	0.22
363.544	0.17
363.752	0.25
363.96	0.2
364.168	0.18
364.376	0.25
364.584	0.28
364.792	0.3
365	0.24
365.208	0.28
365.416	0.31
365.624	0.35
365.832	0.24
366.04	0.34
366.248	0.29
366.456	0.24
366.664	0.28
366.872	0.27
367.079	0.25
367.287	0.24
367.495	0.25
367.703	0.21
367.911	0.23
368.118	0.25
368.326	0.26
368.534	0.21
368.742	0.34
368.949	0.19
369.157	0.19
369.365	0.3
369.572	0.23
369.78	0.19
369.988	0.3
370.195	0.29
370.403	0.31
370.61	0.23
370.818	0.22
371.026	0.37
371.233	0.25
371.441	0.26
371.648	0.24
371.856	0.27
372.063	0.27
372.271	0.21
372.478	0.26
372.685	0.23
372.893	0.33
373.1	0.23
373.308	0.24
373.515	0.38
373.722	0.32
373.93	0.27
374.137	0.29
374.344	0.34
374.552	0.33
374.759	0.28
374.966	0.27
375.173	0.27
375.381	0.34
375.588	0.25
375.795	0.23
376.002	0.26
376.209	0.21
376.417	0.27
376.624	0.26
376.831	0.27
377.038	0.25
377.245	0.17
377.452	0.23
377.659	0.27
377.866	0.25
378.073	0.23
378.28	0.28
378.487	0.35
378.694	0.34
378.901	0.24
379.108	0.25
379.315	0.35
379.522	0.37
379.729	0.3
379.936	0.27
380.143	0.27
380.35	0.31
380.557	0.26
380.763	0.2
380.97	0.32
381.177	0.28
381.384	0.28
381.591	0.19
381.797	0.32
382.004	0.33
382.211	0.29
382.418	0.2
382.624	0.3
382.831	0.33
383.038	0.24
383.244	0.32
383.451	0.31
383.658	0.33
383.864	0.24
384.071	0.27
384.277	0.38
384.484	0.27
384.69	0.35
384.897	0.24
385.103	0.27
385.31	0.25
385.516	0.24
385.723	0.24
385.929	0.31
386.136	0.3
386.342	0.33
386.549	0.28
386.755	0.33
386.961	0.33
387.168	0.3
387.374	0.27
387.58	0.29
387.787	0.32
387.993	0.31
388.199	0.3
388.406	0.25
388.612	0.26
388.818	0.23
389.024	0.27
389.231	0.33
389.437	0.38
389.643	0.29
389.849	0.25
390.055	0.28
390.261	0.27
390.467	0.3
390.674	0.27
390.88	0.31
391.086	0.33
391.292	0.23
391.498	0.35
391.704	0.35
391.91	0.33
392.116	0.28
392.322	0.23
392.528	0.32
392.734	0.29
392.94	0.31
393.146	0.34
393.352	0.37
393.557	0.31
393.763	0.32
393.969	0.35
394.175	0.33
394.381	0.31
394.587	0.29
394.792	0.29
394.998	0.4
395.204	0.38
395.41	0.3
395.615	0.34
395.821	0.38
396.027	0.36
396.233	0.27
396.438	0.4
396.644	0.42
396.85	0.33
397.055	0.33
397.261	0.31
397.466	0.33
397.672	0.35
397.878	0.38
398.083	0.4
398.289	0.34
398.494	0.39
398.7	0.41
398.905	0.27
399.111	0.45
399.316	0.3
399.522	0.34
399.727	0.37
399.932	0.36
400.138	0.34
400.343	0.39
400.549	0.33
400.754	0.44
400.959	0.39
401.165	0.37
401.37	0.35
401.575	0.52
401.78	0.36
401.986	0.36
402.191	0.35
402.396	0.37
402.601	0.4
402.807	0.44
403.012	0.42
403.217	0.46
403.422	0.42
403.627	0.4
403.832	0.4
404.037	0.49
404.243	0.45
404.448	0.39
404.653	0.43
404.858	0.46
405.063	0.45
405.268	0.42
405.473	0.38
405.678	0.44
405.883	0.71
406.088	0.51
406.293	0.4
406.498	0.48
406.703	0.57
406.907	0.5
407.112	0.43
407.317	0.57
407.522	0.6
407.727	0.55
407.932	0.55
408.136	0.68
408.341	0.58
408.546	0.56
408.751	0.58
408.956	0.63
409.16	0.72
409.365	0.64
409.57	0.59
409.774	0.65
409.979	0.69
410.184	0.73
410.388	0.67
410.593	0.78
410.798	0.77
411.002	0.74
411.207	0.82
411.411	0.8
411.616	0.75
411.82	0.85
412.025	0.87
412.229	0.87
412.434	1.02
412.638	0.92
412.843	0.91
413.047	1.02
413.252	0.98
413.456	1.04
413.66	1.05
413.865	1.05
414.069	1.14
414.273	1.12
414.478	1.15
414.682	1.21
414.886	1.32
415.091	1.21
415.295	1.26
415.499	1.45
415.703	1.37
415.908	1.49
416.112	1.41
416.316	1.61
416.52	1.58
416.724	1.6
416.929	1.61
417.133	1.96
417.337	1.79
417.541	1.88
417.745	1.86
417.949	2
418.153	2.08
418.357	2.07
418.561	2.29
418.765	2.29
418.969	2.42
419.173	2.5
419.377	2.49
419.581	2.78
419.785	2.71
419.989	2.7
420.193	2.89
420.397	2.97
420.601	3.1
420.804	3.24
421.008	3.16
421.212	3.36
421.416	3.4
421.62	3.36
421.823	3.38
422.027	3.61
422.231	3.59
422.435	3.62
422.638	3.66
422.842	3.77
423.046	3.87
423.249	4.03
423.453	4.03
423.657	4.27
423.86	4.36
424.064	4.51
424.268	4.59
424.471	4.5
424.675	4.85
424.878	4.9
425.082	4.95
425.285	5.33
425.489	5.18
425.692	5.44
425.896	5.35
426.099	5.6
426.303	5.82
426.506	5.82
426.71	6.17
426.913	6.26
427.116	6.59
427.32	6.47
427.523	6.48
427.726	6.86
427.93	6.97
428.133	7.29
428.336	7.46
428.54	7.51
428.743	7.79
428.946	8.11
429.149	8.01
429.353	8.05
429.556	8.2
429.759	8.13
429.962	8.3
430.165	8.45
430.368	8.11
430.571	8.22
430.775	8.24
430.978	8.21
431.181	8.25
431.384	8.38
431.587	8.4
431.79	8.83
431.993	8.71
432.196	9.07
432.399	9.59
432.602	9.6
432.805	9.73
433.008	10.21
433.211	10.11
433.414	10.45
433.616	10.52
433.819	10.3
434.022	10.56
434.225	10.76
434.428	10.76
434.631	11.25
434.833	10.95
435.036	11.21
435.239	11.39
435.442	11.58
435.645	11.71
435.847	11.66
436.05	12.1
436.253	12.21
436.455	12.21
436.658	12.2
436.861	12.49
437.063	12.54
437.266	12.52
437.468	12.92
437.671	13.25
437.874	13.26
438.076	13.17
438.279	13.72
438.481	13.72
438.684	14.52
438.886	14.03
439.089	14.32
439.291	14.28
439.494	14.66
439.696	14.91
439.899	15.51
440.101	15.83
440.303	16.03
440.506	16.76
440.708	16.51
440.91	16.68
441.113	16.78
441.315	17.02
441.517	16.85
441.72	17.44
441.922	16.92
442.124	16.92
442.326	17.33
442.529	17.65
442.731	17.61
442.933	17.87
443.135	17.66
443.337	17.6
443.539	18.25
443.742	17.8
443.944	18.54
444.146	18.22
444.348	18.19
444.55	18
444.752	18.34
444.954	18.31
445.156	18.16
445.358	18.59
445.56	18.63
445.762	18.76
445.964	18.93
446.166	18.64
446.368	18.67
446.57	18.73
446.772	18.24
446.974	18.04
447.175	18.38
447.377	18.08
447.579	18.34
447.781	17.98
447.983	17.79
448.184	17.44
448.386	17.8
448.588	17.35
448.79	17.13
448.991	17.41
449.193	17.46
449.395	16.66
449.597	16.39
449.798	16.22
450	15.83
450.202	15.72
450.403	15.73
450.605	15.72
450.806	15.23
451.008	15.1
451.21	14.91
451.411	14.43
451.613	13.66
451.814	13.93
452.016	13.84
452.217	13.14
452.419	13.32
452.62	12.75
452.821	12.56
453.023	12.51
453.224	12.11
453.426	11.71
453.627	11.02
453.828	11.22
454.03	11.29
454.231	11.09
454.432	10.98
454.634	10.76
454.835	10.45
455.036	10.36
455.238	9.92
455.439	9.7
455.64	9.35
455.841	9.31
456.042	9.48
456.244	9.13
456.445	8.83
456.646	8.45
456.847	8.45
457.048	8.35
457.249	8.42
457.45	8.18
457.651	7.62
457.852	7.49
458.054	7.24
458.255	7.08
458.456	7.18
458.657	7.12
458.858	6.59
459.058	6.6
459.259	6.65
459.46	6.3
459.661	6.42
459.862	6.38
460.063	6.31
460.264	6.27
460.465	5.9
460.666	6.02
460.866	5.67
461.067	5.44
461.268	5.43
461.469	5.32
461.67	5.27
461.87	5.16
462.071	5.1
462.272	5.03
462.473	4.98
462.673	5.21
462.874	5.07
463.075	5.07
463.275	4.99
463.476	5.1
463.676	5.03
463.877	4.87
464.078	4.82
464.278	4.9
464.479	4.81
464.679	4.68
464.88	4.66
465.08	4.64
465.281	4.52
465.481	4.2
465.682	4.05
465.882	4.11
466.083	4.06
466.283	3.94
466.483	3.9
466.684	3.66
466.884	3.54
467.085	3.62
467.285	3.8
467.485	3.56
467.686	3.54
467.886	3.35
468.086	3.4
468.286	3.25
468.487	3.4
468.687	3.19
468.887	3.15
469.087	3.28
469.287	3.17
469.488	3.02
469.688	3.13
469.888	3.21
470.088	3.1
470.288	3.02
470.488	3.02
470.688	2.79
470.888	2.8
471.088	2.63
471.288	2.83
471.488	2.72
471.688	2.73
471.888	2.64
472.088	2.86
472.288	2.63
472.488	2.57
472.688	2.59
472.888	2.57
473.088	2.56
473.288	2.46
473.488	2.43
473.688	2.6
473.887	2.47
474.087	2.38
474.287	2.4
474.487	2.3
474.687	2.42
474.886	2.36
475.086	2.29
475.286	2.31
475.486	2.22
475.685	2.23
475.885	2.22
476.085	2.32
476.284	2.29
476.484	2.24
476.684	2.21
476.883	2.28
477.083	2.15
477.282	2.1
477.482	2.17
477.681	2.15
477.881	2.08
478.08	2.08
478.28	2.02
478.479	2.12
478.679	2.21
478.878	2.01
479.078	2
479.277	2.05
479.477	2.06
479.676	2.04
479.875	1.99
480.075	1.9
480.274	2
480.473	2.04
480.673	2.04
480.872	2.06
481.071	2.01
481.271	2.01
481.47	1.96
481.669	1.94
481.868	1.99
482.067	1.95
482.267	1.89
482.466	1.92
482.665	1.96
482.864	1.91
483.063	1.93
483.262	2.02
483.461	2.08
483.661	2.06
483.86	1.98
484.059	2.04
484.258	2.05
484.457	2.02
484.656	2.02
484.855	2.08
485.054	1.94
485.253	1.97
485.452	1.96
485.651	2.06
485.849	2
486.048	1.98
486.247	2.06
486.446	2.13
486.645	2.03
486.844	2.04
487.043	2.02
487.241	2.11
487.44	2.03
487.639	2.16
487.838	2.12
488.037	2.09
488.235	2.27
488.434	2.18
488.633	2.05
488.831	2.21
489.03	2.22
489.229	2.25
489.427	2.19
489.626	2.28
489.825	2.26
490.023	2.36
490.222	2.29
490.42	2.29
490.619	2.38
490.817	2.38
491.016	2.34
491.214	2.44
491.413	2.42
491.611	2.35
491.81	2.38
492.008	2.42
492.207	2.59
492.405	2.53
492.604	2.45
492.802	2.56
493	2.6
493.199	2.63
493.397	2.64
493.595	2.7
493.794	2.66
493.992	2.78
494.19	2.72
494.388	2.81
494.587	2.75
494.785	2.78
494.983	2.7
495.181	2.88
495.379	2.95
495.578	3.02
495.776	2.97
495.974	2.93
496.172	2.98
496.37	3.09
496.568	3.13
496.766	3.08
496.964	3.19
497.162	3.18
497.36	3.18
497.558	3.21
497.756	3.34
497.954	3.28
498.152	3.42
498.35	3.45
498.548	3.37
498.746	3.44
498.944	3.45
499.142	3.44
499.34	3.52
499.538	3.63
499.736	3.54
499.933	3.63
500.131	3.68
500.329	3.79
500.527	3.79
500.725	3.88
500.922	3.85
501.12	3.91
501.318	3.94
501.516	3.92
501.713	4.05
501.911	4
502.109	3.95
502.306	4.12
502.504	3.98
502.701	4.13
