Data from Apollo_Calib_20240827__AbsoluteIrradiance__749__11-38-03-054.txt Node

Date: Wed Aug 28 11:38:03 BST 2024
User: biology
Spectrometer: FLMT08252
Trigger mode: 0
Integration Time (sec): 5.000000E-1
Scans to average: 5
Electric dark correction enabled: true
Nonlinearity correction enabled: false
Boxcar width: 0
XAxis mode: Wavelengths
Number of Pixels in Spectrum: 3648
>>>>>Begin Spectral Data<<<<<
179.588	-0
179.809	-0
180.03	-0
180.251	-0
180.473	-0
180.694	0
180.915	0
181.136	-0
181.357	0
181.578	-0
181.799	0
182.02	-0
182.241	-0
182.462	-0
182.683	0
182.904	-0
183.125	-0
183.346	0
183.567	0
183.788	0
184.009	0
184.23	0
184.451	0
184.672	0
184.892	0
185.113	0
185.334	0
185.555	0
185.776	0
185.996	0
186.217	0
186.438	0
186.659	0
186.879	0
187.1	0
187.321	0
187.541	0
187.762	0
187.983	0
188.203	0
188.424	0
188.644	0
188.865	0
189.086	0
189.306	0
189.527	0
189.747	0
189.968	0
190.188	0
190.409	0
190.629	0
190.849	0
191.07	0
191.29	0
191.511	0
191.731	0
191.951	0
192.172	0
192.392	0
192.612	0
192.833	0
193.053	0
193.273	0
193.493	0
193.714	0
193.934	0
194.154	0
194.374	0
194.594	0
194.815	0
195.035	0
195.255	0
195.475	0
195.695	0
195.915	0
196.135	0
196.355	0
196.575	0
196.795	0
197.015	0
197.235	0
197.455	0
197.675	0
197.895	0
198.115	0
198.335	0
198.555	0
198.775	0
198.995	0
199.214	0
199.434	0
199.654	0
199.874	0
200.094	2.56
200.313	1.68
200.533	1.26
200.753	0.67
200.973	2.33
201.192	2.19
201.412	0.92
201.632	1.4
201.851	2.31
202.071	0.67
202.291	0.64
202.51	0.99
202.73	1.93
202.95	1.2
203.169	0.42
203.389	1.07
203.608	1.28
203.828	1
204.047	1.33
204.267	1.48
204.486	1.17
204.706	1.53
204.925	1.05
205.145	0.78
205.364	1.35
205.583	2.04
205.803	0.52
206.022	0.43
206.242	0.92
206.461	0.87
206.68	0.48
206.9	0.98
207.119	1.2
207.338	1.57
207.557	0.91
207.777	0.52
207.996	0.77
208.215	1.28
208.434	0.77
208.654	0.3
208.873	0.88
209.092	1.56
209.311	0.69
209.53	0.63
209.749	0.62
209.968	0.66
210.187	0.52
210.407	0.4
210.626	0.68
210.845	1.13
211.064	0.72
211.283	0.41
211.502	1.1
211.721	0.51
211.94	0.43
212.159	1.03
212.377	0.98
212.596	1.12
212.815	0.57
213.034	0.71
213.253	0.97
213.472	0.93
213.691	0.64
213.91	0.42
214.128	0.59
214.347	1.17
214.566	0.14
214.785	0.27
215.003	0.82
215.222	0.83
215.441	0.36
215.66	0.3
215.878	0.71
216.097	0.87
216.316	0.27
216.534	0.5
216.753	0.62
216.972	0.67
217.19	0.55
217.409	0.37
217.627	0.47
217.846	0.51
218.064	0.55
218.283	0.37
218.501	0.97
218.72	0.85
218.938	0.28
219.157	0.46
219.375	0.76
219.594	0.76
219.812	0.32
220.031	0.3
220.249	0.77
220.467	0.99
220.686	0.38
220.904	0.42
221.122	0.38
221.341	0.75
221.559	0.48
221.777	0.27
221.995	0.39
222.214	0.72
222.432	0.24
222.65	0.61
222.868	0.56
223.086	0.58
223.305	0.58
223.523	0.34
223.741	0.73
223.959	0.3
224.177	0.18
224.395	0.34
224.613	0.45
224.831	0.64
225.049	0.21
225.267	0.32
225.485	0.34
225.703	0.37
225.921	0.3
226.139	0.25
226.357	0.65
226.575	0.48
226.793	0.31
227.011	1.01
227.229	0.51
227.447	0.5
227.665	0.33
227.883	0.11
228.1	0.48
228.318	0.54
228.536	0.14
228.754	0.33
228.972	0.37
229.189	0.57
229.407	0.36
229.625	0.44
229.843	0.49
230.06	0.52
230.278	0.34
230.496	0.4
230.713	0.45
230.931	0.56
231.149	0.2
231.366	0.1
231.584	0.4
231.801	0.66
232.019	0.3
232.236	0.15
232.454	0.19
232.671	0.49
232.889	0.35
233.106	0.27
233.324	0.37
233.541	0.29
233.759	0.29
233.976	0.28
234.194	0.29
234.411	0.37
234.628	0.22
234.846	0.25
235.063	0.33
235.28	0.3
235.498	0.37
235.715	0.26
235.932	0.42
236.149	0.22
236.367	0.17
236.584	0.31
236.801	0.26
237.018	0.43
237.236	0.24
237.453	0.18
237.67	0.48
237.887	0.35
238.104	0.3
238.321	0.13
238.538	0.27
238.755	0.49
238.973	0.19
239.19	0.34
239.407	0.42
239.624	0.34
239.841	0.2
240.058	0.17
240.275	0.36
240.492	0.28
240.709	0.25
240.925	0.23
241.142	0.27
241.359	0.2
241.576	0.22
241.793	0.27
242.01	0.4
242.227	0.55
242.444	0.4
242.66	0.47
242.877	0.33
243.094	0.22
243.311	0.26
243.527	0.28
243.744	0.38
243.961	0.34
244.178	0.23
244.394	0.24
244.611	0.4
244.828	0.5
245.044	0.19
245.261	0.2
245.477	0.28
245.694	0.32
245.911	0.25
246.127	0.32
246.344	0.39
246.56	0.43
246.777	0.19
246.993	0.26
247.21	0.36
247.426	0.29
247.643	0.29
247.859	0.17
248.076	0.25
248.292	0.46
248.508	0.22
248.725	0.26
248.941	0.27
249.157	0.4
249.374	0.15
249.59	0.28
249.806	0.3
250.023	0.46
250.239	0.17
250.455	0.21
250.671	0.24
250.888	0.32
251.104	0.35
251.32	0.2
251.536	0.28
251.752	0.23
251.969	0.3
252.185	0.27
252.401	0.51
252.617	0.21
252.833	0.19
253.049	0.32
253.265	0.26
253.481	0.29
253.697	0.15
253.913	0.19
254.129	0.32
254.345	0.29
254.561	0.22
254.777	0.14
254.993	0.32
255.209	0.31
255.425	0.24
255.641	0.19
255.857	0.39
256.073	0.21
256.288	0.13
256.504	0.22
256.72	0.36
256.936	0.41
257.152	0.21
257.367	0.14
257.583	0.27
257.799	0.27
258.015	0.18
258.23	0.18
258.446	0.38
258.662	0.22
258.877	0.22
259.093	0.14
259.309	0.26
259.524	0.34
259.74	0.18
259.955	0.11
260.171	0.33
260.387	0.22
260.602	0.32
260.818	0.29
261.033	0.12
261.249	0.16
261.464	0.18
261.68	0.09
261.895	0.27
262.11	0.3
262.326	0.19
262.541	0.07
262.757	0.34
262.972	0.28
263.187	0.24
263.403	0.22
263.618	0.31
263.833	0.29
264.049	0.18
264.264	0.24
264.479	0.23
264.694	0.34
264.91	0.12
265.125	0.23
265.34	0.31
265.555	0.43
265.77	0.23
265.986	0.16
266.201	0.27
266.416	0.29
266.631	0.19
266.846	0.21
267.061	0.26
267.276	0.28
267.491	0.05
267.706	0.26
267.921	0.27
268.136	0.24
268.351	0.2
268.566	0.1
268.781	0.27
268.996	0.28
269.211	0.26
269.426	0.21
269.641	0.2
269.856	0.32
270.071	0.18
270.285	0.14
270.5	0.28
270.715	0.26
270.93	0.17
271.145	0.2
271.359	0.32
271.574	0.11
271.789	0.16
272.004	0.14
272.218	0.21
272.433	0.32
272.648	0.15
272.862	0.32
273.077	0.16
273.292	0.26
273.506	0.21
273.721	0.23
273.936	0.28
274.15	0.3
274.365	0.1
274.579	0.24
274.794	0.29
275.008	0.27
275.223	0.09
275.437	0.17
275.652	0.23
275.866	0.24
276.081	0.2
276.295	0.31
276.509	0.17
276.724	0.21
276.938	0.2
277.153	0.28
277.367	0.27
277.581	0.2
277.796	0.16
278.01	0.19
278.224	0.24
278.438	0.32
278.653	0.12
278.867	0.13
279.081	0.23
279.295	0.21
279.51	0.23
279.724	0.09
279.938	0.21
280.152	0.19
280.366	0.19
280.58	0.18
280.794	0.27
281.008	0.22
281.222	0.24
281.437	0.36
281.651	0.23
281.865	0.28
282.079	0.16
282.293	0.05
282.507	0.09
282.721	0.21
282.935	0.17
283.148	0.1
283.362	0.19
283.576	0.15
283.79	0.21
284.004	0.15
284.218	0.28
284.432	0.15
284.646	0.21
284.859	0.19
285.073	0.17
285.287	0.23
285.501	0.19
285.714	0.19
285.928	0.19
286.142	0.21
286.356	0.18
286.569	0.14
286.783	0.26
286.997	0.27
287.21	0.17
287.424	0.16
287.637	0.14
287.851	0.16
288.065	0.21
288.278	0.15
288.492	0.24
288.705	0.14
288.919	0.2
289.132	0.08
289.346	0.21
289.559	0.12
289.773	0.1
289.986	0.17
290.2	0.17
290.413	0.27
290.626	0.14
290.84	0.18
291.053	0.18
291.267	0.27
291.48	0.14
291.693	0.14
291.906	0.1
292.12	0.17
292.333	0.14
292.546	0.17
292.76	0.23
292.973	0.22
293.186	0.27
293.399	0.1
293.612	0.2
293.826	0.17
294.039	0.17
294.252	0.16
294.465	0.18
294.678	0.18
294.891	0.18
295.104	0.14
295.317	0.18
295.53	0.16
295.743	0.15
295.956	0.17
296.169	0.26
296.382	0.22
296.595	0.17
296.808	0.14
297.021	0.2
297.234	0.21
297.447	0.17
297.66	0.2
297.873	0.24
298.086	0.22
298.299	0.12
298.511	0.09
298.724	0.14
298.937	0.14
299.15	0.12
299.363	0.16
299.575	0.22
299.788	0.16
300.001	0.15
300.213	0.15
300.426	0.19
300.639	0.2
300.852	0.16
301.064	0.18
301.277	0.29
301.489	0.17
301.702	0.21
301.915	0.18
302.127	0.19
302.34	0.18
302.552	0.19
302.765	0.12
302.977	0.21
303.19	0.17
303.402	0.16
303.615	0.1
303.827	0.2
304.04	0.14
304.252	0.21
304.464	0.16
304.677	0.29
304.889	0.19
305.102	0.15
305.314	0.17
305.526	0.2
305.739	0.21
305.951	0.13
306.163	0.16
306.375	0.23
306.588	0.18
306.8	0.17
307.012	0.1
307.224	0.18
307.436	0.23
307.649	0.1
307.861	0.17
308.073	0.21
308.285	0.15
308.497	0.17
308.709	0.17
308.921	0.19
309.133	0.23
309.346	0.12
309.558	0.17
309.77	0.24
309.982	0.21
310.194	0.23
310.406	0.14
310.617	0.24
310.829	0.18
311.041	0.19
311.253	0.15
311.465	0.17
311.677	0.14
311.889	0.15
312.101	0.11
312.313	0.24
312.524	0.24
312.736	0.1
312.948	0.13
313.16	0.21
313.372	0.19
313.583	0.18
313.795	0.16
314.007	0.14
314.218	0.21
314.43	0.19
314.642	0.12
314.853	0.1
315.065	0.25
315.277	0.17
315.488	0.17
315.7	0.24
315.912	0.24
316.123	0.11
316.335	0.17
316.546	0.27
316.758	0.15
316.969	0.16
317.181	0.16
317.392	0.17
317.604	0.16
317.815	0.14
318.026	0.11
318.238	0.16
318.449	0.21
318.661	0.06
318.872	0.09
319.083	0.15
319.295	0.19
319.506	0.09
319.717	0.21
319.929	0.23
320.14	0.2
320.351	0.22
320.562	0.16
320.774	0.19
320.985	0.19
321.196	0.1
321.407	0.1
321.618	0.22
321.829	0.19
322.041	0.19
322.252	0.15
322.463	0.21
322.674	0.16
322.885	0.1
323.096	0.19
323.307	0.16
323.518	0.15
323.729	0.15
323.94	0.13
324.151	0.18
324.362	0.16
324.573	0.2
324.784	0.14
324.995	0.22
325.206	0.2
325.417	0.14
325.628	0.14
325.838	0.15
326.049	0.17
326.26	0.25
326.471	0.11
326.682	0.19
326.892	0.16
327.103	0.11
327.314	0.16
327.525	0.21
327.735	0.21
327.946	0.14
328.157	0.1
328.368	0.18
328.578	0.14
328.789	0.16
328.999	0.19
329.21	0.2
329.421	0.23
329.631	0.17
329.842	0.12
330.052	0.14
330.263	0.17
330.473	0.19
330.684	0.17
330.894	0.13
331.105	0.17
331.315	0.17
331.526	0.1
331.736	0.24
331.947	0.18
332.157	0.18
332.367	0.11
332.578	0.19
332.788	0.22
332.999	0.21
333.209	0.2
333.419	0.14
333.629	0.22
333.84	0.22
334.05	0.13
334.26	0.22
334.47	0.11
334.681	0.21
334.891	0.11
335.101	0.14
335.311	0.24
335.521	0.18
335.732	0.12
335.942	0.24
336.152	0.15
336.362	0.18
336.572	0.19
336.782	0.21
336.992	0.14
337.202	0.14
337.412	0.14
337.622	0.19
337.832	0.16
338.042	0.13
338.252	0.13
338.462	0.18
338.672	0.16
338.882	0.11
339.092	0.18
339.302	0.22
339.511	0.23
339.721	0.12
339.931	0.07
340.141	0.21
340.351	0.22
340.561	0.18
340.77	0.17
340.98	0.19
341.19	0.18
341.4	0.15
341.609	0.06
341.819	0.14
342.029	0.1
342.238	0.17
342.448	0.14
342.658	0.23
342.867	0.18
343.077	0.15
343.286	0.19
343.496	0.15
343.706	0.22
343.915	0.1
344.125	0.15
344.334	0.24
344.544	0.07
344.753	0.11
344.963	0.15
345.172	0.12
345.381	0.17
345.591	0.12
345.8	0.13
346.01	0.19
346.219	0.25
346.428	0.02
346.638	0.15
346.847	0.16
347.056	0.23
347.266	0.12
347.475	0.13
347.684	0.2
347.893	0.16
348.103	0.2
348.312	0.15
348.521	0.15
348.73	0.19
348.94	0.18
349.149	0.18
349.358	0.17
349.567	0.13
349.776	0.08
349.985	0.14
350.194	0.24
350.403	0.18
350.612	0.15
350.821	0.15
351.03	0.17
351.239	0.12
351.448	0.14
351.657	0.14
351.866	0.24
352.075	0.14
352.284	0.21
352.493	0.08
352.702	0.19
352.911	0.19
353.12	0.2
353.329	0.16
353.538	0.19
353.746	0.15
353.955	0.13
354.164	0.17
354.373	0.17
354.582	0.18
354.79	0.13
354.999	0.15
355.208	0.18
355.416	0.22
355.625	0.11
355.834	0.13
356.042	0.16
356.251	0.14
356.46	0.07
356.668	0.2
356.877	0.27
357.085	0.16
357.294	0.04
357.503	0.19
357.711	0.15
357.92	0.3
358.128	0.2
358.337	0.13
358.545	0.19
358.754	0.1
358.962	0.22
359.17	0.15
359.379	0.19
359.587	0.16
359.796	0.13
360.004	0.24
360.212	0.18
360.421	0.23
360.629	0.12
360.837	0.15
361.046	0.2
361.254	0.3
361.462	0.19
361.67	0.17
361.879	0.15
362.087	0.22
362.295	0.17
362.503	0.16
362.711	0.1
362.92	0.14
363.128	0.13
363.336	0.12
363.544	0.12
363.752	0.15
363.96	0.15
364.168	0.14
364.376	0.17
364.584	0.19
364.792	0.22
365	0.21
365.208	0.19
365.416	0.18
365.624	0.24
365.832	0.14
366.04	0.24
366.248	0.2
366.456	0.16
366.664	0.14
366.872	0.13
367.079	0.16
367.287	0.1
367.495	0.2
367.703	0.14
367.911	0.14
368.118	0.16
368.326	0.18
368.534	0.14
368.742	0.23
368.949	0.09
369.157	0.14
369.365	0.18
369.572	0.19
369.78	0.13
369.988	0.19
370.195	0.17
370.403	0.23
370.61	0.14
370.818	0.15
371.026	0.28
371.233	0.13
371.441	0.16
371.648	0.12
371.856	0.2
372.063	0.16
372.271	0.16
372.478	0.13
372.685	0.18
372.893	0.19
373.1	0.14
373.308	0.13
373.515	0.26
373.722	0.18
373.93	0.14
374.137	0.16
374.344	0.24
374.552	0.24
374.759	0.2
374.966	0.15
375.173	0.14
375.381	0.28
375.588	0.16
375.795	0.1
376.002	0.16
376.209	0.12
376.417	0.11
376.624	0.15
376.831	0.18
377.038	0.18
377.245	0.08
377.452	0.12
377.659	0.22
377.866	0.16
378.073	0.15
378.28	0.15
378.487	0.21
378.694	0.17
378.901	0.15
379.108	0.14
379.315	0.2
379.522	0.26
379.729	0.17
379.936	0.14
380.143	0.16
380.35	0.18
380.557	0.16
380.763	0.17
380.97	0.2
381.177	0.21
381.384	0.2
381.591	0.14
381.797	0.2
382.004	0.23
382.211	0.18
382.418	0.13
382.624	0.21
382.831	0.2
383.038	0.13
383.244	0.17
383.451	0.2
383.658	0.22
383.864	0.13
384.071	0.12
384.277	0.28
384.484	0.19
384.69	0.23
384.897	0.15
385.103	0.18
385.31	0.13
385.516	0.13
385.723	0.12
385.929	0.18
386.136	0.13
386.342	0.21
386.549	0.15
386.755	0.24
386.961	0.21
387.168	0.16
387.374	0.19
387.58	0.26
387.787	0.16
387.993	0.17
388.199	0.19
388.406	0.16
388.612	0.2
388.818	0.17
389.024	0.17
389.231	0.18
389.437	0.25
389.643	0.23
389.849	0.19
390.055	0.23
390.261	0.19
390.467	0.18
390.674	0.16
390.88	0.19
391.086	0.2
391.292	0.13
391.498	0.18
391.704	0.23
391.91	0.17
392.116	0.13
392.322	0.13
392.528	0.2
392.734	0.19
392.94	0.19
393.146	0.17
393.352	0.16
393.557	0.18
393.763	0.19
393.969	0.26
394.175	0.2
394.381	0.23
394.587	0.14
394.792	0.18
394.998	0.25
395.204	0.27
395.41	0.15
395.615	0.21
395.821	0.19
396.027	0.21
396.233	0.18
396.438	0.24
396.644	0.26
396.85	0.18
397.055	0.2
397.261	0.18
397.466	0.32
397.672	0.19
397.878	0.24
398.083	0.22
398.289	0.18
398.494	0.29
398.7	0.27
398.905	0.15
399.111	0.27
399.316	0.11
399.522	0.21
399.727	0.2
399.932	0.23
400.138	0.2
400.343	0.26
400.549	0.22
400.754	0.24
400.959	0.24
401.165	0.19
401.37	0.25
401.575	0.18
401.78	0.24
401.986	0.26
402.191	0.24
402.396	0.28
402.601	0.28
402.807	0.26
403.012	0.22
403.217	0.37
403.422	0.24
403.627	0.24
403.832	0.23
404.037	0.31
404.243	0.28
404.448	0.26
404.653	0.24
404.858	0.31
405.063	0.32
405.268	0.26
405.473	0.25
405.678	0.28
405.883	0.48
406.088	0.34
406.293	0.27
406.498	0.26
406.703	0.37
406.907	0.3
407.112	0.31
407.317	0.31
407.522	0.38
407.727	0.31
407.932	0.3
408.136	0.46
408.341	0.35
408.546	0.34
408.751	0.38
408.956	0.38
409.16	0.42
409.365	0.41
409.57	0.41
409.774	0.4
409.979	0.49
410.184	0.47
410.388	0.38
410.593	0.51
410.798	0.48
411.002	0.47
411.207	0.51
411.411	0.49
411.616	0.52
411.82	0.58
412.025	0.57
412.229	0.5
412.434	0.65
412.638	0.6
412.843	0.61
413.047	0.64
413.252	0.59
413.456	0.63
413.66	0.69
413.865	0.66
414.069	0.77
414.273	0.75
414.478	0.72
414.682	0.79
414.886	0.83
415.091	0.75
415.295	0.8
415.499	0.96
415.703	0.87
415.908	1
416.112	0.89
416.316	1.08
416.52	1.08
416.724	1.05
416.929	1.05
417.133	1.31
417.337	1.15
417.541	1.18
417.745	1.2
417.949	1.38
418.153	1.36
418.357	1.33
418.561	1.5
418.765	1.53
418.969	1.64
419.173	1.69
419.377	1.67
419.581	1.89
419.785	1.76
419.989	1.77
420.193	1.87
420.397	1.98
420.601	2.12
420.804	2.16
421.008	2.19
421.212	2.25
421.416	2.32
421.62	2.32
421.823	2.32
422.027	2.49
422.231	2.47
422.435	2.46
422.638	2.48
422.842	2.57
423.046	2.52
423.249	2.7
423.453	2.77
423.657	2.84
423.86	2.91
424.064	3.05
424.268	3.09
424.471	3.16
424.675	3.32
424.878	3.35
425.082	3.42
425.285	3.69
425.489	3.6
425.692	3.61
425.896	3.65
426.099	3.84
426.303	3.88
426.506	3.99
426.71	4.21
426.913	4.35
427.116	4.4
427.32	4.37
427.523	4.53
427.726	4.75
427.93	4.69
428.133	4.91
428.336	5.06
428.54	5.15
428.743	5.39
428.946	5.41
429.149	5.38
429.353	5.42
429.556	5.56
429.759	5.56
429.962	5.6
430.165	5.74
430.368	5.48
430.571	5.54
430.775	5.53
430.978	5.5
431.181	5.55
431.384	5.62
431.587	5.66
431.79	6.04
431.993	5.92
432.196	6.06
432.399	6.34
432.602	6.48
432.805	6.51
433.008	6.93
433.211	6.75
433.414	7.01
433.616	7
433.819	6.98
434.022	7.08
434.225	7.3
434.428	7.29
434.631	7.54
434.833	7.4
435.036	7.54
435.239	7.73
435.442	7.68
435.645	7.8
435.847	7.94
436.05	8.15
436.253	8.22
436.455	8.32
436.658	8.24
436.861	8.44
437.063	8.5
437.266	8.44
437.468	8.78
437.671	9.04
437.874	9.07
438.076	8.96
438.279	9.21
438.481	9.27
438.684	9.89
438.886	9.52
439.089	9.69
439.291	9.74
439.494	10.09
439.696	10.11
439.899	10.58
440.101	10.92
440.303	11.03
440.506	11.51
440.708	11.27
440.91	11.54
441.113	11.69
441.315	11.93
441.517	11.67
441.72	12.05
441.922	11.88
442.124	11.81
442.326	12.09
442.529	12.29
442.731	12.26
442.933	12.49
443.135	12.34
443.337	12.35
443.539	12.73
443.742	12.57
443.944	13.09
444.146	12.86
444.348	12.81
444.55	12.75
444.752	13
444.954	12.9
445.156	12.83
445.358	13.1
445.56	13.33
445.762	13.3
445.964	13.52
446.166	13.26
446.368	13.2
446.57	13.33
446.772	13.01
446.974	12.78
447.175	13.04
447.377	12.9
447.579	13.12
447.781	13.01
447.983	12.79
448.184	12.43
448.386	12.69
448.588	12.31
448.79	12.29
448.991	12.58
449.193	12.46
449.395	11.97
449.597	11.79
449.798	11.75
450	11.31
450.202	11.26
450.403	11.22
450.605	11.25
450.806	10.94
451.008	10.78
451.21	10.72
451.411	10.26
451.613	9.85
451.814	9.92
452.016	9.91
452.217	9.37
452.419	9.44
452.62	9.09
452.821	8.96
453.023	8.94
453.224	8.53
453.426	8.24
453.627	7.85
453.828	7.94
454.03	7.84
454.231	7.74
454.432	7.71
454.634	7.48
454.835	7.28
455.036	7.21
455.238	6.92
455.439	6.79
455.64	6.53
455.841	6.39
456.042	6.54
456.244	6.36
456.445	6.11
456.646	5.79
456.847	5.7
457.048	5.82
457.249	5.8
457.45	5.72
457.651	5.29
457.852	5.18
458.054	4.93
458.255	4.89
458.456	4.92
458.657	4.88
458.858	4.57
459.058	4.52
459.259	4.58
459.46	4.35
459.661	4.39
459.862	4.37
460.063	4.35
460.264	4.25
460.465	3.98
460.666	4.2
460.866	3.94
461.067	3.77
461.268	3.72
461.469	3.7
461.67	3.64
461.87	3.55
462.071	3.55
462.272	3.46
462.473	3.52
462.673	3.5
462.874	3.51
463.075	3.55
463.275	3.35
463.476	3.52
463.676	3.45
463.877	3.35
464.078	3.36
464.278	3.4
464.479	3.29
464.679	3.15
464.88	3.19
465.08	3.11
465.281	3.08
465.481	2.92
465.682	2.88
465.882	2.82
466.083	2.81
466.283	2.66
466.483	2.68
466.684	2.52
466.884	2.39
467.085	2.47
467.285	2.47
467.485	2.34
467.686	2.38
467.886	2.24
468.086	2.22
468.286	2.23
468.487	2.28
468.687	2.17
468.887	2.17
469.087	2.25
469.287	2.19
469.488	2.04
469.688	2.18
469.888	2.13
470.088	2.14
470.288	2.05
470.488	2.04
470.688	1.91
470.888	1.89
471.088	1.81
471.288	1.85
471.488	1.87
471.688	1.81
471.888	1.74
472.088	1.91
472.288	1.84
472.488	1.79
472.688	1.71
472.888	1.71
473.088	1.71
473.288	1.63
473.488	1.66
473.688	1.75
473.887	1.66
474.087	1.56
474.287	1.63
474.487	1.57
474.687	1.64
474.886	1.51
475.086	1.53
475.286	1.52
475.486	1.47
475.685	1.5
475.885	1.44
476.085	1.53
476.284	1.51
476.484	1.5
476.684	1.48
476.883	1.56
477.083	1.47
477.282	1.39
477.482	1.46
477.681	1.44
477.881	1.36
478.08	1.37
478.28	1.37
478.479	1.43
478.679	1.42
478.878	1.35
479.078	1.36
479.277	1.4
479.477	1.38
479.676	1.34
479.875	1.35
480.075	1.3
480.274	1.35
480.473	1.39
480.673	1.32
480.872	1.4
481.071	1.37
481.271	1.35
481.47	1.34
481.669	1.36
481.868	1.33
482.067	1.33
482.267	1.3
482.466	1.26
482.665	1.25
482.864	1.3
483.063	1.27
483.262	1.36
483.461	1.39
483.661	1.4
483.86	1.35
484.059	1.39
484.258	1.34
484.457	1.34
484.656	1.34
484.855	1.38
485.054	1.24
485.253	1.34
485.452	1.32
485.651	1.4
485.849	1.36
486.048	1.34
486.247	1.39
486.446	1.41
486.645	1.34
486.844	1.38
487.043	1.36
487.241	1.43
487.44	1.42
487.639	1.42
487.838	1.46
488.037	1.42
488.235	1.52
488.434	1.45
488.633	1.37
488.831	1.53
489.03	1.5
489.229	1.51
489.427	1.51
489.626	1.52
489.825	1.52
490.023	1.55
490.222	1.55
490.42	1.62
490.619	1.63
490.817	1.6
491.016	1.6
491.214	1.68
491.413	1.65
491.611	1.6
491.81	1.63
492.008	1.68
492.207	1.77
492.405	1.77
492.604	1.66
492.802	1.73
493	1.78
493.199	1.81
493.397	1.86
493.595	1.88
493.794	1.85
493.992	1.96
494.19	1.89
494.388	1.96
494.587	1.89
494.785	1.93
494.983	1.89
495.181	1.98
495.379	2.01
495.578	2.04
495.776	2.08
495.974	2.05
496.172	2.04
496.37	2.16
496.568	2.18
496.766	2.12
496.964	2.24
497.162	2.2
497.36	2.24
497.558	2.27
497.756	2.32
497.954	2.3
498.152	2.35
498.35	2.4
498.548	2.32
498.746	2.4
498.944	2.39
499.142	2.42
499.34	2.49
499.538	2.54
499.736	2.46
499.933	2.58
500.131	2.56
500.329	2.69
500.527	2.68
500.725	2.76
500.922	2.7
501.12	2.72
501.318	2.8
501.516	2.77
501.713	2.86
501.911	2.86
502.109	2.8
502.306	2.92
502.504	2.81
502.701	2.9
502.899	2.91
503.097	3.1
503.294	2.98
503.492	3.06
