Data from Apollo_Calib_20240827__AbsoluteIrradiance__770__11-59-00-606.txt Node

Date: Wed Aug 28 11:59:00 BST 2024
User: biology
Spectrometer: FLMT08252
Trigger mode: 0
Integration Time (sec): 5.000000E-1
Scans to average: 5
Electric dark correction enabled: true
Nonlinearity correction enabled: false
Boxcar width: 0
XAxis mode: Wavelengths
Number of Pixels in Spectrum: 3648
>>>>>Begin Spectral Data<<<<<
179.588	-0
179.809	-0
180.03	-0
180.251	-0
180.473	-0
180.694	0
180.915	0
181.136	-0
181.357	0
181.578	-0
181.799	-0
182.02	-0
182.241	0
182.462	-0
182.683	0
182.904	-0
183.125	-0
183.346	0
183.567	0
183.788	0
184.009	0
184.23	0
184.451	0
184.672	0
184.892	0
185.113	0
185.334	0
185.555	0
185.776	0
185.996	0
186.217	0
186.438	0
186.659	0
186.879	0
187.1	0
187.321	0
187.541	0
187.762	0
187.983	0
188.203	0
188.424	0
188.644	0
188.865	0
189.086	0
189.306	0
189.527	0
189.747	0
189.968	0
190.188	0
190.409	0
190.629	0
190.849	0
191.07	0
191.29	0
191.511	0
191.731	0
191.951	0
192.172	0
192.392	0
192.612	0
192.833	0
193.053	0
193.273	0
193.493	0
193.714	0
193.934	0
194.154	0
194.374	0
194.594	0
194.815	0
195.035	0
195.255	0
195.475	0
195.695	0
195.915	0
196.135	0
196.355	0
196.575	0
196.795	0
197.015	0
197.235	0
197.455	0
197.675	0
197.895	0
198.115	0
198.335	0
198.555	0
198.775	0
198.995	0
199.214	0
199.434	0
199.654	0
199.874	0
200.094	4.01
200.313	2.71
200.533	2.21
200.753	1.81
200.973	4.01
201.192	3.77
201.412	1.49
201.632	1.85
201.851	2.92
202.071	2.13
202.291	1.76
202.51	1.67
202.73	2.6
202.95	1.7
203.169	1.25
203.389	2
203.608	2.02
203.828	2
204.047	1.56
204.267	2.33
204.486	2.01
204.706	2.33
204.925	1.77
205.145	1.39
205.364	2.61
205.583	2.35
205.803	1.57
206.022	1.15
206.242	1.65
206.461	1.7
206.68	1.29
206.9	1.46
207.119	2.49
207.338	2.61
207.557	1.13
207.777	1.42
207.996	1.11
208.215	1.77
208.434	1.32
208.654	0.83
208.873	1.62
209.092	2.32
209.311	1.26
209.53	1.2
209.749	1.13
209.968	1.18
210.187	0.86
210.407	0.74
210.626	1.4
210.845	1.49
211.064	1.11
211.283	0.85
211.502	1.69
211.721	1.19
211.94	0.97
212.159	1.23
212.377	1.45
212.596	1.54
212.815	1.37
213.034	1.1
213.253	1.46
213.472	1.5
213.691	0.96
213.91	0.95
214.128	0.9
214.347	1.52
214.566	0.63
214.785	0.62
215.003	1.31
215.222	1.09
215.441	1.02
215.66	0.61
215.878	1.05
216.097	1.27
216.316	0.75
216.534	0.82
216.753	1.17
216.972	0.88
217.19	0.95
217.409	0.87
217.627	0.75
217.846	0.64
218.064	0.91
218.283	0.65
218.501	1.27
218.72	1.18
218.938	0.56
219.157	0.57
219.375	1.08
219.594	1.06
219.812	0.61
220.031	0.64
220.249	1.23
220.467	1.25
220.686	0.79
220.904	0.52
221.122	0.71
221.341	1.21
221.559	0.82
221.777	0.5
221.995	0.76
222.214	1.14
222.432	0.7
222.65	0.98
222.868	0.87
223.086	1
223.305	0.9
223.523	0.72
223.741	1.19
223.959	0.64
224.177	0.34
224.395	0.51
224.613	0.88
224.831	0.86
225.049	0.53
225.267	0.62
225.485	0.75
225.703	0.68
225.921	0.76
226.139	0.66
226.357	0.78
226.575	0.76
226.793	0.59
227.011	1.56
227.229	0.77
227.447	0.84
227.665	0.59
227.883	0.23
228.1	0.73
228.318	0.85
228.536	0.31
228.754	0.45
228.972	0.69
229.189	0.78
229.407	0.47
229.625	0.49
229.843	0.79
230.06	0.84
230.278	0.45
230.496	0.53
230.713	0.77
230.931	0.78
231.149	0.48
231.366	0.36
231.584	0.59
231.801	1.03
232.019	0.49
232.236	0.38
232.454	0.58
232.671	0.62
232.889	0.54
233.106	0.4
233.324	0.67
233.541	0.56
233.759	0.55
233.976	0.47
234.194	0.46
234.411	0.66
234.628	0.36
234.846	0.52
235.063	0.55
235.28	0.55
235.498	0.55
235.715	0.35
235.932	0.7
236.149	0.61
236.367	0.44
236.584	0.64
236.801	0.55
237.018	0.64
237.236	0.43
237.453	0.27
237.67	0.75
237.887	0.48
238.104	0.51
238.321	0.45
238.538	0.45
238.755	0.72
238.973	0.31
239.19	0.46
239.407	0.61
239.624	0.58
239.841	0.31
240.058	0.39
240.275	0.51
240.492	0.44
240.709	0.55
240.925	0.43
241.142	0.53
241.359	0.35
241.576	0.34
241.793	0.38
242.01	0.41
242.227	0.67
242.444	0.59
242.66	0.58
242.877	0.5
243.094	0.49
243.311	0.44
243.527	0.43
243.744	0.54
243.961	0.57
244.178	0.32
244.394	0.42
244.611	0.56
244.828	0.75
245.044	0.34
245.261	0.36
245.477	0.53
245.694	0.44
245.911	0.37
246.127	0.57
246.344	0.71
246.56	0.53
246.777	0.37
246.993	0.4
247.21	0.5
247.426	0.54
247.643	0.37
247.859	0.33
248.076	0.42
248.292	0.69
248.508	0.33
248.725	0.48
248.941	0.48
249.157	0.56
249.374	0.4
249.59	0.35
249.806	0.35
250.023	0.63
250.239	0.42
250.455	0.3
250.671	0.4
250.888	0.49
251.104	0.48
251.32	0.32
251.536	0.42
251.752	0.38
251.969	0.4
252.185	0.42
252.401	0.58
252.617	0.43
252.833	0.36
253.049	0.43
253.265	0.41
253.481	0.44
253.697	0.3
253.913	0.32
254.129	0.49
254.345	0.44
254.561	0.33
254.777	0.32
254.993	0.46
255.209	0.39
255.425	0.38
255.641	0.33
255.857	0.46
256.073	0.48
256.288	0.29
256.504	0.29
256.72	0.45
256.936	0.56
257.152	0.4
257.367	0.37
257.583	0.43
257.799	0.39
258.015	0.37
258.23	0.35
258.446	0.56
258.662	0.42
258.877	0.3
259.093	0.34
259.309	0.39
259.524	0.47
259.74	0.34
259.955	0.25
260.171	0.45
260.387	0.43
260.602	0.36
260.818	0.46
261.033	0.31
261.249	0.38
261.464	0.31
261.68	0.22
261.895	0.42
262.11	0.4
262.326	0.29
262.541	0.26
262.757	0.42
262.972	0.47
263.187	0.37
263.403	0.36
263.618	0.48
263.833	0.4
264.049	0.28
264.264	0.4
264.479	0.37
264.694	0.56
264.91	0.32
265.125	0.34
265.34	0.43
265.555	0.57
265.77	0.43
265.986	0.29
266.201	0.47
266.416	0.49
266.631	0.3
266.846	0.35
267.061	0.48
267.276	0.48
267.491	0.23
267.706	0.38
267.921	0.47
268.136	0.45
268.351	0.32
268.566	0.22
268.781	0.47
268.996	0.5
269.211	0.31
269.426	0.3
269.641	0.34
269.856	0.48
270.071	0.31
270.285	0.17
270.5	0.44
270.715	0.4
270.93	0.34
271.145	0.34
271.359	0.4
271.574	0.3
271.789	0.34
272.004	0.29
272.218	0.34
272.433	0.45
272.648	0.27
272.862	0.41
273.077	0.35
273.292	0.38
273.506	0.32
273.721	0.32
273.936	0.38
274.15	0.43
274.365	0.22
274.579	0.35
274.794	0.35
275.008	0.42
275.223	0.24
275.437	0.34
275.652	0.5
275.866	0.33
276.081	0.33
276.295	0.38
276.509	0.39
276.724	0.35
276.938	0.29
277.153	0.31
277.367	0.36
277.581	0.29
277.796	0.27
278.01	0.22
278.224	0.46
278.438	0.49
278.653	0.31
278.867	0.28
279.081	0.2
279.295	0.3
279.51	0.36
279.724	0.23
279.938	0.36
280.152	0.33
280.366	0.27
280.58	0.31
280.794	0.44
281.008	0.39
281.222	0.36
281.437	0.48
281.651	0.4
281.865	0.41
282.079	0.26
282.293	0.19
282.507	0.27
282.721	0.28
282.935	0.26
283.148	0.15
283.362	0.26
283.576	0.22
283.79	0.31
284.004	0.28
284.218	0.4
284.432	0.24
284.646	0.31
284.859	0.29
285.073	0.3
285.287	0.37
285.501	0.35
285.714	0.25
285.928	0.31
286.142	0.33
286.356	0.29
286.569	0.28
286.783	0.34
286.997	0.35
287.21	0.33
287.424	0.27
287.637	0.25
287.851	0.29
288.065	0.33
288.278	0.21
288.492	0.3
288.705	0.32
288.919	0.33
289.132	0.22
289.346	0.38
289.559	0.21
289.773	0.22
289.986	0.29
290.2	0.32
290.413	0.35
290.626	0.25
290.84	0.3
291.053	0.26
291.267	0.38
291.48	0.32
291.693	0.26
291.906	0.25
292.12	0.3
292.333	0.26
292.546	0.26
292.76	0.36
292.973	0.29
293.186	0.33
293.399	0.23
293.612	0.33
293.826	0.3
294.039	0.28
294.252	0.24
294.465	0.34
294.678	0.37
294.891	0.27
295.104	0.22
295.317	0.25
295.53	0.26
295.743	0.25
295.956	0.23
296.169	0.36
296.382	0.35
296.595	0.21
296.808	0.2
297.021	0.33
297.234	0.39
297.447	0.26
297.66	0.28
297.873	0.33
298.086	0.33
298.299	0.23
298.511	0.16
298.724	0.29
298.937	0.2
299.15	0.24
299.363	0.27
299.575	0.32
299.788	0.3
300.001	0.27
300.213	0.23
300.426	0.24
300.639	0.24
300.852	0.21
301.064	0.31
301.277	0.37
301.489	0.3
301.702	0.27
301.915	0.24
302.127	0.27
302.34	0.33
302.552	0.29
302.765	0.18
302.977	0.3
303.19	0.26
303.402	0.24
303.615	0.25
303.827	0.25
304.04	0.26
304.252	0.3
304.464	0.29
304.677	0.4
304.889	0.33
305.102	0.2
305.314	0.23
305.526	0.3
305.739	0.31
305.951	0.21
306.163	0.2
306.375	0.29
306.588	0.26
306.8	0.27
307.012	0.2
307.224	0.32
307.436	0.31
307.649	0.22
307.861	0.27
308.073	0.31
308.285	0.27
308.497	0.21
308.709	0.23
308.921	0.27
309.133	0.36
309.346	0.27
309.558	0.26
309.77	0.3
309.982	0.35
310.194	0.29
310.406	0.21
310.617	0.4
310.829	0.26
311.041	0.29
311.253	0.26
311.465	0.27
311.677	0.31
311.889	0.25
312.101	0.21
312.313	0.35
312.524	0.32
312.736	0.18
312.948	0.25
313.16	0.32
313.372	0.32
313.583	0.28
313.795	0.22
314.007	0.23
314.218	0.34
314.43	0.27
314.642	0.23
314.853	0.19
315.065	0.36
315.277	0.25
315.488	0.27
315.7	0.34
315.912	0.26
316.123	0.27
316.335	0.24
316.546	0.37
316.758	0.24
316.969	0.21
317.181	0.28
317.392	0.26
317.604	0.32
317.815	0.22
318.026	0.22
318.238	0.26
318.449	0.32
318.661	0.16
318.872	0.15
319.083	0.23
319.295	0.34
319.506	0.24
319.717	0.24
319.929	0.38
320.14	0.28
320.351	0.27
320.562	0.22
320.774	0.29
320.985	0.29
321.196	0.16
321.407	0.17
321.618	0.3
321.829	0.24
322.041	0.29
322.252	0.24
322.463	0.29
322.674	0.28
322.885	0.17
323.096	0.23
323.307	0.25
323.518	0.29
323.729	0.24
323.94	0.26
324.151	0.21
324.362	0.31
324.573	0.24
324.784	0.24
324.995	0.34
325.206	0.31
325.417	0.22
325.628	0.22
325.838	0.25
326.049	0.27
326.26	0.3
326.471	0.2
326.682	0.29
326.892	0.29
327.103	0.18
327.314	0.22
327.525	0.4
327.735	0.29
327.946	0.23
328.157	0.2
328.368	0.32
328.578	0.24
328.789	0.26
328.999	0.2
329.21	0.29
329.421	0.34
329.631	0.23
329.842	0.25
330.052	0.26
330.263	0.28
330.473	0.27
330.684	0.2
330.894	0.27
331.105	0.25
331.315	0.27
331.526	0.22
331.736	0.31
331.947	0.28
332.157	0.28
332.367	0.18
332.578	0.32
332.788	0.35
332.999	0.3
333.209	0.24
333.419	0.21
333.629	0.29
333.84	0.3
334.05	0.25
334.26	0.33
334.47	0.26
334.681	0.31
334.891	0.23
335.101	0.3
335.311	0.32
335.521	0.26
335.732	0.24
335.942	0.32
336.152	0.29
336.362	0.25
336.572	0.25
336.782	0.29
336.992	0.23
337.202	0.25
337.412	0.24
337.622	0.3
337.832	0.28
338.042	0.27
338.252	0.21
338.462	0.2
338.672	0.27
338.882	0.26
339.092	0.28
339.302	0.33
339.511	0.31
339.721	0.21
339.931	0.19
340.141	0.34
340.351	0.31
340.561	0.28
340.77	0.29
340.98	0.29
341.19	0.32
341.4	0.22
341.609	0.22
341.819	0.24
342.029	0.21
342.238	0.27
342.448	0.27
342.658	0.3
342.867	0.25
343.077	0.27
343.286	0.22
343.496	0.32
343.706	0.37
343.915	0.22
344.125	0.3
344.334	0.26
344.544	0.21
344.753	0.21
344.963	0.2
345.172	0.22
345.381	0.22
345.591	0.22
345.8	0.25
346.01	0.33
346.219	0.3
346.428	0.12
346.638	0.24
346.847	0.25
347.056	0.34
347.266	0.2
347.475	0.24
347.684	0.27
347.893	0.28
348.103	0.28
348.312	0.24
348.521	0.24
348.73	0.26
348.94	0.27
349.149	0.21
349.358	0.22
349.567	0.23
349.776	0.18
349.985	0.23
350.194	0.29
350.403	0.3
350.612	0.18
350.821	0.24
351.03	0.26
351.239	0.21
351.448	0.24
351.657	0.21
351.866	0.36
352.075	0.29
352.284	0.24
352.493	0.19
352.702	0.31
352.911	0.29
353.12	0.26
353.329	0.25
353.538	0.29
353.746	0.29
353.955	0.23
354.164	0.28
354.373	0.23
354.582	0.31
354.79	0.24
354.999	0.29
355.208	0.23
355.416	0.31
355.625	0.19
355.834	0.23
356.042	0.29
356.251	0.23
356.46	0.22
356.668	0.26
356.877	0.39
357.085	0.31
357.294	0.19
357.503	0.26
357.711	0.26
357.92	0.36
358.128	0.29
358.337	0.23
358.545	0.28
358.754	0.21
358.962	0.28
359.17	0.22
359.379	0.31
359.587	0.27
359.796	0.28
360.004	0.3
360.212	0.29
360.421	0.29
360.629	0.19
360.837	0.24
361.046	0.34
361.254	0.38
361.462	0.25
361.67	0.22
361.879	0.25
362.087	0.33
362.295	0.25
362.503	0.2
362.711	0.23
362.92	0.24
363.128	0.21
363.336	0.19
363.544	0.18
363.752	0.24
363.96	0.23
364.168	0.19
364.376	0.28
364.584	0.26
364.792	0.28
365	0.23
365.208	0.28
365.416	0.27
365.624	0.32
365.832	0.25
366.04	0.31
366.248	0.24
366.456	0.29
366.664	0.29
366.872	0.25
367.079	0.24
367.287	0.26
367.495	0.24
367.703	0.24
367.911	0.27
368.118	0.26
368.326	0.26
368.534	0.24
368.742	0.32
368.949	0.21
369.157	0.2
369.365	0.32
369.572	0.23
369.78	0.23
369.988	0.31
370.195	0.29
370.403	0.32
370.61	0.23
370.818	0.27
371.026	0.4
371.233	0.21
371.441	0.29
371.648	0.25
371.856	0.26
372.063	0.31
372.271	0.25
372.478	0.22
372.685	0.23
372.893	0.32
373.1	0.27
373.308	0.26
373.515	0.41
373.722	0.36
373.93	0.23
374.137	0.28
374.344	0.31
374.552	0.29
374.759	0.27
374.966	0.27
375.173	0.25
375.381	0.33
375.588	0.26
375.795	0.18
376.002	0.25
376.209	0.21
376.417	0.29
376.624	0.29
376.831	0.32
377.038	0.26
377.245	0.21
377.452	0.25
377.659	0.27
377.866	0.26
378.073	0.29
378.28	0.28
378.487	0.34
378.694	0.29
378.901	0.22
379.108	0.27
379.315	0.34
379.522	0.35
379.729	0.27
379.936	0.25
380.143	0.3
380.35	0.33
380.557	0.23
380.763	0.29
380.97	0.25
381.177	0.35
381.384	0.28
381.591	0.18
381.797	0.3
382.004	0.31
382.211	0.32
382.418	0.23
382.624	0.31
382.831	0.31
383.038	0.26
383.244	0.28
383.451	0.32
383.658	0.3
383.864	0.27
384.071	0.23
384.277	0.38
384.484	0.26
384.69	0.36
384.897	0.24
385.103	0.28
385.31	0.25
385.516	0.26
385.723	0.2
385.929	0.27
386.136	0.25
386.342	0.36
386.549	0.25
386.755	0.32
386.961	0.33
387.168	0.28
387.374	0.29
387.58	0.37
387.787	0.29
387.993	0.3
388.199	0.29
388.406	0.23
388.612	0.25
388.818	0.29
389.024	0.23
389.231	0.27
389.437	0.38
389.643	0.34
389.849	0.3
390.055	0.3
390.261	0.32
390.467	0.33
390.674	0.24
390.88	0.33
391.086	0.33
391.292	0.25
391.498	0.31
391.704	0.35
391.91	0.29
392.116	0.3
392.322	0.23
392.528	0.36
392.734	0.28
392.94	0.31
393.146	0.33
393.352	0.32
393.557	0.31
393.763	0.32
393.969	0.29
394.175	0.3
394.381	0.34
394.587	0.26
394.792	0.33
394.998	0.37
395.204	0.36
395.41	0.29
395.615	0.32
395.821	0.32
396.027	0.36
396.233	0.3
396.438	0.34
396.644	0.37
396.85	0.33
397.055	0.29
397.261	0.33
397.466	0.49
397.672	0.38
397.878	0.4
398.083	0.37
398.289	0.33
398.494	0.48
398.7	0.41
398.905	0.27
399.111	0.4
399.316	0.3
399.522	0.37
399.727	0.27
399.932	0.34
400.138	0.31
400.343	0.4
400.549	0.34
400.754	0.38
400.959	0.39
401.165	0.33
401.37	0.36
401.575	0.48
401.78	0.38
401.986	0.35
402.191	0.32
402.396	0.34
402.601	0.44
402.807	0.43
403.012	0.39
403.217	0.48
403.422	0.41
403.627	0.4
403.832	0.38
404.037	0.38
404.243	0.43
404.448	0.41
404.653	0.43
404.858	0.47
405.063	0.45
405.268	0.46
405.473	0.42
405.678	0.42
405.883	0.61
406.088	0.49
406.293	0.38
406.498	0.43
406.703	0.53
406.907	0.52
407.112	0.42
407.317	0.51
407.522	0.6
407.727	0.46
407.932	0.52
408.136	0.67
408.341	0.57
408.546	0.57
408.751	0.58
408.956	0.53
409.16	0.63
409.365	0.6
409.57	0.62
409.774	0.61
409.979	0.69
410.184	0.7
410.388	0.6
410.593	0.71
410.798	0.73
411.002	0.73
411.207	0.83
411.411	0.79
411.616	0.69
411.82	0.84
412.025	0.81
412.229	0.8
412.434	1.01
412.638	0.88
412.843	0.87
413.047	0.98
413.252	0.93
413.456	1.06
413.66	1.01
413.865	0.99
414.069	1.18
414.273	1.1
414.478	1.14
414.682	1.15
414.886	1.17
415.091	1.13
415.295	1.18
415.499	1.37
415.703	1.3
415.908	1.36
416.112	1.34
416.316	1.51
416.52	1.51
416.724	1.46
416.929	1.6
417.133	1.82
417.337	1.71
417.541	1.74
417.745	1.81
417.949	1.87
418.153	1.92
418.357	1.93
418.561	2.19
418.765	2.16
418.969	2.32
419.173	2.36
419.377	2.33
419.581	2.57
419.785	2.51
419.989	2.52
420.193	2.75
420.397	2.78
420.601	2.92
420.804	3.03
421.008	3.01
421.212	3.18
421.416	3.08
421.62	3.14
421.823	3.22
422.027	3.42
422.231	3.38
422.435	3.3
422.638	3.45
422.842	3.54
423.046	3.59
423.249	3.8
423.453	3.79
423.657	4
423.86	4.05
424.064	4.16
424.268	4.32
424.471	4.32
424.675	4.48
424.878	4.59
425.082	4.63
425.285	5.02
425.489	4.92
425.692	5
425.896	5.12
426.099	5.31
426.303	5.44
426.506	5.51
426.71	5.73
426.913	5.98
427.116	6.1
427.32	6.11
427.523	6.19
427.726	6.57
427.93	6.57
428.133	6.88
428.336	7.02
428.54	7.12
428.743	7.46
428.946	7.6
429.149	7.68
429.353	7.78
429.556	7.73
429.759	7.81
429.962	7.93
430.165	8.14
430.368	7.78
430.571	7.82
430.775	7.96
430.978	7.85
431.181	7.92
431.384	8
431.587	8.21
431.79	8.47
431.993	8.41
432.196	8.73
432.399	9.07
432.602	9.17
432.805	9.42
433.008	9.89
433.211	9.74
433.414	9.98
433.616	10
433.819	10.04
434.022	10.19
434.225	10.52
434.428	10.38
434.631	10.97
434.833	10.63
435.036	10.96
435.239	11.11
435.442	11.21
435.645	11.46
435.847	11.3
436.05	11.67
436.253	11.84
436.455	11.92
436.658	11.86
436.861	12.08
437.063	12.27
437.266	12.18
437.468	12.59
437.671	12.84
437.874	12.91
438.076	12.84
438.279	13.23
438.481	13.25
438.684	13.97
438.886	13.57
439.089	13.95
439.291	13.96
439.494	14.36
439.696	14.47
439.899	15.03
440.101	15.33
440.303	15.67
440.506	16.29
440.708	15.99
440.91	16.3
441.113	16.48
441.315	16.66
441.517	16.56
441.72	16.99
441.922	16.77
442.124	16.57
442.326	16.76
442.529	17.06
442.731	17.26
442.933	17.42
443.135	17.14
443.337	17.13
443.539	17.92
443.742	17.49
443.944	18.06
444.146	17.78
444.348	17.88
444.55	17.75
444.752	17.87
444.954	17.92
445.156	17.82
445.358	18.12
445.56	18.44
445.762	18.28
445.964	18.57
446.166	18.44
446.368	18.45
446.57	18.42
446.772	17.99
446.974	17.88
447.175	18.07
447.377	17.8
447.579	18.13
447.781	17.94
447.983	17.73
448.184	17.37
448.386	17.58
448.588	17.22
448.79	17.14
448.991	17.55
449.193	17.4
449.395	16.88
449.597	16.54
449.798	16.32
450	15.97
450.202	15.81
450.403	15.9
450.605	15.79
450.806	15.35
451.008	15.3
451.21	15.17
451.411	14.66
451.613	13.79
451.814	14.25
452.016	14.24
452.217	13.4
452.419	13.47
452.62	13.14
452.821	12.94
453.023	12.76
453.224	12.48
453.426	12.04
453.627	11.36
453.828	11.34
454.03	11.5
454.231	11.37
454.432	11.34
454.634	11.02
454.835	10.61
455.036	10.61
455.238	10.36
455.439	9.99
455.64	9.72
455.841	9.58
456.042	9.75
456.244	9.4
456.445	9.12
456.646	8.82
456.847	8.79
457.048	8.73
457.249	8.63
457.45	8.53
457.651	7.83
457.852	7.76
458.054	7.52
458.255	7.32
458.456	7.43
458.657	7.28
458.858	6.89
459.058	6.87
459.259	6.86
459.46	6.52
459.661	6.58
459.862	6.65
460.063	6.49
460.264	6.37
460.465	6.03
460.666	6.17
460.866	5.86
461.067	5.66
461.268	5.67
461.469	5.65
461.67	5.5
461.87	5.35
462.071	5.41
462.272	5.14
462.473	5.19
462.673	5.35
462.874	5.24
463.075	5.28
463.275	5.17
463.476	5.3
463.676	5.25
463.877	5.09
464.078	4.99
464.278	5.14
464.479	4.93
464.679	4.88
464.88	4.83
465.08	4.76
465.281	4.66
465.481	4.31
465.682	4.22
465.882	4.24
466.083	4.11
466.283	4.07
466.483	4.03
466.684	3.84
466.884	3.71
467.085	3.73
467.285	3.85
467.485	3.71
467.686	3.68
467.886	3.51
468.086	3.46
468.286	3.43
468.487	3.51
468.687	3.36
468.887	3.25
469.087	3.36
469.287	3.29
469.488	3.17
469.688	3.26
469.888	3.25
470.088	3.22
470.288	3.2
470.488	3.05
470.688	3.01
470.888	2.88
471.088	2.77
471.288	2.84
471.488	2.83
471.688	2.81
471.888	2.71
472.088	2.89
472.288	2.83
472.488	2.66
472.688	2.68
472.888	2.66
473.088	2.68
473.288	2.65
473.488	2.52
473.688	2.74
473.887	2.54
474.087	2.5
474.287	2.55
474.487	2.43
474.687	2.43
474.886	2.44
475.086	2.38
475.286	2.34
475.486	2.39
475.685	2.32
475.885	2.23
476.085	2.35
476.284	2.29
476.484	2.28
476.684	2.25
476.883	2.36
477.083	2.23
477.282	2.16
477.482	2.23
477.681	2.2
477.881	2.1
478.08	2.09
478.28	2.08
478.479	2.15
478.679	2.15
478.878	2.08
479.078	2.03
479.277	2.13
479.477	2.09
479.676	2.09
479.875	2.03
480.075	1.99
480.274	2.05
480.473	2.11
480.673	2.03
480.872	2.16
481.071	2.1
481.271	2.08
481.47	1.98
481.669	2
481.868	1.98
482.067	2
482.267	1.99
482.466	1.99
482.665	1.99
482.864	2
483.063	1.97
483.262	2.02
483.461	2.08
483.661	2.1
483.86	2.09
484.059	2.11
484.258	2.06
484.457	2
484.656	2.09
484.855	2.11
485.054	1.98
485.253	2.01
485.452	1.98
485.651	2.08
485.849	2.07
486.048	2.03
486.247	2.07
486.446	2.13
486.645	2.02
486.844	2.08
487.043	2.07
487.241	2.13
487.44	2.08
487.639	2.16
487.838	2.13
488.037	2.15
488.235	2.21
488.434	2.16
488.633	2.12
488.831	2.24
489.03	2.24
489.229	2.24
489.427	2.22
489.626	2.31
489.825	2.31
490.023	2.33
490.222	2.34
490.42	2.35
490.619	2.38
490.817	2.37
491.016	2.39
491.214	2.45
491.413	2.47
491.611	2.4
491.81	2.41
492.008	2.48
492.207	2.56
492.405	2.53
492.604	2.48
492.802	2.58
493	2.57
493.199	2.63
493.397	2.67
493.595	2.74
493.794	2.67
493.992	2.8
494.19	2.78
494.388	2.8
494.587	2.73
494.785	2.79
494.983	2.71
495.181	2.87
495.379	2.93
495.578	2.98
495.776	2.92
495.974	2.97
496.172	2.96
496.37	3.09
496.568	3.07
496.766	3.09
496.964	3.22
497.162	3.15
497.36	3.2
497.558	3.26
497.756	3.35
497.954	3.31
498.152	3.36
498.35	3.52
498.548	3.37
498.746	3.39
498.944	3.41
499.142	3.4
499.34	3.49
499.538	3.66
499.736	3.55
499.933	3.64
500.131	3.64
500.329	3.8
500.527	3.78
500.725	3.82
500.922	3.86
501.12	3.86
501.318	3.96
501.516	3.96
501.713	4
501.911	4.01
502.109	3.93
502.306	4.09
502.504	4.03
502.701	4.09
