Data from Apollo_Calib_20240827__AbsoluteIrradiance__765__11-54-03-017.txt Node

Date: Wed Aug 28 11:54:03 BST 2024
User: biology
Spectrometer: FLMT08252
Trigger mode: 0
Integration Time (sec): 5.000000E-1
Scans to average: 5
Electric dark correction enabled: true
Nonlinearity correction enabled: false
Boxcar width: 0
XAxis mode: Wavelengths
Number of Pixels in Spectrum: 3648
>>>>>Begin Spectral Data<<<<<
179.588	-0
179.809	-0
180.03	-0
180.251	-0
180.473	-0
180.694	0
180.915	0
181.136	-0
181.357	0
181.578	0
181.799	-0
182.02	-0
182.241	-0
182.462	-0
182.683	0
182.904	-0
183.125	-0
183.346	0
183.567	0
183.788	0
184.009	0
184.23	0
184.451	0
184.672	0
184.892	0
185.113	0
185.334	0
185.555	0
185.776	0
185.996	0
186.217	0
186.438	0
186.659	0
186.879	0
187.1	0
187.321	0
187.541	0
187.762	0
187.983	0
188.203	0
188.424	0
188.644	0
188.865	0
189.086	0
189.306	0
189.527	0
189.747	0
189.968	0
190.188	0
190.409	0
190.629	0
190.849	0
191.07	0
191.29	0
191.511	0
191.731	0
191.951	0
192.172	0
192.392	0
192.612	0
192.833	0
193.053	0
193.273	0
193.493	0
193.714	0
193.934	0
194.154	0
194.374	0
194.594	0
194.815	0
195.035	0
195.255	0
195.475	0
195.695	0
195.915	0
196.135	0
196.355	0
196.575	0
196.795	0
197.015	0
197.235	0
197.455	0
197.675	0
197.895	0
198.115	0
198.335	0
198.555	0
198.775	0
198.995	0
199.214	0
199.434	0
199.654	0
199.874	0
200.094	3.63
200.313	2.57
200.533	1.81
200.753	1.23
200.973	2.98
201.192	2.83
201.412	1.17
201.632	1.73
201.851	3.35
202.071	1.59
202.291	1.38
202.51	1.11
202.73	2.34
202.95	1.66
203.169	1.31
203.389	2.03
203.608	1.75
203.828	1.49
204.047	2.04
204.267	2.27
204.486	1.86
204.706	2.34
204.925	1.36
205.145	1.64
205.364	2.21
205.583	2.25
205.803	1.22
206.022	1.17
206.242	1.44
206.461	1.21
206.68	1.2
206.9	1.46
207.119	2.19
207.338	2.13
207.557	0.94
207.777	1.07
207.996	1.43
208.215	2.03
208.434	1.11
208.654	0.86
208.873	1.51
209.092	2.01
209.311	1.04
209.53	1.23
209.749	0.88
209.968	1.04
210.187	1.07
210.407	0.56
210.626	1.23
210.845	1.69
211.064	1.24
211.283	0.84
211.502	1.38
211.721	1.31
211.94	1.17
212.159	1.24
212.377	1.2
212.596	1.64
212.815	1.13
213.034	0.88
213.253	1.27
213.472	1.18
213.691	0.82
213.91	0.86
214.128	0.88
214.347	1.59
214.566	0.48
214.785	0.61
215.003	1.12
215.222	1.19
215.441	1.07
215.66	0.33
215.878	0.98
216.097	1.29
216.316	0.58
216.534	0.89
216.753	0.99
216.972	0.82
217.19	0.92
217.409	0.65
217.627	0.76
217.846	0.73
218.064	0.88
218.283	0.6
218.501	1.32
218.72	1.07
218.938	0.41
219.157	0.79
219.375	1
219.594	0.87
219.812	0.52
220.031	0.53
220.249	1.14
220.467	1.13
220.686	0.56
220.904	0.5
221.122	0.54
221.341	1.08
221.559	0.78
221.777	0.54
221.995	0.59
222.214	0.76
222.432	0.66
222.65	0.75
222.868	0.73
223.086	0.88
223.305	0.84
223.523	0.7
223.741	1.11
223.959	0.7
224.177	0.52
224.395	0.5
224.613	0.75
224.831	0.95
225.049	0.46
225.267	0.53
225.485	0.8
225.703	0.71
225.921	0.45
226.139	0.46
226.357	0.74
226.575	0.71
226.793	0.62
227.011	1.36
227.229	0.69
227.447	0.83
227.665	0.62
227.883	0.45
228.1	0.61
228.318	0.74
228.536	0.16
228.754	0.42
228.972	0.65
229.189	0.71
229.407	0.61
229.625	0.43
229.843	0.74
230.06	0.85
230.278	0.54
230.496	0.55
230.713	0.66
230.931	0.79
231.149	0.44
231.366	0.37
231.584	0.66
231.801	0.98
232.019	0.41
232.236	0.37
232.454	0.42
232.671	0.6
232.889	0.58
233.106	0.4
233.324	0.64
233.541	0.47
233.759	0.5
233.976	0.45
234.194	0.59
234.411	0.56
234.628	0.38
234.846	0.43
235.063	0.44
235.28	0.43
235.498	0.45
235.715	0.32
235.932	0.7
236.149	0.49
236.367	0.35
236.584	0.52
236.801	0.48
237.018	0.68
237.236	0.49
237.453	0.28
237.67	0.7
237.887	0.47
238.104	0.38
238.321	0.39
238.538	0.39
238.755	0.59
238.973	0.29
239.19	0.45
239.407	0.58
239.624	0.49
239.841	0.37
240.058	0.31
240.275	0.54
240.492	0.48
240.709	0.38
240.925	0.36
241.142	0.46
241.359	0.44
241.576	0.33
241.793	0.43
242.01	0.32
242.227	0.58
242.444	0.51
242.66	0.57
242.877	0.48
243.094	0.4
243.311	0.48
243.527	0.32
243.744	0.56
243.961	0.49
244.178	0.26
244.394	0.4
244.611	0.55
244.828	0.63
245.044	0.27
245.261	0.39
245.477	0.49
245.694	0.6
245.911	0.38
246.127	0.43
246.344	0.55
246.56	0.52
246.777	0.44
246.993	0.32
247.21	0.47
247.426	0.55
247.643	0.33
247.859	0.34
248.076	0.33
248.292	0.63
248.508	0.28
248.725	0.38
248.941	0.42
249.157	0.53
249.374	0.32
249.59	0.4
249.806	0.45
250.023	0.61
250.239	0.34
250.455	0.27
250.671	0.45
250.888	0.42
251.104	0.42
251.32	0.37
251.536	0.4
251.752	0.33
251.969	0.43
252.185	0.44
252.401	0.55
252.617	0.4
252.833	0.36
253.049	0.34
253.265	0.35
253.481	0.49
253.697	0.31
253.913	0.28
254.129	0.38
254.345	0.42
254.561	0.31
254.777	0.31
254.993	0.45
255.209	0.39
255.425	0.34
255.641	0.31
255.857	0.47
256.073	0.39
256.288	0.24
256.504	0.25
256.72	0.4
256.936	0.51
257.152	0.33
257.367	0.3
257.583	0.37
257.799	0.5
258.015	0.35
258.23	0.31
258.446	0.56
258.662	0.33
258.877	0.28
259.093	0.2
259.309	0.41
259.524	0.41
259.74	0.3
259.955	0.2
260.171	0.38
260.387	0.4
260.602	0.39
260.818	0.41
261.033	0.25
261.249	0.41
261.464	0.34
261.68	0.25
261.895	0.39
262.11	0.43
262.326	0.32
262.541	0.2
262.757	0.44
262.972	0.43
263.187	0.4
263.403	0.36
263.618	0.38
263.833	0.39
264.049	0.23
264.264	0.3
264.479	0.33
264.694	0.46
264.91	0.2
265.125	0.34
265.34	0.43
265.555	0.55
265.77	0.33
265.986	0.3
266.201	0.31
266.416	0.46
266.631	0.26
266.846	0.3
267.061	0.46
267.276	0.38
267.491	0.15
267.706	0.36
267.921	0.36
268.136	0.32
268.351	0.33
268.566	0.21
268.781	0.42
268.996	0.37
269.211	0.31
269.426	0.23
269.641	0.26
269.856	0.44
270.071	0.3
270.285	0.22
270.5	0.34
270.715	0.37
270.93	0.29
271.145	0.32
271.359	0.35
271.574	0.33
271.789	0.3
272.004	0.29
272.218	0.27
272.433	0.4
272.648	0.21
272.862	0.34
273.077	0.35
273.292	0.26
273.506	0.27
273.721	0.24
273.936	0.34
274.15	0.44
274.365	0.29
274.579	0.38
274.794	0.34
275.008	0.44
275.223	0.17
275.437	0.26
275.652	0.4
275.866	0.33
276.081	0.26
276.295	0.35
276.509	0.34
276.724	0.31
276.938	0.27
277.153	0.39
277.367	0.36
277.581	0.27
277.796	0.25
278.01	0.18
278.224	0.4
278.438	0.46
278.653	0.25
278.867	0.25
279.081	0.37
279.295	0.33
279.51	0.35
279.724	0.19
279.938	0.39
280.152	0.39
280.366	0.23
280.58	0.26
280.794	0.38
281.008	0.37
281.222	0.34
281.437	0.44
281.651	0.38
281.865	0.35
282.079	0.25
282.293	0.13
282.507	0.18
282.721	0.28
282.935	0.25
283.148	0.17
283.362	0.23
283.576	0.23
283.79	0.32
284.004	0.3
284.218	0.34
284.432	0.26
284.646	0.3
284.859	0.28
285.073	0.27
285.287	0.29
285.501	0.22
285.714	0.23
285.928	0.32
286.142	0.3
286.356	0.23
286.569	0.24
286.783	0.42
286.997	0.37
287.21	0.31
287.424	0.24
287.637	0.28
287.851	0.29
288.065	0.35
288.278	0.21
288.492	0.31
288.705	0.28
288.919	0.26
289.132	0.18
289.346	0.32
289.559	0.22
289.773	0.18
289.986	0.27
290.2	0.28
290.413	0.34
290.626	0.24
290.84	0.25
291.053	0.31
291.267	0.36
291.48	0.23
291.693	0.23
291.906	0.18
292.12	0.27
292.333	0.25
292.546	0.24
292.76	0.33
292.973	0.29
293.186	0.31
293.399	0.23
293.612	0.25
293.826	0.24
294.039	0.24
294.252	0.21
294.465	0.29
294.678	0.28
294.891	0.24
295.104	0.18
295.317	0.21
295.53	0.24
295.743	0.27
295.956	0.2
296.169	0.27
296.382	0.31
296.595	0.25
296.808	0.23
297.021	0.33
297.234	0.32
297.447	0.22
297.66	0.26
297.873	0.37
298.086	0.31
298.299	0.2
298.511	0.17
298.724	0.31
298.937	0.2
299.15	0.21
299.363	0.24
299.575	0.33
299.788	0.26
300.001	0.21
300.213	0.2
300.426	0.22
300.639	0.22
300.852	0.21
301.064	0.29
301.277	0.31
301.489	0.26
301.702	0.25
301.915	0.26
302.127	0.25
302.34	0.24
302.552	0.24
302.765	0.17
302.977	0.27
303.19	0.19
303.402	0.23
303.615	0.2
303.827	0.26
304.04	0.24
304.252	0.25
304.464	0.22
304.677	0.36
304.889	0.26
305.102	0.21
305.314	0.21
305.526	0.27
305.739	0.3
305.951	0.19
306.163	0.2
306.375	0.3
306.588	0.21
306.8	0.22
307.012	0.18
307.224	0.3
307.436	0.32
307.649	0.14
307.861	0.26
308.073	0.29
308.285	0.24
308.497	0.19
308.709	0.22
308.921	0.26
309.133	0.29
309.346	0.23
309.558	0.27
309.77	0.32
309.982	0.31
310.194	0.26
310.406	0.21
310.617	0.36
310.829	0.26
311.041	0.26
311.253	0.21
311.465	0.22
311.677	0.25
311.889	0.25
312.101	0.19
312.313	0.31
312.524	0.29
312.736	0.17
312.948	0.19
313.16	0.32
313.372	0.28
313.583	0.26
313.795	0.25
314.007	0.25
314.218	0.33
314.43	0.21
314.642	0.19
314.853	0.22
315.065	0.31
315.277	0.27
315.488	0.25
315.7	0.26
315.912	0.25
316.123	0.23
316.335	0.24
316.546	0.37
316.758	0.24
316.969	0.2
317.181	0.24
317.392	0.24
317.604	0.32
317.815	0.19
318.026	0.26
318.238	0.21
318.449	0.26
318.661	0.13
318.872	0.17
319.083	0.19
319.295	0.29
319.506	0.23
319.717	0.22
319.929	0.25
320.14	0.28
320.351	0.24
320.562	0.2
320.774	0.3
320.985	0.23
321.196	0.18
321.407	0.17
321.618	0.29
321.829	0.26
322.041	0.27
322.252	0.26
322.463	0.26
322.674	0.28
322.885	0.2
323.096	0.26
323.307	0.27
323.518	0.22
323.729	0.19
323.94	0.22
324.151	0.2
324.362	0.27
324.573	0.24
324.784	0.21
324.995	0.28
325.206	0.29
325.417	0.22
325.628	0.23
325.838	0.24
326.049	0.25
326.26	0.27
326.471	0.23
326.682	0.23
326.892	0.26
327.103	0.18
327.314	0.19
327.525	0.35
327.735	0.23
327.946	0.22
328.157	0.21
328.368	0.3
328.578	0.23
328.789	0.25
328.999	0.23
329.21	0.21
329.421	0.31
329.631	0.19
329.842	0.17
330.052	0.26
330.263	0.29
330.473	0.25
330.684	0.2
330.894	0.26
331.105	0.26
331.315	0.25
331.526	0.19
331.736	0.37
331.947	0.24
332.157	0.25
332.367	0.18
332.578	0.3
332.788	0.27
332.999	0.28
333.209	0.22
333.419	0.19
333.629	0.29
333.84	0.28
334.05	0.25
334.26	0.34
334.47	0.22
334.681	0.28
334.891	0.22
335.101	0.32
335.311	0.34
335.521	0.27
335.732	0.16
335.942	0.3
336.152	0.24
336.362	0.27
336.572	0.26
336.782	0.28
336.992	0.22
337.202	0.26
337.412	0.25
337.622	0.24
337.832	0.25
338.042	0.25
338.252	0.21
338.462	0.26
338.672	0.26
338.882	0.31
339.092	0.22
339.302	0.28
339.511	0.28
339.721	0.26
339.931	0.18
340.141	0.32
340.351	0.3
340.561	0.22
340.77	0.22
340.98	0.24
341.19	0.23
341.4	0.22
341.609	0.16
341.819	0.22
342.029	0.2
342.238	0.27
342.448	0.26
342.658	0.3
342.867	0.24
343.077	0.24
343.286	0.22
343.496	0.22
343.706	0.36
343.915	0.2
344.125	0.24
344.334	0.26
344.544	0.19
344.753	0.23
344.963	0.23
345.172	0.24
345.381	0.21
345.591	0.17
345.8	0.24
346.01	0.28
346.219	0.28
346.428	0.08
346.638	0.24
346.847	0.26
347.056	0.3
347.266	0.18
347.475	0.2
347.684	0.28
347.893	0.27
348.103	0.22
348.312	0.19
348.521	0.23
348.73	0.23
348.94	0.21
349.149	0.16
349.358	0.24
349.567	0.24
349.776	0.2
349.985	0.2
350.194	0.25
350.403	0.3
350.612	0.12
350.821	0.2
351.03	0.28
351.239	0.19
351.448	0.23
351.657	0.13
351.866	0.32
352.075	0.2
352.284	0.25
352.493	0.14
352.702	0.31
352.911	0.25
353.12	0.26
353.329	0.2
353.538	0.26
353.746	0.22
353.955	0.2
354.164	0.24
354.373	0.21
354.582	0.3
354.79	0.23
354.999	0.21
355.208	0.24
355.416	0.32
355.625	0.2
355.834	0.22
356.042	0.27
356.251	0.18
356.46	0.21
356.668	0.24
356.877	0.3
357.085	0.26
357.294	0.14
357.503	0.19
357.711	0.2
357.92	0.4
358.128	0.25
358.337	0.24
358.545	0.25
358.754	0.23
358.962	0.25
359.17	0.2
359.379	0.22
359.587	0.25
359.796	0.2
360.004	0.28
360.212	0.29
360.421	0.31
360.629	0.21
360.837	0.23
361.046	0.29
361.254	0.35
361.462	0.23
361.67	0.2
361.879	0.22
362.087	0.28
362.295	0.23
362.503	0.2
362.711	0.18
362.92	0.22
363.128	0.22
363.336	0.2
363.544	0.15
363.752	0.21
363.96	0.18
364.168	0.22
364.376	0.29
364.584	0.21
364.792	0.26
365	0.29
365.208	0.22
365.416	0.27
365.624	0.31
365.832	0.2
366.04	0.3
366.248	0.22
366.456	0.23
366.664	0.2
366.872	0.26
367.079	0.24
367.287	0.21
367.495	0.28
367.703	0.21
367.911	0.19
368.118	0.18
368.326	0.22
368.534	0.2
368.742	0.31
368.949	0.15
369.157	0.21
369.365	0.25
369.572	0.19
369.78	0.22
369.988	0.27
370.195	0.26
370.403	0.32
370.61	0.21
370.818	0.25
371.026	0.32
371.233	0.21
371.441	0.24
371.648	0.21
371.856	0.27
372.063	0.19
372.271	0.21
372.478	0.21
372.685	0.19
372.893	0.3
373.1	0.23
373.308	0.2
373.515	0.36
373.722	0.26
373.93	0.2
374.137	0.26
374.344	0.3
374.552	0.31
374.759	0.25
374.966	0.23
375.173	0.18
375.381	0.3
375.588	0.24
375.795	0.16
376.002	0.21
376.209	0.22
376.417	0.22
376.624	0.22
376.831	0.24
377.038	0.19
377.245	0.16
377.452	0.22
377.659	0.23
377.866	0.13
378.073	0.28
378.28	0.24
378.487	0.3
378.694	0.28
378.901	0.21
379.108	0.25
379.315	0.27
379.522	0.36
379.729	0.28
379.936	0.23
380.143	0.26
380.35	0.29
380.557	0.27
380.763	0.22
380.97	0.24
381.177	0.25
381.384	0.27
381.591	0.27
381.797	0.28
382.004	0.27
382.211	0.3
382.418	0.21
382.624	0.3
382.831	0.31
383.038	0.21
383.244	0.21
383.451	0.25
383.658	0.29
383.864	0.24
384.071	0.21
384.277	0.35
384.484	0.24
384.69	0.3
384.897	0.22
385.103	0.27
385.31	0.23
385.516	0.22
385.723	0.23
385.929	0.25
386.136	0.25
386.342	0.31
386.549	0.23
386.755	0.31
386.961	0.29
387.168	0.23
387.374	0.22
387.58	0.29
387.787	0.27
387.993	0.24
388.199	0.26
388.406	0.25
388.612	0.26
388.818	0.21
389.024	0.24
389.231	0.26
389.437	0.35
389.643	0.3
389.849	0.28
390.055	0.32
390.261	0.27
390.467	0.32
390.674	0.22
390.88	0.24
391.086	0.29
391.292	0.21
391.498	0.28
391.704	0.27
391.91	0.28
392.116	0.28
392.322	0.16
392.528	0.35
392.734	0.31
392.94	0.26
393.146	0.27
393.352	0.31
393.557	0.24
393.763	0.28
393.969	0.32
394.175	0.25
394.381	0.28
394.587	0.24
394.792	0.3
394.998	0.33
395.204	0.35
395.41	0.27
395.615	0.33
395.821	0.32
396.027	0.33
396.233	0.24
396.438	0.32
396.644	0.37
396.85	0.34
397.055	0.32
397.261	0.29
397.466	0.29
397.672	0.33
397.878	0.31
398.083	0.38
398.289	0.25
398.494	0.38
398.7	0.31
398.905	0.18
399.111	0.38
399.316	0.23
399.522	0.29
399.727	0.34
399.932	0.35
400.138	0.29
400.343	0.33
400.549	0.34
400.754	0.34
400.959	0.4
401.165	0.33
401.37	0.36
401.575	0.39
401.78	0.37
401.986	0.31
402.191	0.36
402.396	0.37
402.601	0.36
402.807	0.37
403.012	0.37
403.217	0.42
403.422	0.37
403.627	0.37
403.832	0.37
404.037	0.41
404.243	0.41
404.448	0.34
404.653	0.39
404.858	0.41
405.063	0.43
405.268	0.38
405.473	0.31
405.678	0.33
405.883	0.6
406.088	0.42
406.293	0.4
406.498	0.44
406.703	0.47
406.907	0.43
407.112	0.4
407.317	0.49
407.522	0.57
407.727	0.41
407.932	0.44
408.136	0.63
408.341	0.45
408.546	0.55
408.751	0.52
408.956	0.53
409.16	0.59
409.365	0.54
409.57	0.58
409.774	0.56
409.979	0.61
410.184	0.62
410.388	0.55
410.593	0.68
410.798	0.65
411.002	0.66
411.207	0.71
411.411	0.72
411.616	0.61
411.82	0.71
412.025	0.73
412.229	0.7
412.434	0.85
412.638	0.81
412.843	0.8
413.047	0.85
413.252	0.85
413.456	0.93
413.66	0.92
413.865	0.92
414.069	1.04
414.273	0.95
414.478	1
414.682	1.01
414.886	1.11
415.091	1.02
415.295	1.02
415.499	1.27
415.703	1.12
415.908	1.27
416.112	1.18
416.316	1.38
416.52	1.37
416.724	1.37
416.929	1.37
417.133	1.63
417.337	1.48
417.541	1.6
417.745	1.58
417.949	1.74
418.153	1.75
418.357	1.73
418.561	1.89
418.765	1.91
418.969	2.08
419.173	2.13
419.377	2.05
419.581	2.33
419.785	2.23
419.989	2.31
420.193	2.35
420.397	2.48
420.601	2.63
420.804	2.75
421.008	2.66
421.212	2.77
421.416	2.76
421.62	2.83
421.823	2.88
422.027	3.05
422.231	3.05
422.435	3.03
422.638	3.07
422.842	3.2
423.046	3.2
423.249	3.4
423.453	3.37
423.657	3.62
423.86	3.58
424.064	3.75
424.268	3.88
424.471	3.81
424.675	4.06
424.878	4.08
425.082	4.19
425.285	4.43
425.489	4.36
425.692	4.49
425.896	4.46
426.099	4.75
426.303	4.89
426.506	4.92
426.71	5.21
426.913	5.33
427.116	5.45
427.32	5.42
427.523	5.49
427.726	5.86
427.93	5.94
428.133	6.16
428.336	6.31
428.54	6.39
428.743	6.74
428.946	6.86
429.149	6.91
429.353	6.99
429.556	6.97
429.759	7.03
429.962	7.14
430.165	7.29
430.368	6.92
430.571	7.08
430.775	7.09
430.978	7.08
431.181	7.16
431.384	7.19
431.587	7.28
431.79	7.75
431.993	7.55
432.196	7.88
432.399	8.19
432.602	8.28
432.805	8.35
433.008	8.85
433.211	8.79
433.414	9.2
433.616	9.22
433.819	9.02
434.022	9.24
434.225	9.35
434.428	9.42
434.631	9.77
434.833	9.62
435.036	9.8
435.239	10.01
435.442	10.19
435.645	10.23
435.847	10.37
436.05	10.63
436.253	10.82
436.455	10.82
436.658	10.75
436.861	10.98
437.063	11.18
437.266	11.04
437.468	11.44
437.671	11.64
437.874	11.73
438.076	11.57
438.279	11.95
438.481	11.94
438.684	12.7
438.886	12.34
439.089	12.64
439.291	12.68
439.494	12.88
439.696	13.08
439.899	13.54
440.101	13.92
440.303	14.19
440.506	14.76
440.708	14.47
440.91	14.87
441.113	14.98
441.315	15.43
441.517	15
441.72	15.51
441.922	15.12
442.124	15.05
442.326	15.42
442.529	15.72
442.731	15.66
442.933	15.92
443.135	15.65
443.337	15.74
443.539	16.22
443.742	15.95
443.944	16.55
444.146	16.27
444.348	16.26
444.55	16.22
444.752	16.36
444.954	16.46
445.156	16.36
445.358	16.72
445.56	17.02
445.762	16.79
445.964	17.26
446.166	17.03
446.368	16.86
446.57	17.01
446.772	16.76
446.974	16.52
447.175	16.93
447.377	16.48
447.579	16.85
447.781	16.54
447.983	16.31
448.184	15.94
448.386	16.36
448.588	15.83
448.79	15.81
448.991	16.21
449.193	16.45
449.395	15.73
449.597	15.34
449.798	15.28
450	14.8
450.202	14.85
450.403	14.92
450.605	14.82
450.806	14.37
451.008	14.14
451.21	14.12
451.411	13.64
451.613	13.06
451.814	13.31
452.016	13.21
452.217	12.58
452.419	12.66
452.62	12.31
452.821	12.18
453.023	12.1
453.224	11.7
453.426	11.22
453.627	10.58
453.828	10.63
454.03	10.71
454.231	10.77
454.432	10.55
454.634	10.44
454.835	10.07
455.036	9.88
455.238	9.59
455.439	9.38
455.64	9.12
455.841	8.98
456.042	9.17
456.244	8.79
456.445	8.54
456.646	8.24
456.847	8.16
457.048	8.1
457.249	8.17
457.45	7.98
457.651	7.4
457.852	7.29
458.054	6.89
458.255	6.88
458.456	6.93
458.657	6.81
458.858	6.36
459.058	6.43
459.259	6.46
459.46	6.16
459.661	6.21
459.862	6.23
460.063	6.08
460.264	6.04
460.465	5.78
460.666	5.76
460.866	5.58
461.067	5.32
461.268	5.29
461.469	5.22
461.67	5.11
461.87	5.01
462.071	5
462.272	4.93
462.473	4.86
462.673	5.06
462.874	4.92
463.075	4.88
463.275	4.87
463.476	4.93
463.676	4.87
463.877	4.69
464.078	4.7
464.278	4.77
464.479	4.66
464.679	4.56
464.88	4.48
465.08	4.49
465.281	4.31
465.481	4.16
465.682	3.87
465.882	3.96
466.083	3.94
466.283	3.9
466.483	3.74
466.684	3.57
466.884	3.49
467.085	3.56
467.285	3.6
467.485	3.49
467.686	3.43
467.886	3.28
468.086	3.25
468.286	3.21
468.487	3.23
468.687	3.15
468.887	3.03
469.087	3.2
469.287	3.15
469.488	2.98
469.688	3.11
469.888	3.02
470.088	3.03
470.288	3
470.488	2.89
470.688	2.8
470.888	2.72
471.088	2.54
471.288	2.68
471.488	2.68
471.688	2.64
471.888	2.58
472.088	2.71
472.288	2.61
472.488	2.44
472.688	2.49
472.888	2.53
473.088	2.47
473.288	2.37
473.488	2.36
473.688	2.57
473.887	2.37
474.087	2.33
474.287	2.35
474.487	2.3
474.687	2.34
474.886	2.27
475.086	2.22
475.286	2.18
475.486	2.18
475.685	2.14
475.885	2.1
476.085	2.14
476.284	2.11
476.484	2.13
476.684	2.08
476.883	2.18
477.083	2.07
477.282	1.99
477.482	2.09
477.681	2.06
477.881	1.99
478.08	1.98
478.28	1.93
478.479	1.97
478.679	2.06
478.878	1.94
479.078	1.9
479.277	2.01
479.477	1.97
479.676	1.96
479.875	1.92
480.075	1.84
480.274	1.94
480.473	1.92
480.673	1.91
480.872	1.94
481.071	1.92
481.271	1.97
481.47	1.89
481.669	1.89
481.868	1.85
482.067	1.87
482.267	1.84
482.466	1.84
482.665	1.81
482.864	1.82
483.063	1.79
483.262	1.91
483.461	1.92
483.661	1.94
483.86	1.88
484.059	1.96
484.258	1.9
484.457	1.91
484.656	1.91
484.855	2.02
485.054	1.85
485.253	1.86
485.452	1.84
485.651	1.97
485.849	1.92
486.048	1.88
486.247	1.88
486.446	1.95
486.645	1.92
486.844	1.96
487.043	1.93
487.241	1.96
487.44	1.93
487.639	2.02
487.838	2.04
488.037	1.96
488.235	2.08
488.434	1.99
488.633	1.91
488.831	2.09
489.03	2.1
489.229	2.06
489.427	2.07
489.626	2.11
489.825	2.13
490.023	2.16
490.222	2.14
490.42	2.17
490.619	2.2
490.817	2.18
491.016	2.21
491.214	2.25
491.413	2.28
491.611	2.19
491.81	2.27
492.008	2.33
492.207	2.37
492.405	2.36
492.604	2.3
492.802	2.38
493	2.43
493.199	2.48
493.397	2.43
493.595	2.54
493.794	2.47
493.992	2.61
494.19	2.58
494.388	2.64
494.587	2.55
494.785	2.57
494.983	2.55
495.181	2.66
495.379	2.7
495.578	2.73
495.776	2.79
495.974	2.74
496.172	2.71
496.37	2.88
496.568	2.87
496.766	2.85
496.964	2.95
497.162	2.91
497.36	2.98
497.558	2.99
497.756	3.02
497.954	3.04
498.152	3.1
498.35	3.19
498.548	3.12
498.746	3.15
498.944	3.16
499.142	3.18
499.34	3.23
499.538	3.35
499.736	3.25
499.933	3.35
500.131	3.4
500.329	3.47
500.527	3.46
500.725	3.6
500.922	3.58
501.12	3.59
501.318	3.62
501.516	3.62
501.713	3.69
501.911	3.7
502.109	3.66
502.306	3.79
502.504	3.7
502.701	3.76
