Data from Apollo_Calib_20240827__AbsoluteIrradiance__787__12-16-01-366.txt Node

Date: Wed Aug 28 12:16:01 BST 2024
User: biology
Spectrometer: FLMT08252
Trigger mode: 0
Integration Time (sec): 5.000000E-1
Scans to average: 5
Electric dark correction enabled: true
Nonlinearity correction enabled: false
Boxcar width: 0
XAxis mode: Wavelengths
Number of Pixels in Spectrum: 3648
>>>>>Begin Spectral Data<<<<<
179.588	-0
179.809	-0
180.03	-0
180.251	-0
180.473	-0
180.694	0
180.915	0
181.136	-0
181.357	0
181.578	-0
181.799	-0
182.02	-0
182.241	0
182.462	-0
182.683	0
182.904	-0
183.125	-0
183.346	0
183.567	0
183.788	0
184.009	0
184.23	0
184.451	0
184.672	0
184.892	0
185.113	0
185.334	0
185.555	0
185.776	0
185.996	0
186.217	0
186.438	0
186.659	0
186.879	0
187.1	0
187.321	0
187.541	0
187.762	0
187.983	0
188.203	0
188.424	0
188.644	0
188.865	0
189.086	0
189.306	0
189.527	0
189.747	0
189.968	0
190.188	0
190.409	0
190.629	0
190.849	0
191.07	0
191.29	0
191.511	0
191.731	0
191.951	0
192.172	0
192.392	0
192.612	0
192.833	0
193.053	0
193.273	0
193.493	0
193.714	0
193.934	0
194.154	0
194.374	0
194.594	0
194.815	0
195.035	0
195.255	0
195.475	0
195.695	0
195.915	0
196.135	0
196.355	0
196.575	0
196.795	0
197.015	0
197.235	0
197.455	0
197.675	0
197.895	0
198.115	0
198.335	0
198.555	0
198.775	0
198.995	0
199.214	0
199.434	0
199.654	0
199.874	0
200.094	4.09
200.313	1.71
200.533	1.68
200.753	1.9
200.973	3.52
201.192	3.2
201.412	1.11
201.632	1.97
201.851	3.06
202.071	1.92
202.291	2.08
202.51	1.28
202.73	2.56
202.95	1.76
203.169	1.3
203.389	2.14
203.608	1.89
203.828	1.5
204.047	1.56
204.267	1.94
204.486	2.05
204.706	2.12
204.925	1.87
205.145	1.59
205.364	2.34
205.583	2.38
205.803	1.46
206.022	1.14
206.242	1.79
206.461	1.57
206.68	1.37
206.9	1.81
207.119	2.33
207.338	1.87
207.557	1.26
207.777	1.15
207.996	1.35
208.215	2.25
208.434	1.06
208.654	0.86
208.873	1.6
209.092	2.06
209.311	1.19
209.53	1.26
209.749	0.8
209.968	1.24
210.187	1.02
210.407	0.67
210.626	1.13
210.845	1.74
211.064	0.96
211.283	0.62
211.502	1.63
211.721	1.29
211.94	1.07
212.159	1.16
212.377	1.35
212.596	1.55
212.815	1.12
213.034	1.12
213.253	1.43
213.472	1.31
213.691	0.86
213.91	0.8
214.128	0.71
214.347	1.51
214.566	0.51
214.785	0.43
215.003	1.09
215.222	1.32
215.441	0.75
215.66	0.5
215.878	0.87
216.097	1.07
216.316	0.78
216.534	0.82
216.753	1.07
216.972	0.9
217.19	0.76
217.409	0.76
217.627	0.77
217.846	0.84
218.064	0.8
218.283	0.68
218.501	1.27
218.72	1.18
218.938	0.62
219.157	0.62
219.375	0.98
219.594	1.22
219.812	0.5
220.031	0.6
220.249	1.18
220.467	1.07
220.686	0.62
220.904	0.52
221.122	0.67
221.341	1.15
221.559	0.74
221.777	0.62
221.995	0.85
222.214	0.99
222.432	0.75
222.65	0.82
222.868	0.77
223.086	0.78
223.305	0.7
223.523	0.71
223.741	0.97
223.959	0.66
224.177	0.34
224.395	0.51
224.613	0.74
224.831	0.99
225.049	0.51
225.267	0.62
225.485	0.72
225.703	0.48
225.921	0.69
226.139	0.5
226.357	0.93
226.575	0.78
226.793	0.54
227.011	1.4
227.229	0.61
227.447	0.94
227.665	0.49
227.883	0.38
228.1	0.71
228.318	0.73
228.536	0.21
228.754	0.46
228.972	0.73
229.189	0.74
229.407	0.58
229.625	0.55
229.843	0.76
230.06	0.72
230.278	0.42
230.496	0.55
230.713	0.73
230.931	0.75
231.149	0.46
231.366	0.33
231.584	0.64
231.801	1.02
232.019	0.49
232.236	0.41
232.454	0.37
232.671	0.68
232.889	0.48
233.106	0.49
233.324	0.54
233.541	0.56
233.759	0.57
233.976	0.37
234.194	0.44
234.411	0.53
234.628	0.35
234.846	0.54
235.063	0.58
235.28	0.64
235.498	0.43
235.715	0.25
235.932	0.67
236.149	0.53
236.367	0.33
236.584	0.57
236.801	0.55
237.018	0.68
237.236	0.47
237.453	0.29
237.67	0.62
237.887	0.52
238.104	0.43
238.321	0.31
238.538	0.39
238.755	0.73
238.973	0.29
239.19	0.47
239.407	0.61
239.624	0.66
239.841	0.39
240.058	0.31
240.275	0.5
240.492	0.56
240.709	0.45
240.925	0.45
241.142	0.58
241.359	0.35
241.576	0.42
241.793	0.41
242.01	0.47
242.227	0.66
242.444	0.48
242.66	0.59
242.877	0.5
243.094	0.38
243.311	0.43
243.527	0.4
243.744	0.46
243.961	0.54
244.178	0.29
244.394	0.45
244.611	0.68
244.828	0.67
245.044	0.35
245.261	0.32
245.477	0.45
245.694	0.6
245.911	0.39
246.127	0.4
246.344	0.77
246.56	0.6
246.777	0.41
246.993	0.35
247.21	0.46
247.426	0.61
247.643	0.36
247.859	0.27
248.076	0.4
248.292	0.71
248.508	0.35
248.725	0.54
248.941	0.58
249.157	0.52
249.374	0.35
249.59	0.42
249.806	0.39
250.023	0.49
250.239	0.29
250.455	0.33
250.671	0.53
250.888	0.51
251.104	0.45
251.32	0.35
251.536	0.4
251.752	0.45
251.969	0.37
252.185	0.42
252.401	0.69
252.617	0.49
252.833	0.34
253.049	0.44
253.265	0.38
253.481	0.49
253.697	0.27
253.913	0.3
254.129	0.55
254.345	0.4
254.561	0.33
254.777	0.4
254.993	0.45
255.209	0.38
255.425	0.35
255.641	0.37
255.857	0.44
256.073	0.44
256.288	0.26
256.504	0.32
256.72	0.42
256.936	0.64
257.152	0.32
257.367	0.26
257.583	0.38
257.799	0.52
258.015	0.25
258.23	0.33
258.446	0.51
258.662	0.4
258.877	0.24
259.093	0.3
259.309	0.41
259.524	0.47
259.74	0.31
259.955	0.18
260.171	0.39
260.387	0.42
260.602	0.45
260.818	0.43
261.033	0.25
261.249	0.33
261.464	0.3
261.68	0.19
261.895	0.44
262.11	0.44
262.326	0.3
262.541	0.25
262.757	0.4
262.972	0.39
263.187	0.42
263.403	0.29
263.618	0.39
263.833	0.42
264.049	0.34
264.264	0.32
264.479	0.32
264.694	0.54
264.91	0.22
265.125	0.36
265.34	0.43
265.555	0.55
265.77	0.34
265.986	0.29
266.201	0.43
266.416	0.44
266.631	0.36
266.846	0.31
267.061	0.36
267.276	0.47
267.491	0.25
267.706	0.42
267.921	0.4
268.136	0.33
268.351	0.27
268.566	0.3
268.781	0.46
268.996	0.46
269.211	0.3
269.426	0.23
269.641	0.35
269.856	0.48
270.071	0.29
270.285	0.21
270.5	0.43
270.715	0.44
270.93	0.24
271.145	0.33
271.359	0.49
271.574	0.32
271.789	0.32
272.004	0.28
272.218	0.3
272.433	0.37
272.648	0.28
272.862	0.41
273.077	0.39
273.292	0.37
273.506	0.3
273.721	0.26
273.936	0.45
274.15	0.44
274.365	0.31
274.579	0.38
274.794	0.4
275.008	0.37
275.223	0.23
275.437	0.3
275.652	0.39
275.866	0.39
276.081	0.33
276.295	0.39
276.509	0.34
276.724	0.29
276.938	0.36
277.153	0.3
277.367	0.43
277.581	0.26
277.796	0.3
278.01	0.25
278.224	0.38
278.438	0.49
278.653	0.28
278.867	0.29
279.081	0.45
279.295	0.28
279.51	0.33
279.724	0.23
279.938	0.4
280.152	0.29
280.366	0.28
280.58	0.32
280.794	0.42
281.008	0.41
281.222	0.38
281.437	0.48
281.651	0.3
281.865	0.45
282.079	0.28
282.293	0.19
282.507	0.26
282.721	0.31
282.935	0.27
283.148	0.21
283.362	0.28
283.576	0.24
283.79	0.3
284.004	0.25
284.218	0.42
284.432	0.26
284.646	0.29
284.859	0.26
285.073	0.29
285.287	0.3
285.501	0.31
285.714	0.26
285.928	0.26
286.142	0.33
286.356	0.24
286.569	0.3
286.783	0.4
286.997	0.34
287.21	0.3
287.424	0.24
287.637	0.26
287.851	0.28
288.065	0.38
288.278	0.29
288.492	0.39
288.705	0.27
288.919	0.32
289.132	0.19
289.346	0.33
289.559	0.21
289.773	0.25
289.986	0.25
290.2	0.29
290.413	0.35
290.626	0.23
290.84	0.24
291.053	0.25
291.267	0.39
291.48	0.28
291.693	0.23
291.906	0.25
292.12	0.28
292.333	0.21
292.546	0.22
292.76	0.43
292.973	0.29
293.186	0.32
293.399	0.25
293.612	0.38
293.826	0.25
294.039	0.34
294.252	0.31
294.465	0.3
294.678	0.29
294.891	0.28
295.104	0.22
295.317	0.22
295.53	0.31
295.743	0.26
295.956	0.21
296.169	0.38
296.382	0.31
296.595	0.23
296.808	0.23
297.021	0.33
297.234	0.36
297.447	0.25
297.66	0.27
297.873	0.3
298.086	0.34
298.299	0.2
298.511	0.19
298.724	0.24
298.937	0.26
299.15	0.22
299.363	0.24
299.575	0.33
299.788	0.32
300.001	0.23
300.213	0.24
300.426	0.25
300.639	0.2
300.852	0.2
301.064	0.27
301.277	0.36
301.489	0.31
301.702	0.3
301.915	0.24
302.127	0.23
302.34	0.28
302.552	0.27
302.765	0.22
302.977	0.33
303.19	0.22
303.402	0.24
303.615	0.25
303.827	0.29
304.04	0.23
304.252	0.28
304.464	0.24
304.677	0.4
304.889	0.29
305.102	0.24
305.314	0.21
305.526	0.3
305.739	0.31
305.951	0.22
306.163	0.25
306.375	0.37
306.588	0.23
306.8	0.26
307.012	0.18
307.224	0.26
307.436	0.32
307.649	0.21
307.861	0.27
308.073	0.29
308.285	0.23
308.497	0.21
308.709	0.19
308.921	0.23
309.133	0.34
309.346	0.24
309.558	0.25
309.77	0.3
309.982	0.3
310.194	0.29
310.406	0.25
310.617	0.35
310.829	0.24
311.041	0.28
311.253	0.23
311.465	0.26
311.677	0.25
311.889	0.26
312.101	0.19
312.313	0.3
312.524	0.38
312.736	0.23
312.948	0.22
313.16	0.36
313.372	0.33
313.583	0.29
313.795	0.26
314.007	0.27
314.218	0.25
314.43	0.27
314.642	0.22
314.853	0.16
315.065	0.31
315.277	0.25
315.488	0.27
315.7	0.29
315.912	0.29
316.123	0.26
316.335	0.23
316.546	0.36
316.758	0.24
316.969	0.23
317.181	0.29
317.392	0.26
317.604	0.34
317.815	0.21
318.026	0.21
318.238	0.29
318.449	0.31
318.661	0.17
318.872	0.22
319.083	0.22
319.295	0.31
319.506	0.23
319.717	0.29
319.929	0.3
320.14	0.27
320.351	0.25
320.562	0.25
320.774	0.26
320.985	0.25
321.196	0.25
321.407	0.19
321.618	0.31
321.829	0.28
322.041	0.28
322.252	0.24
322.463	0.32
322.674	0.29
322.885	0.2
323.096	0.25
323.307	0.27
323.518	0.26
323.729	0.2
323.94	0.23
324.151	0.24
324.362	0.26
324.573	0.26
324.784	0.21
324.995	0.33
325.206	0.27
325.417	0.24
325.628	0.2
325.838	0.27
326.049	0.29
326.26	0.27
326.471	0.27
326.682	0.31
326.892	0.28
327.103	0.14
327.314	0.18
327.525	0.34
327.735	0.29
327.946	0.22
328.157	0.2
328.368	0.36
328.578	0.29
328.789	0.31
328.999	0.25
329.21	0.2
329.421	0.3
329.631	0.24
329.842	0.21
330.052	0.25
330.263	0.29
330.473	0.32
330.684	0.2
330.894	0.23
331.105	0.28
331.315	0.28
331.526	0.17
331.736	0.34
331.947	0.27
332.157	0.26
332.367	0.17
332.578	0.31
332.788	0.32
332.999	0.34
333.209	0.24
333.419	0.16
333.629	0.32
333.84	0.29
334.05	0.24
334.26	0.4
334.47	0.23
334.681	0.3
334.891	0.25
335.101	0.28
335.311	0.36
335.521	0.23
335.732	0.22
335.942	0.3
336.152	0.3
336.362	0.31
336.572	0.28
336.782	0.3
336.992	0.18
337.202	0.2
337.412	0.24
337.622	0.24
337.832	0.25
338.042	0.24
338.252	0.19
338.462	0.23
338.672	0.29
338.882	0.2
339.092	0.25
339.302	0.34
339.511	0.32
339.721	0.22
339.931	0.16
340.141	0.29
340.351	0.3
340.561	0.23
340.77	0.28
340.98	0.27
341.19	0.27
341.4	0.26
341.609	0.2
341.819	0.25
342.029	0.18
342.238	0.26
342.448	0.24
342.658	0.32
342.867	0.21
343.077	0.24
343.286	0.22
343.496	0.27
343.706	0.34
343.915	0.16
344.125	0.24
344.334	0.28
344.544	0.21
344.753	0.21
344.963	0.22
345.172	0.2
345.381	0.21
345.591	0.22
345.8	0.23
346.01	0.29
346.219	0.31
346.428	0.14
346.638	0.23
346.847	0.29
347.056	0.31
347.266	0.23
347.475	0.18
347.684	0.26
347.893	0.28
348.103	0.3
348.312	0.21
348.521	0.26
348.73	0.25
348.94	0.25
349.149	0.24
349.358	0.22
349.567	0.24
349.776	0.19
349.985	0.23
350.194	0.27
350.403	0.28
350.612	0.21
350.821	0.17
351.03	0.22
351.239	0.16
351.448	0.26
351.657	0.19
351.866	0.36
352.075	0.24
352.284	0.25
352.493	0.2
352.702	0.34
352.911	0.31
353.12	0.24
353.329	0.23
353.538	0.26
353.746	0.27
353.955	0.19
354.164	0.29
354.373	0.21
354.582	0.31
354.79	0.27
354.999	0.29
355.208	0.23
355.416	0.37
355.625	0.18
355.834	0.25
356.042	0.29
356.251	0.21
356.46	0.17
356.668	0.26
356.877	0.33
357.085	0.28
357.294	0.16
357.503	0.27
357.711	0.24
357.92	0.45
358.128	0.29
358.337	0.22
358.545	0.24
358.754	0.26
358.962	0.28
359.17	0.24
359.379	0.27
359.587	0.28
359.796	0.21
360.004	0.27
360.212	0.32
360.421	0.34
360.629	0.22
360.837	0.21
361.046	0.3
361.254	0.38
361.462	0.16
361.67	0.23
361.879	0.28
362.087	0.33
362.295	0.28
362.503	0.26
362.711	0.24
362.92	0.21
363.128	0.22
363.336	0.16
363.544	0.18
363.752	0.26
363.96	0.27
364.168	0.23
364.376	0.27
364.584	0.25
364.792	0.28
365	0.26
365.208	0.3
365.416	0.26
365.624	0.3
365.832	0.24
366.04	0.31
366.248	0.25
366.456	0.21
366.664	0.26
366.872	0.25
367.079	0.27
367.287	0.24
367.495	0.22
367.703	0.25
367.911	0.23
368.118	0.27
368.326	0.24
368.534	0.19
368.742	0.33
368.949	0.21
369.157	0.23
369.365	0.3
369.572	0.28
369.78	0.21
369.988	0.27
370.195	0.28
370.403	0.29
370.61	0.17
370.818	0.21
371.026	0.35
371.233	0.19
371.441	0.28
371.648	0.21
371.856	0.25
372.063	0.28
372.271	0.22
372.478	0.24
372.685	0.25
372.893	0.33
373.1	0.22
373.308	0.24
373.515	0.35
373.722	0.31
373.93	0.24
374.137	0.23
374.344	0.36
374.552	0.32
374.759	0.29
374.966	0.25
375.173	0.23
375.381	0.33
375.588	0.27
375.795	0.19
376.002	0.21
376.209	0.21
376.417	0.25
376.624	0.28
376.831	0.29
377.038	0.23
377.245	0.18
377.452	0.26
377.659	0.25
377.866	0.21
378.073	0.25
378.28	0.25
378.487	0.34
378.694	0.3
378.901	0.29
379.108	0.27
379.315	0.33
379.522	0.43
379.729	0.26
379.936	0.24
380.143	0.29
380.35	0.25
380.557	0.21
380.763	0.24
380.97	0.29
381.177	0.25
381.384	0.25
381.591	0.2
381.797	0.33
382.004	0.33
382.211	0.28
382.418	0.23
382.624	0.29
382.831	0.3
383.038	0.28
383.244	0.3
383.451	0.31
383.658	0.31
383.864	0.24
384.071	0.25
384.277	0.36
384.484	0.23
384.69	0.34
384.897	0.23
385.103	0.31
385.31	0.23
385.516	0.23
385.723	0.21
385.929	0.3
386.136	0.28
386.342	0.29
386.549	0.22
386.755	0.34
386.961	0.35
387.168	0.27
387.374	0.25
387.58	0.31
387.787	0.26
387.993	0.27
388.199	0.27
388.406	0.24
388.612	0.28
388.818	0.28
389.024	0.22
389.231	0.29
389.437	0.37
389.643	0.31
389.849	0.28
390.055	0.31
390.261	0.28
390.467	0.34
390.674	0.28
390.88	0.29
391.086	0.37
391.292	0.24
391.498	0.35
391.704	0.33
391.91	0.28
392.116	0.24
392.322	0.19
392.528	0.34
392.734	0.33
392.94	0.27
393.146	0.27
393.352	0.38
393.557	0.3
393.763	0.28
393.969	0.36
394.175	0.3
394.381	0.32
394.587	0.27
394.792	0.3
394.998	0.39
395.204	0.38
395.41	0.33
395.615	0.34
395.821	0.33
396.027	0.34
396.233	0.27
396.438	0.35
396.644	0.39
396.85	0.37
397.055	0.29
397.261	0.32
397.466	0.34
397.672	0.34
397.878	0.38
398.083	0.41
398.289	0.29
398.494	0.44
398.7	0.39
398.905	0.26
399.111	0.41
399.316	0.31
399.522	0.38
399.727	0.33
399.932	0.33
400.138	0.3
400.343	0.36
400.549	0.34
400.754	0.32
400.959	0.37
401.165	0.33
401.37	0.39
401.575	0.5
401.78	0.35
401.986	0.33
402.191	0.33
402.396	0.35
402.601	0.39
402.807	0.4
403.012	0.39
403.217	0.44
403.422	0.45
403.627	0.42
403.832	0.37
404.037	0.5
404.243	0.45
404.448	0.39
404.653	0.39
404.858	0.51
405.063	0.5
405.268	0.38
405.473	0.35
405.678	0.4
405.883	0.65
406.088	0.51
406.293	0.42
406.498	0.45
406.703	0.54
406.907	0.46
407.112	0.43
407.317	0.52
407.522	0.6
407.727	0.44
407.932	0.52
408.136	0.67
408.341	0.5
408.546	0.54
408.751	0.58
408.956	0.59
409.16	0.64
409.365	0.6
409.57	0.64
409.774	0.66
409.979	0.63
410.184	0.68
410.388	0.62
410.593	0.8
410.798	0.76
411.002	0.66
411.207	0.78
411.411	0.8
411.616	0.75
411.82	0.84
412.025	0.86
412.229	0.86
412.434	0.96
412.638	0.91
412.843	0.88
413.047	0.95
413.252	0.91
413.456	0.99
413.66	1.08
413.865	1.04
414.069	1.11
414.273	1.07
414.478	1.07
414.682	1.19
414.886	1.19
415.091	1.16
415.295	1.19
415.499	1.33
415.703	1.33
415.908	1.42
416.112	1.36
416.316	1.54
416.52	1.55
416.724	1.49
416.929	1.64
417.133	1.8
417.337	1.64
417.541	1.74
417.745	1.79
417.949	1.92
418.153	1.96
418.357	1.95
418.561	2.25
418.765	2.15
418.969	2.36
419.173	2.4
419.377	2.36
419.581	2.62
419.785	2.58
419.989	2.57
420.193	2.74
420.397	2.83
420.601	2.97
420.804	3
421.008	3.02
421.212	3.2
421.416	3.15
421.62	3.17
421.823	3.24
422.027	3.47
422.231	3.43
422.435	3.44
422.638	3.43
422.842	3.55
423.046	3.68
423.249	3.79
423.453	3.82
423.657	4.02
423.86	4.11
424.064	4.23
424.268	4.4
424.471	4.45
424.675	4.66
424.878	4.68
425.082	4.76
425.285	5.09
425.489	4.96
425.692	5.13
425.896	5.15
426.099	5.34
426.303	5.48
426.506	5.56
426.71	5.9
426.913	6.08
427.116	6.21
427.32	6.16
427.523	6.16
427.726	6.59
427.93	6.63
428.133	6.92
428.336	7.12
428.54	7.33
428.743	7.51
428.946	7.65
429.149	7.8
429.353	7.83
429.556	7.79
429.759	7.85
429.962	8.15
430.165	8.15
430.368	7.84
430.571	7.91
430.775	7.89
430.978	7.9
431.181	8.08
431.384	8.04
431.587	8.13
431.79	8.6
431.993	8.4
432.196	8.79
432.399	9.2
432.602	9.26
432.805	9.32
433.008	9.86
433.211	9.63
433.414	10.09
433.616	10.07
433.819	10.14
434.022	10.28
434.225	10.48
434.428	10.46
434.631	10.89
434.833	10.73
435.036	10.85
435.239	11.11
435.442	11.19
435.645	11.32
435.847	11.47
436.05	11.7
436.253	12.05
436.455	12.01
436.658	11.87
436.861	12.25
437.063	12.22
437.266	12.24
437.468	12.6
437.671	12.94
437.874	12.9
438.076	12.76
438.279	13.35
438.481	13.34
438.684	13.97
438.886	13.7
439.089	13.9
439.291	13.98
439.494	14.33
439.696	14.42
439.899	14.95
440.101	15.42
440.303	15.69
440.506	16.32
440.708	16.01
440.91	16.37
441.113	16.43
441.315	16.7
441.517	16.53
441.72	17.03
441.922	16.67
442.124	16.56
442.326	16.96
442.529	17.09
442.731	17.11
442.933	17.46
443.135	17.26
443.337	17.15
443.539	17.87
443.742	17.46
443.944	18.16
444.146	17.82
444.348	17.81
444.55	17.72
444.752	17.85
444.954	17.99
445.156	17.73
445.358	18.3
445.56	18.56
445.762	18.31
445.964	18.67
446.166	18.38
446.368	18.44
446.57	18.39
446.772	18
446.974	17.79
447.175	18.04
447.377	17.73
447.579	18.28
447.781	17.94
447.983	17.73
448.184	17.37
448.386	17.68
448.588	17.12
448.79	17.18
448.991	17.38
449.193	17.43
449.395	16.85
449.597	16.47
449.798	16.27
450	15.91
450.202	15.9
450.403	15.87
450.605	15.78
450.806	15.42
451.008	15.17
451.21	14.97
451.411	14.58
451.613	13.66
451.814	14.15
452.016	14.04
452.217	13.44
452.419	13.46
452.62	12.96
452.821	12.79
453.023	12.7
453.224	12.3
453.426	11.91
453.627	11.14
453.828	11.29
454.03	11.3
454.231	11.38
454.432	11.14
454.634	10.95
454.835	10.59
455.036	10.46
455.238	10.09
455.439	9.8
455.64	9.58
455.841	9.36
456.042	9.52
456.244	9.2
456.445	8.94
456.646	8.72
456.847	8.65
457.048	8.57
457.249	8.58
457.45	8.36
457.651	7.85
457.852	7.65
458.054	7.34
458.255	7.26
458.456	7.45
458.657	7.18
458.858	6.8
459.058	6.76
459.259	6.87
459.46	6.49
459.661	6.49
459.862	6.47
460.063	6.35
460.264	6.26
460.465	6.01
460.666	6.11
460.866	5.8
461.067	5.52
461.268	5.56
461.469	5.5
461.67	5.39
461.87	5.28
462.071	5.27
462.272	5.18
462.473	5.14
462.673	5.3
462.874	5.18
463.075	5.19
463.275	5.05
463.476	5.17
463.676	5.08
463.877	5.04
464.078	4.92
464.278	4.96
464.479	4.85
464.679	4.82
464.88	4.76
465.08	4.76
465.281	4.56
465.481	4.38
465.682	4.14
465.882	4.17
466.083	4.14
466.283	4.06
466.483	3.88
466.684	3.75
466.884	3.73
467.085	3.7
467.285	3.77
467.485	3.68
467.686	3.61
467.886	3.44
468.086	3.46
468.286	3.4
468.487	3.49
468.687	3.34
468.887	3.21
469.087	3.4
469.287	3.29
469.488	2.99
469.688	3.24
469.888	3.2
470.088	3.16
470.288	3.14
470.488	3.04
470.688	2.87
470.888	2.9
471.088	2.73
471.288	2.87
471.488	2.78
471.688	2.75
471.888	2.72
472.088	2.84
472.288	2.76
472.488	2.64
472.688	2.58
472.888	2.64
473.088	2.65
473.288	2.5
473.488	2.48
473.688	2.66
473.887	2.54
474.087	2.47
474.287	2.44
474.487	2.39
474.687	2.44
474.886	2.37
475.086	2.29
475.286	2.33
475.486	2.33
475.685	2.26
475.885	2.2
476.085	2.28
476.284	2.29
476.484	2.25
476.684	2.18
476.883	2.3
477.083	2.2
477.282	2.07
477.482	2.23
477.681	2.18
477.881	2.14
478.08	2.09
478.28	2.06
478.479	2.1
478.679	2.15
478.878	2.04
479.078	2.04
479.277	2.11
479.477	2.08
479.676	2.02
479.875	2.03
480.075	1.98
480.274	2.06
480.473	2.05
480.673	2.03
480.872	2.14
481.071	2.09
481.271	2.06
481.47	2.02
481.669	2.01
481.868	1.99
482.067	2
482.267	1.93
482.466	1.97
482.665	2.01
482.864	1.98
483.063	1.94
483.262	2.05
483.461	2.02
483.661	2.09
483.86	1.97
484.059	2.08
484.258	2.06
484.457	2.06
484.656	2.02
484.855	2.11
485.054	1.94
485.253	2
485.452	1.96
485.651	2.04
485.849	2.04
486.048	2.01
486.247	2.05
486.446	2.09
486.645	2.04
486.844	2.1
487.043	2.04
487.241	2.12
487.44	2.09
487.639	2.1
487.838	2.12
488.037	2.1
488.235	2.23
488.434	2.21
488.633	2.05
488.831	2.21
489.03	2.25
489.229	2.22
489.427	2.2
489.626	2.31
489.825	2.26
490.023	2.31
490.222	2.26
490.42	2.33
490.619	2.35
490.817	2.38
491.016	2.36
491.214	2.43
491.413	2.44
491.611	2.36
491.81	2.35
492.008	2.45
492.207	2.54
492.405	2.52
492.604	2.47
492.802	2.55
493	2.64
493.199	2.62
493.397	2.65
493.595	2.72
493.794	2.66
493.992	2.8
494.19	2.71
494.388	2.8
494.587	2.74
494.785	2.75
494.983	2.71
495.181	2.83
495.379	2.89
495.578	2.9
495.776	2.97
495.974	2.91
496.172	2.95
496.37	3.09
496.568	3.07
496.766	3.06
496.964	3.18
497.162	3.16
497.36	3.21
497.558	3.24
497.756	3.26
497.954	3.27
498.152	3.29
498.35	3.44
498.548	3.38
498.746	3.41
498.944	3.39
499.142	3.47
499.34	3.52
499.538	3.59
499.736	3.52
499.933	3.64
500.131	3.63
500.329	3.73
500.527	3.74
500.725	3.82
500.922	3.84
501.12	3.87
501.318	3.93
501.516	3.93
501.713	4.02
501.911	3.98
502.109	3.91
502.306	4.07
502.504	4
502.701	4.07
