Data from Apollo_Calib_20240827__AbsoluteIrradiance__43__23-52-02-573.txt Node

Date: Tue Aug 27 23:52:02 BST 2024
User: biology
Spectrometer: FLMT08252
Trigger mode: 0
Integration Time (sec): 5.000000E-1
Scans to average: 5
Electric dark correction enabled: true
Nonlinearity correction enabled: false
Boxcar width: 0
XAxis mode: Wavelengths
Number of Pixels in Spectrum: 3648
>>>>>Begin Spectral Data<<<<<
179.588	-0
179.809	-0
180.03	-0
180.251	-0
180.473	-0
180.694	0
180.915	0
181.136	-0
181.357	0
181.578	-0
181.799	-0
182.02	-0
182.241	0
182.462	-0
182.683	0
182.904	-0
183.125	0
183.346	0
183.567	0
183.788	0
184.009	0
184.23	0
184.451	0
184.672	0
184.892	0
185.113	0
185.334	0
185.555	0
185.776	0
185.996	0
186.217	0
186.438	0
186.659	0
186.879	0
187.1	0
187.321	0
187.541	0
187.762	0
187.983	0
188.203	0
188.424	0
188.644	0
188.865	0
189.086	0
189.306	0
189.527	0
189.747	0
189.968	0
190.188	0
190.409	0
190.629	0
190.849	0
191.07	0
191.29	0
191.511	0
191.731	0
191.951	0
192.172	0
192.392	0
192.612	0
192.833	0
193.053	0
193.273	0
193.493	0
193.714	0
193.934	0
194.154	0
194.374	0
194.594	0
194.815	0
195.035	0
195.255	0
195.475	0
195.695	0
195.915	0
196.135	0
196.355	0
196.575	0
196.795	0
197.015	0
197.235	0
197.455	0
197.675	0
197.895	0
198.115	0
198.335	0
198.555	0
198.775	0
198.995	0
199.214	0
199.434	0
199.654	0
199.874	0
200.094	3.92
200.313	2.52
200.533	1.91
200.753	1.76
200.973	3.25
201.192	2.39
201.412	1.46
201.632	2.2
201.851	3.13
202.071	1.47
202.291	1.67
202.51	1.13
202.73	2.13
202.95	1.52
203.169	1.34
203.389	2.07
203.608	2.04
203.828	1.48
204.047	1.51
204.267	2.35
204.486	1.97
204.706	1.89
204.925	1.75
205.145	1.47
205.364	2.3
205.583	2.05
205.803	1.4
206.022	1.48
206.242	1.42
206.461	1.69
206.68	1.09
206.9	1.36
207.119	2.05
207.338	1.98
207.557	1.13
207.777	0.93
207.996	1.54
208.215	1.94
208.434	1.05
208.654	0.96
208.873	1.45
209.092	1.71
209.311	1.11
209.53	1.41
209.749	1.46
209.968	1.27
210.187	1.17
210.407	0.71
210.626	1.21
210.845	1.41
211.064	1.31
211.283	0.97
211.502	1.49
211.721	1.07
211.94	0.97
212.159	1.27
212.377	1.53
212.596	1.24
212.815	1.33
213.034	1.29
213.253	1.34
213.472	1.39
213.691	1.1
213.91	0.67
214.128	0.89
214.347	1.42
214.566	0.57
214.785	0.59
215.003	1.2
215.222	1.14
215.441	0.93
215.66	0.59
215.878	1.02
216.097	1.1
216.316	0.74
216.534	0.92
216.753	0.84
216.972	0.71
217.19	0.91
217.409	0.66
217.627	0.79
217.846	0.73
218.064	1.05
218.283	0.8
218.501	1.34
218.72	1.17
218.938	0.72
219.157	0.76
219.375	1.15
219.594	1.09
219.812	0.54
220.031	0.66
220.249	1.01
220.467	1.07
220.686	0.68
220.904	0.62
221.122	0.55
221.341	1.2
221.559	0.77
221.777	0.47
221.995	0.73
222.214	0.72
222.432	0.56
222.65	1.07
222.868	0.77
223.086	0.91
223.305	0.9
223.523	0.63
223.741	1.06
223.959	0.61
224.177	0.39
224.395	0.41
224.613	0.79
224.831	0.95
225.049	0.37
225.267	0.59
225.485	0.67
225.703	0.7
225.921	0.65
226.139	0.53
226.357	0.71
226.575	0.76
226.793	0.5
227.011	1.22
227.229	0.69
227.447	0.82
227.665	0.43
227.883	0.35
228.1	0.74
228.318	0.58
228.536	0.36
228.754	0.58
228.972	0.74
229.189	0.62
229.407	0.48
229.625	0.55
229.843	0.8
230.06	0.77
230.278	0.57
230.496	0.58
230.713	0.74
230.931	0.78
231.149	0.61
231.366	0.39
231.584	0.55
231.801	1.01
232.019	0.53
232.236	0.34
232.454	0.4
232.671	0.7
232.889	0.53
233.106	0.34
233.324	0.55
233.541	0.67
233.759	0.61
233.976	0.43
234.194	0.42
234.411	0.61
234.628	0.36
234.846	0.52
235.063	0.62
235.28	0.58
235.498	0.49
235.715	0.4
235.932	0.67
236.149	0.6
236.367	0.42
236.584	0.53
236.801	0.54
237.018	0.6
237.236	0.42
237.453	0.31
237.67	0.61
237.887	0.49
238.104	0.47
238.321	0.42
238.538	0.44
238.755	0.59
238.973	0.36
239.19	0.56
239.407	0.68
239.624	0.58
239.841	0.34
240.058	0.34
240.275	0.6
240.492	0.45
240.709	0.47
240.925	0.42
241.142	0.51
241.359	0.39
241.576	0.39
241.793	0.41
242.01	0.43
242.227	0.44
242.444	0.49
242.66	0.63
242.877	0.49
243.094	0.34
243.311	0.47
243.527	0.47
243.744	0.49
243.961	0.54
244.178	0.42
244.394	0.43
244.611	0.62
244.828	0.65
245.044	0.41
245.261	0.49
245.477	0.48
245.694	0.56
245.911	0.42
246.127	0.39
246.344	0.55
246.56	0.51
246.777	0.31
246.993	0.46
247.21	0.49
247.426	0.44
247.643	0.47
247.859	0.28
248.076	0.38
248.292	0.67
248.508	0.32
248.725	0.48
248.941	0.41
249.157	0.55
249.374	0.29
249.59	0.42
249.806	0.45
250.023	0.43
250.239	0.3
250.455	0.36
250.671	0.45
250.888	0.42
251.104	0.45
251.32	0.35
251.536	0.48
251.752	0.4
251.969	0.48
252.185	0.43
252.401	0.58
252.617	0.46
252.833	0.33
253.049	0.42
253.265	0.39
253.481	0.37
253.697	0.3
253.913	0.28
254.129	0.45
254.345	0.38
254.561	0.37
254.777	0.42
254.993	0.51
255.209	0.43
255.425	0.31
255.641	0.32
255.857	0.43
256.073	0.38
256.288	0.3
256.504	0.34
256.72	0.46
256.936	0.53
257.152	0.29
257.367	0.32
257.583	0.35
257.799	0.46
258.015	0.37
258.23	0.25
258.446	0.54
258.662	0.38
258.877	0.35
259.093	0.31
259.309	0.35
259.524	0.38
259.74	0.28
259.955	0.29
260.171	0.43
260.387	0.35
260.602	0.39
260.818	0.46
261.033	0.3
261.249	0.37
261.464	0.28
261.68	0.31
261.895	0.36
262.11	0.36
262.326	0.37
262.541	0.28
262.757	0.42
262.972	0.37
263.187	0.42
263.403	0.39
263.618	0.45
263.833	0.4
264.049	0.28
264.264	0.37
264.479	0.4
264.694	0.4
264.91	0.24
265.125	0.31
265.34	0.34
265.555	0.59
265.77	0.41
265.986	0.29
266.201	0.43
266.416	0.49
266.631	0.29
266.846	0.37
267.061	0.44
267.276	0.42
267.491	0.2
267.706	0.38
267.921	0.36
268.136	0.38
268.351	0.36
268.566	0.27
268.781	0.48
268.996	0.41
269.211	0.34
269.426	0.24
269.641	0.26
269.856	0.34
270.071	0.28
270.285	0.24
270.5	0.46
270.715	0.45
270.93	0.29
271.145	0.33
271.359	0.41
271.574	0.34
271.789	0.31
272.004	0.32
272.218	0.35
272.433	0.34
272.648	0.26
272.862	0.46
273.077	0.33
273.292	0.34
273.506	0.33
273.721	0.3
273.936	0.35
274.15	0.44
274.365	0.3
274.579	0.37
274.794	0.37
275.008	0.36
275.223	0.27
275.437	0.35
275.652	0.47
275.866	0.3
276.081	0.28
276.295	0.35
276.509	0.36
276.724	0.34
276.938	0.32
277.153	0.29
277.367	0.4
277.581	0.28
277.796	0.26
278.01	0.28
278.224	0.35
278.438	0.45
278.653	0.22
278.867	0.27
279.081	0.23
279.295	0.28
279.51	0.29
279.724	0.27
279.938	0.32
280.152	0.31
280.366	0.21
280.58	0.32
280.794	0.46
281.008	0.39
281.222	0.32
281.437	0.41
281.651	0.36
281.865	0.36
282.079	0.3
282.293	0.25
282.507	0.28
282.721	0.29
282.935	0.3
283.148	0.21
283.362	0.28
283.576	0.28
283.79	0.29
284.004	0.22
284.218	0.38
284.432	0.24
284.646	0.24
284.859	0.21
285.073	0.26
285.287	0.24
285.501	0.31
285.714	0.3
285.928	0.31
286.142	0.31
286.356	0.28
286.569	0.29
286.783	0.42
286.997	0.35
287.21	0.29
287.424	0.3
287.637	0.24
287.851	0.27
288.065	0.31
288.278	0.28
288.492	0.33
288.705	0.28
288.919	0.35
289.132	0.19
289.346	0.3
289.559	0.22
289.773	0.18
289.986	0.25
290.2	0.26
290.413	0.32
290.626	0.21
290.84	0.28
291.053	0.25
291.267	0.3
291.48	0.24
291.693	0.25
291.906	0.28
292.12	0.3
292.333	0.26
292.546	0.23
292.76	0.41
292.973	0.32
293.186	0.3
293.399	0.27
293.612	0.34
293.826	0.28
294.039	0.28
294.252	0.27
294.465	0.26
294.678	0.3
294.891	0.28
295.104	0.2
295.317	0.26
295.53	0.31
295.743	0.27
295.956	0.27
296.169	0.35
296.382	0.29
296.595	0.24
296.808	0.18
297.021	0.34
297.234	0.32
297.447	0.28
297.66	0.27
297.873	0.29
298.086	0.3
298.299	0.26
298.511	0.2
298.724	0.32
298.937	0.2
299.15	0.21
299.363	0.24
299.575	0.32
299.788	0.26
300.001	0.22
300.213	0.21
300.426	0.21
300.639	0.25
300.852	0.2
301.064	0.3
301.277	0.29
301.489	0.32
301.702	0.27
301.915	0.3
302.127	0.29
302.34	0.32
302.552	0.27
302.765	0.24
302.977	0.29
303.19	0.23
303.402	0.23
303.615	0.25
303.827	0.25
304.04	0.3
304.252	0.26
304.464	0.24
304.677	0.32
304.889	0.3
305.102	0.22
305.314	0.21
305.526	0.32
305.739	0.28
305.951	0.18
306.163	0.21
306.375	0.34
306.588	0.22
306.8	0.25
307.012	0.19
307.224	0.24
307.436	0.37
307.649	0.17
307.861	0.23
308.073	0.26
308.285	0.24
308.497	0.21
308.709	0.21
308.921	0.3
309.133	0.34
309.346	0.29
309.558	0.2
309.77	0.3
309.982	0.36
310.194	0.25
310.406	0.23
310.617	0.33
310.829	0.25
311.041	0.3
311.253	0.21
311.465	0.21
311.677	0.27
311.889	0.25
312.101	0.21
312.313	0.31
312.524	0.34
312.736	0.18
312.948	0.24
313.16	0.34
313.372	0.32
313.583	0.27
313.795	0.22
314.007	0.22
314.218	0.27
314.43	0.24
314.642	0.21
314.853	0.2
315.065	0.28
315.277	0.26
315.488	0.21
315.7	0.29
315.912	0.31
316.123	0.21
316.335	0.26
316.546	0.38
316.758	0.25
316.969	0.25
317.181	0.26
317.392	0.23
317.604	0.3
317.815	0.19
318.026	0.18
318.238	0.2
318.449	0.27
318.661	0.18
318.872	0.17
319.083	0.23
319.295	0.31
319.506	0.23
319.717	0.3
319.929	0.28
320.14	0.28
320.351	0.23
320.562	0.2
320.774	0.29
320.985	0.26
321.196	0.2
321.407	0.22
321.618	0.28
321.829	0.32
322.041	0.28
322.252	0.23
322.463	0.27
322.674	0.27
322.885	0.21
323.096	0.22
323.307	0.21
323.518	0.3
323.729	0.2
323.94	0.23
324.151	0.24
324.362	0.31
324.573	0.26
324.784	0.21
324.995	0.23
325.206	0.24
325.417	0.22
325.628	0.18
325.838	0.24
326.049	0.28
326.26	0.28
326.471	0.23
326.682	0.27
326.892	0.27
327.103	0.19
327.314	0.2
327.525	0.25
327.735	0.23
327.946	0.23
328.157	0.24
328.368	0.31
328.578	0.24
328.789	0.29
328.999	0.24
329.21	0.25
329.421	0.25
329.631	0.23
329.842	0.18
330.052	0.3
330.263	0.28
330.473	0.28
330.684	0.23
330.894	0.24
331.105	0.26
331.315	0.24
331.526	0.21
331.736	0.4
331.947	0.26
332.157	0.28
332.367	0.2
332.578	0.28
332.788	0.31
332.999	0.29
333.209	0.26
333.419	0.21
333.629	0.28
333.84	0.27
334.05	0.28
334.26	0.32
334.47	0.3
334.681	0.32
334.891	0.23
335.101	0.28
335.311	0.35
335.521	0.24
335.732	0.2
335.942	0.32
336.152	0.25
336.362	0.27
336.572	0.29
336.782	0.27
336.992	0.23
337.202	0.21
337.412	0.21
337.622	0.26
337.832	0.28
338.042	0.26
338.252	0.22
338.462	0.26
338.672	0.27
338.882	0.16
339.092	0.28
339.302	0.31
339.511	0.27
339.721	0.23
339.931	0.22
340.141	0.3
340.351	0.32
340.561	0.26
340.77	0.24
340.98	0.25
341.19	0.29
341.4	0.23
341.609	0.14
341.819	0.24
342.029	0.2
342.238	0.24
342.448	0.25
342.658	0.27
342.867	0.26
343.077	0.26
343.286	0.25
343.496	0.25
343.706	0.32
343.915	0.16
344.125	0.2
344.334	0.28
344.544	0.17
344.753	0.22
344.963	0.25
345.172	0.22
345.381	0.27
345.591	0.21
345.8	0.22
346.01	0.24
346.219	0.27
346.428	0.1
346.638	0.23
346.847	0.22
347.056	0.28
347.266	0.22
347.475	0.26
347.684	0.26
347.893	0.24
348.103	0.3
348.312	0.21
348.521	0.23
348.73	0.24
348.94	0.28
349.149	0.18
349.358	0.25
349.567	0.21
349.776	0.24
349.985	0.2
350.194	0.28
350.403	0.29
350.612	0.19
350.821	0.19
351.03	0.23
351.239	0.19
351.448	0.25
351.657	0.2
351.866	0.37
352.075	0.24
352.284	0.29
352.493	0.17
352.702	0.3
352.911	0.29
353.12	0.24
353.329	0.24
353.538	0.25
353.746	0.24
353.955	0.22
354.164	0.25
354.373	0.21
354.582	0.26
354.79	0.23
354.999	0.27
355.208	0.26
355.416	0.3
355.625	0.19
355.834	0.2
356.042	0.3
356.251	0.19
356.46	0.21
356.668	0.3
356.877	0.28
357.085	0.26
357.294	0.15
357.503	0.26
357.711	0.25
357.92	0.42
358.128	0.26
358.337	0.23
358.545	0.28
358.754	0.22
358.962	0.31
359.17	0.2
359.379	0.24
359.587	0.25
359.796	0.24
360.004	0.28
360.212	0.3
360.421	0.29
360.629	0.2
360.837	0.17
361.046	0.29
361.254	0.42
361.462	0.22
361.67	0.21
361.879	0.22
362.087	0.28
362.295	0.22
362.503	0.19
362.711	0.19
362.92	0.28
363.128	0.24
363.336	0.21
363.544	0.2
363.752	0.22
363.96	0.21
364.168	0.21
364.376	0.21
364.584	0.26
364.792	0.3
365	0.24
365.208	0.26
365.416	0.27
365.624	0.24
365.832	0.19
366.04	0.28
366.248	0.28
366.456	0.26
366.664	0.24
366.872	0.23
367.079	0.21
367.287	0.25
367.495	0.24
367.703	0.23
367.911	0.25
368.118	0.21
368.326	0.23
368.534	0.22
368.742	0.31
368.949	0.23
369.157	0.21
369.365	0.28
369.572	0.2
369.78	0.22
369.988	0.28
370.195	0.24
370.403	0.27
370.61	0.2
370.818	0.23
371.026	0.33
371.233	0.19
371.441	0.27
371.648	0.22
371.856	0.27
372.063	0.26
372.271	0.23
372.478	0.25
372.685	0.19
372.893	0.23
373.1	0.22
373.308	0.28
373.515	0.35
373.722	0.3
373.93	0.27
374.137	0.28
374.344	0.32
374.552	0.27
374.759	0.29
374.966	0.24
375.173	0.22
375.381	0.3
375.588	0.26
375.795	0.16
376.002	0.25
376.209	0.25
376.417	0.23
376.624	0.31
376.831	0.24
377.038	0.25
377.245	0.19
377.452	0.27
377.659	0.26
377.866	0.21
378.073	0.26
378.28	0.25
378.487	0.29
378.694	0.31
378.901	0.24
379.108	0.27
379.315	0.29
379.522	0.35
379.729	0.26
379.936	0.21
380.143	0.23
380.35	0.3
380.557	0.26
380.763	0.25
380.97	0.26
381.177	0.27
381.384	0.25
381.591	0.22
381.797	0.3
382.004	0.28
382.211	0.28
382.418	0.3
382.624	0.29
382.831	0.32
383.038	0.23
383.244	0.29
383.451	0.25
383.658	0.3
383.864	0.22
384.071	0.2
384.277	0.31
384.484	0.24
384.69	0.38
384.897	0.25
385.103	0.3
385.31	0.25
385.516	0.24
385.723	0.24
385.929	0.27
386.136	0.28
386.342	0.29
386.549	0.24
386.755	0.32
386.961	0.3
387.168	0.3
387.374	0.25
387.58	0.35
387.787	0.26
387.993	0.29
388.199	0.27
388.406	0.27
388.612	0.24
388.818	0.23
389.024	0.26
389.231	0.3
389.437	0.38
389.643	0.35
389.849	0.27
390.055	0.33
390.261	0.26
390.467	0.32
390.674	0.23
390.88	0.24
391.086	0.3
391.292	0.27
391.498	0.34
391.704	0.33
391.91	0.29
392.116	0.27
392.322	0.25
392.528	0.32
392.734	0.27
392.94	0.32
393.146	0.3
393.352	0.32
393.557	0.27
393.763	0.27
393.969	0.32
394.175	0.3
394.381	0.32
394.587	0.32
394.792	0.26
394.998	0.34
395.204	0.36
395.41	0.29
395.615	0.35
395.821	0.32
396.027	0.32
396.233	0.29
396.438	0.35
396.644	0.39
396.85	0.35
397.055	0.33
397.261	0.37
397.466	0.4
397.672	0.32
397.878	0.38
398.083	0.37
398.289	0.29
398.494	0.42
398.7	0.35
398.905	0.26
399.111	0.4
399.316	0.29
399.522	0.4
399.727	0.28
399.932	0.32
400.138	0.35
400.343	0.34
400.549	0.31
400.754	0.36
400.959	0.35
401.165	0.37
401.37	0.35
401.575	0.48
401.78	0.38
401.986	0.32
402.191	0.34
402.396	0.4
402.601	0.42
402.807	0.4
403.012	0.37
403.217	0.43
403.422	0.42
403.627	0.42
403.832	0.43
404.037	0.41
404.243	0.41
404.448	0.37
404.653	0.4
404.858	0.45
405.063	0.45
405.268	0.45
405.473	0.42
405.678	0.41
405.883	0.61
406.088	0.48
406.293	0.42
406.498	0.43
406.703	0.45
406.907	0.47
407.112	0.39
407.317	0.49
407.522	0.57
407.727	0.47
407.932	0.53
408.136	0.69
408.341	0.52
408.546	0.58
408.751	0.56
408.956	0.59
409.16	0.64
409.365	0.62
409.57	0.61
409.774	0.62
409.979	0.67
410.184	0.68
410.388	0.61
410.593	0.69
410.798	0.77
411.002	0.7
411.207	0.78
411.411	0.81
411.616	0.74
411.82	0.84
412.025	0.82
412.229	0.81
412.434	0.89
412.638	0.94
412.843	0.89
413.047	0.96
413.252	0.96
413.456	1.04
413.66	1.07
413.865	1.06
414.069	1.08
414.273	1.11
414.478	1.13
414.682	1.18
414.886	1.22
415.091	1.23
415.295	1.22
415.499	1.4
415.703	1.35
415.908	1.43
416.112	1.36
416.316	1.59
416.52	1.53
416.724	1.53
416.929	1.61
417.133	1.87
417.337	1.67
417.541	1.81
417.745	1.87
417.949	2.01
418.153	2
418.357	2.04
418.561	2.3
418.765	2.2
418.969	2.37
419.173	2.4
419.377	2.44
419.581	2.65
419.785	2.6
419.989	2.66
420.193	2.91
420.397	2.91
420.601	3.01
420.804	3.13
421.008	3.13
421.212	3.25
421.416	3.26
421.62	3.33
421.823	3.41
422.027	3.5
422.231	3.52
422.435	3.5
422.638	3.62
422.842	3.7
423.046	3.84
423.249	3.96
423.453	4.02
423.657	4.18
423.86	4.24
424.064	4.34
424.268	4.5
424.471	4.43
424.675	4.76
424.878	4.85
425.082	4.95
425.285	5.23
425.489	5.17
425.692	5.27
425.896	5.34
426.099	5.52
426.303	5.66
426.506	5.82
426.71	6.04
426.913	6.2
427.116	6.42
427.32	6.37
427.523	6.54
427.726	6.76
427.93	6.86
428.133	7.22
428.336	7.35
428.54	7.45
428.743	7.66
428.946	8
429.149	7.99
429.353	8.05
429.556	8.06
429.759	8.11
429.962	8.26
430.165	8.31
430.368	8.05
430.571	8.1
430.775	8.09
430.978	8.08
431.181	8.28
431.384	8.36
431.587	8.37
431.79	8.78
431.993	8.81
432.196	8.92
432.399	9.39
432.602	9.47
432.805	9.54
433.008	10.21
433.211	9.92
433.414	10.39
433.616	10.36
433.819	10.26
434.022	10.49
434.225	10.75
434.428	10.78
434.631	11.15
434.833	10.79
435.036	11.12
435.239	11.33
435.442	11.4
435.645	11.54
435.847	11.52
436.05	11.98
436.253	12.23
436.455	12.16
436.658	12.15
436.861	12.42
437.063	12.48
437.266	12.54
437.468	12.85
437.671	13.21
437.874	13.25
438.076	12.9
438.279	13.59
438.481	13.54
438.684	14.34
438.886	13.88
439.089	14.14
439.291	14.17
439.494	14.55
439.696	14.73
439.899	15.25
440.101	15.81
440.303	16
440.506	16.72
440.708	16.32
440.91	16.65
441.113	16.71
441.315	17.01
441.517	16.76
441.72	17.36
441.922	16.93
442.124	17.08
442.326	17.39
442.529	17.45
442.731	17.42
442.933	17.81
443.135	17.48
443.337	17.72
443.539	18.11
443.742	17.68
443.944	18.58
444.146	18.2
444.348	18.17
444.55	18.06
444.752	18.31
444.954	18.11
445.156	18.08
445.358	18.53
445.56	18.75
445.762	18.54
445.964	18.83
446.166	18.7
446.368	18.63
446.57	18.61
446.772	18.27
446.974	17.97
447.175	18.46
447.377	18.07
447.579	18.45
447.781	18.06
447.983	17.89
448.184	17.4
448.386	18.04
448.588	17.51
448.79	17.18
448.991	17.47
449.193	17.63
449.395	16.96
449.597	16.42
449.798	16.39
450	15.9
450.202	15.86
450.403	15.94
450.605	15.71
450.806	15.55
451.008	15.27
451.21	15.01
451.411	14.66
451.613	13.76
451.814	14.02
452.016	14.06
452.217	13.23
452.419	13.31
452.62	13
452.821	12.74
453.023	12.72
453.224	12.24
453.426	11.74
453.627	11.06
453.828	11.21
454.03	11.29
454.231	11.33
454.432	11.1
454.634	10.83
454.835	10.49
455.036	10.42
455.238	10.11
455.439	9.71
455.64	9.47
455.841	9.42
456.042	9.51
456.244	9.23
456.445	8.9
456.646	8.62
456.847	8.55
457.048	8.51
457.249	8.41
457.45	8.2
457.651	7.7
457.852	7.51
458.054	7.32
458.255	7.15
458.456	7.3
458.657	7.17
458.858	6.68
459.058	6.76
459.259	6.71
459.46	6.33
459.661	6.34
459.862	6.42
460.063	6.29
460.264	6.25
460.465	5.97
460.666	6.02
460.866	5.79
461.067	5.54
461.268	5.53
461.469	5.45
461.67	5.39
461.87	5.23
462.071	5.19
462.272	5.12
462.473	5.08
462.673	5.17
462.874	5.15
463.075	5.13
463.275	4.99
463.476	5.21
463.676	5.12
463.877	4.93
464.078	4.9
464.278	4.94
464.479	4.85
464.679	4.7
464.88	4.72
465.08	4.59
465.281	4.57
465.481	4.28
465.682	4.11
465.882	4.12
466.083	4.1
466.283	4.04
466.483	3.88
466.684	3.73
466.884	3.58
467.085	3.67
467.285	3.72
467.485	3.63
467.686	3.45
467.886	3.36
468.086	3.38
468.286	3.27
468.487	3.37
468.687	3.28
468.887	3.22
469.087	3.32
469.287	3.25
469.488	3.07
469.688	3.17
469.888	3.16
470.088	3.13
470.288	3.01
470.488	2.96
470.688	2.84
470.888	2.81
471.088	2.7
471.288	2.79
471.488	2.75
471.688	2.77
471.888	2.66
472.088	2.78
472.288	2.7
472.488	2.61
472.688	2.52
472.888	2.55
473.088	2.57
473.288	2.49
473.488	2.41
473.688	2.56
473.887	2.5
474.087	2.4
474.287	2.43
474.487	2.36
474.687	2.4
474.886	2.36
475.086	2.32
475.286	2.31
475.486	2.22
475.685	2.2
475.885	2.19
476.085	2.26
476.284	2.22
476.484	2.22
476.684	2.16
476.883	2.24
477.083	2.19
477.282	2.11
477.482	2.19
477.681	2.16
477.881	2.07
478.08	2.03
478.28	1.99
478.479	2.09
478.679	2.11
478.878	2.05
479.078	2.02
479.277	2.05
479.477	2.02
479.676	2.03
479.875	2
480.075	1.97
480.274	2.06
480.473	2.07
480.673	1.99
480.872	2.08
481.071	2.02
481.271	2.03
481.47	1.95
481.669	2.01
481.868	1.91
482.067	2.01
482.267	1.95
482.466	1.92
482.665	1.91
482.864	1.9
483.063	1.92
483.262	1.95
483.461	2.03
483.661	2.03
483.86	1.96
484.059	2.04
484.258	2.02
484.457	2.04
484.656	1.98
484.855	2.09
485.054	1.92
485.253	1.98
485.452	1.97
485.651	2.03
485.849	2.01
486.048	1.99
486.247	1.96
486.446	2.05
486.645	2.07
486.844	2.05
487.043	2.04
487.241	2.08
487.44	2.07
487.639	2.13
487.838	2.1
488.037	2.12
488.235	2.19
488.434	2.18
488.633	2.06
488.831	2.17
489.03	2.21
489.229	2.18
489.427	2.18
489.626	2.26
489.825	2.26
490.023	2.33
490.222	2.28
490.42	2.28
490.619	2.3
490.817	2.38
491.016	2.32
491.214	2.42
491.413	2.4
491.611	2.37
491.81	2.39
492.008	2.5
492.207	2.53
492.405	2.49
492.604	2.44
492.802	2.56
493	2.6
493.199	2.62
493.397	2.65
493.595	2.7
493.794	2.64
493.992	2.74
494.19	2.73
494.388	2.79
494.587	2.7
494.785	2.77
494.983	2.73
495.181	2.85
495.379	2.94
495.578	2.97
495.776	2.92
495.974	2.93
496.172	2.94
496.37	3.07
496.568	3.07
496.766	3.08
496.964	3.15
497.162	3.17
497.36	3.18
497.558	3.21
497.756	3.3
497.954	3.28
498.152	3.34
498.35	3.44
498.548	3.36
498.746	3.42
498.944	3.43
499.142	3.39
499.34	3.56
499.538	3.6
499.736	3.52
499.933	3.63
500.131	3.61
500.329	3.77
500.527	3.75
500.725	3.84
500.922	3.83
501.12	3.87
501.318	3.93
501.516	3.96
501.713	3.99
501.911	3.95
502.109	3.93
502.306	4.07
502.504	3.99
502.701	4.09
