Data from Apollo_Calib_20240827__AbsoluteIrradiance__757__11-46-03-037.txt Node

Date: Wed Aug 28 11:46:03 BST 2024
User: biology
Spectrometer: FLMT08252
Trigger mode: 0
Integration Time (sec): 5.000000E-1
Scans to average: 5
Electric dark correction enabled: true
Nonlinearity correction enabled: false
Boxcar width: 0
XAxis mode: Wavelengths
Number of Pixels in Spectrum: 3648
>>>>>Begin Spectral Data<<<<<
179.588	-0
179.809	-0
180.03	-0
180.251	-0
180.473	-0
180.694	0
180.915	0
181.136	-0
181.357	0
181.578	-0
181.799	-0
182.02	-0
182.241	-0
182.462	-0
182.683	0
182.904	-0
183.125	-0
183.346	0
183.567	0
183.788	0
184.009	0
184.23	0
184.451	0
184.672	0
184.892	0
185.113	0
185.334	0
185.555	0
185.776	0
185.996	0
186.217	0
186.438	0
186.659	0
186.879	0
187.1	0
187.321	0
187.541	0
187.762	0
187.983	0
188.203	0
188.424	0
188.644	0
188.865	0
189.086	0
189.306	0
189.527	0
189.747	0
189.968	0
190.188	0
190.409	0
190.629	0
190.849	0
191.07	0
191.29	0
191.511	0
191.731	0
191.951	0
192.172	0
192.392	0
192.612	0
192.833	0
193.053	0
193.273	0
193.493	0
193.714	0
193.934	0
194.154	0
194.374	0
194.594	0
194.815	0
195.035	0
195.255	0
195.475	0
195.695	0
195.915	0
196.135	0
196.355	0
196.575	0
196.795	0
197.015	0
197.235	0
197.455	0
197.675	0
197.895	0
198.115	0
198.335	0
198.555	0
198.775	0
198.995	0
199.214	0
199.434	0
199.654	0
199.874	0
200.094	3.18
200.313	2.15
200.533	2.09
200.753	1.51
200.973	3.24
201.192	2.26
201.412	1.02
201.632	1.68
201.851	2.43
202.071	1.44
202.291	1.4
202.51	0.65
202.73	1.96
202.95	1.21
203.169	1.26
203.389	1.54
203.608	2.1
203.828	1.21
204.047	1.32
204.267	1.94
204.486	1.56
204.706	1.62
204.925	1.24
205.145	1.36
205.364	1.79
205.583	2.31
205.803	0.88
206.022	0.71
206.242	1.57
206.461	1.76
206.68	0.8
206.9	1.5
207.119	1.86
207.338	1.87
207.557	0.96
207.777	1.05
207.996	1.1
208.215	1.86
208.434	0.96
208.654	0.79
208.873	1.26
209.092	1.45
209.311	0.65
209.53	1.17
209.749	1.03
209.968	1.17
210.187	0.79
210.407	0.69
210.626	0.87
210.845	1.18
211.064	0.97
211.283	0.65
211.502	1.48
211.721	0.95
211.94	0.61
212.159	1.01
212.377	1.38
212.596	1.22
212.815	0.79
213.034	0.9
213.253	0.97
213.472	0.98
213.691	0.68
213.91	0.39
214.128	0.75
214.347	1.3
214.566	0.33
214.785	0.38
215.003	1.1
215.222	0.65
215.441	0.9
215.66	0.36
215.878	0.88
216.097	0.86
216.316	0.43
216.534	0.82
216.753	0.93
216.972	0.57
217.19	0.64
217.409	0.53
217.627	0.62
217.846	0.45
218.064	0.59
218.283	0.55
218.501	1.13
218.72	0.94
218.938	0.46
219.157	0.45
219.375	1.02
219.594	0.92
219.812	0.41
220.031	0.62
220.249	0.93
220.467	0.98
220.686	0.49
220.904	0.5
221.122	0.51
221.341	0.95
221.559	0.69
221.777	0.33
221.995	0.62
222.214	0.72
222.432	0.51
222.65	0.68
222.868	0.75
223.086	0.71
223.305	0.77
223.523	0.59
223.741	0.98
223.959	0.71
224.177	0.29
224.395	0.3
224.613	0.64
224.831	0.87
225.049	0.46
225.267	0.45
225.485	0.66
225.703	0.38
225.921	0.49
226.139	0.49
226.357	0.66
226.575	0.53
226.793	0.43
227.011	1.23
227.229	0.61
227.447	0.72
227.665	0.48
227.883	0.27
228.1	0.42
228.318	0.52
228.536	0.25
228.754	0.3
228.972	0.56
229.189	0.66
229.407	0.32
229.625	0.53
229.843	0.67
230.06	0.77
230.278	0.38
230.496	0.52
230.713	0.5
230.931	0.67
231.149	0.4
231.366	0.21
231.584	0.37
231.801	0.89
232.019	0.44
232.236	0.24
232.454	0.28
232.671	0.46
232.889	0.42
233.106	0.19
233.324	0.55
233.541	0.3
233.759	0.42
233.976	0.28
234.194	0.57
234.411	0.39
234.628	0.38
234.846	0.36
235.063	0.38
235.28	0.5
235.498	0.37
235.715	0.27
235.932	0.58
236.149	0.37
236.367	0.32
236.584	0.44
236.801	0.52
237.018	0.55
237.236	0.46
237.453	0.25
237.67	0.6
237.887	0.52
238.104	0.37
238.321	0.29
238.538	0.3
238.755	0.58
238.973	0.19
239.19	0.36
239.407	0.58
239.624	0.47
239.841	0.24
240.058	0.29
240.275	0.44
240.492	0.41
240.709	0.49
240.925	0.33
241.142	0.34
241.359	0.2
241.576	0.17
241.793	0.29
242.01	0.42
242.227	0.58
242.444	0.44
242.66	0.55
242.877	0.42
243.094	0.3
243.311	0.35
243.527	0.37
243.744	0.29
243.961	0.49
244.178	0.28
244.394	0.29
244.611	0.59
244.828	0.62
245.044	0.22
245.261	0.33
245.477	0.39
245.694	0.56
245.911	0.34
246.127	0.38
246.344	0.48
246.56	0.49
246.777	0.36
246.993	0.28
247.21	0.43
247.426	0.4
247.643	0.25
247.859	0.28
248.076	0.2
248.292	0.62
248.508	0.22
248.725	0.4
248.941	0.38
249.157	0.52
249.374	0.29
249.59	0.28
249.806	0.3
250.023	0.53
250.239	0.26
250.455	0.23
250.671	0.38
250.888	0.44
251.104	0.36
251.32	0.26
251.536	0.39
251.752	0.37
251.969	0.32
252.185	0.29
252.401	0.54
252.617	0.35
252.833	0.26
253.049	0.33
253.265	0.33
253.481	0.31
253.697	0.26
253.913	0.23
254.129	0.31
254.345	0.36
254.561	0.26
254.777	0.27
254.993	0.42
255.209	0.36
255.425	0.31
255.641	0.32
255.857	0.48
256.073	0.37
256.288	0.24
256.504	0.27
256.72	0.38
256.936	0.42
257.152	0.28
257.367	0.24
257.583	0.33
257.799	0.37
258.015	0.27
258.23	0.3
258.446	0.45
258.662	0.29
258.877	0.22
259.093	0.22
259.309	0.29
259.524	0.37
259.74	0.25
259.955	0.2
260.171	0.32
260.387	0.31
260.602	0.37
260.818	0.29
261.033	0.25
261.249	0.29
261.464	0.25
261.68	0.23
261.895	0.37
262.11	0.39
262.326	0.23
262.541	0.18
262.757	0.35
262.972	0.37
263.187	0.27
263.403	0.32
263.618	0.38
263.833	0.33
264.049	0.25
264.264	0.32
264.479	0.3
264.694	0.42
264.91	0.21
265.125	0.28
265.34	0.36
265.555	0.48
265.77	0.32
265.986	0.22
266.201	0.33
266.416	0.37
266.631	0.25
266.846	0.25
267.061	0.37
267.276	0.37
267.491	0.14
267.706	0.29
267.921	0.24
268.136	0.3
268.351	0.3
268.566	0.18
268.781	0.41
268.996	0.3
269.211	0.28
269.426	0.23
269.641	0.3
269.856	0.3
270.071	0.19
270.285	0.21
270.5	0.35
270.715	0.31
270.93	0.26
271.145	0.29
271.359	0.38
271.574	0.23
271.789	0.3
272.004	0.21
272.218	0.24
272.433	0.31
272.648	0.2
272.862	0.38
273.077	0.26
273.292	0.32
273.506	0.21
273.721	0.24
273.936	0.26
274.15	0.31
274.365	0.28
274.579	0.3
274.794	0.28
275.008	0.36
275.223	0.15
275.437	0.22
275.652	0.37
275.866	0.24
276.081	0.25
276.295	0.37
276.509	0.3
276.724	0.24
276.938	0.25
277.153	0.25
277.367	0.27
277.581	0.22
277.796	0.25
278.01	0.18
278.224	0.34
278.438	0.4
278.653	0.25
278.867	0.18
279.081	0.1
279.295	0.19
279.51	0.25
279.724	0.12
279.938	0.29
280.152	0.28
280.366	0.24
280.58	0.31
280.794	0.34
281.008	0.29
281.222	0.29
281.437	0.38
281.651	0.28
281.865	0.34
282.079	0.22
282.293	0.16
282.507	0.21
282.721	0.22
282.935	0.24
283.148	0.17
283.362	0.21
283.576	0.18
283.79	0.27
284.004	0.2
284.218	0.3
284.432	0.16
284.646	0.25
284.859	0.24
285.073	0.28
285.287	0.28
285.501	0.23
285.714	0.21
285.928	0.26
286.142	0.27
286.356	0.14
286.569	0.19
286.783	0.36
286.997	0.29
287.21	0.3
287.424	0.22
287.637	0.16
287.851	0.2
288.065	0.25
288.278	0.19
288.492	0.27
288.705	0.19
288.919	0.26
289.132	0.12
289.346	0.29
289.559	0.19
289.773	0.14
289.986	0.22
290.2	0.21
290.413	0.3
290.626	0.19
290.84	0.16
291.053	0.24
291.267	0.29
291.48	0.19
291.693	0.21
291.906	0.17
292.12	0.2
292.333	0.17
292.546	0.17
292.76	0.28
292.973	0.22
293.186	0.27
293.399	0.17
293.612	0.26
293.826	0.19
294.039	0.25
294.252	0.21
294.465	0.22
294.678	0.26
294.891	0.25
295.104	0.15
295.317	0.21
295.53	0.22
295.743	0.25
295.956	0.23
296.169	0.31
296.382	0.26
296.595	0.23
296.808	0.15
297.021	0.33
297.234	0.31
297.447	0.24
297.66	0.21
297.873	0.28
298.086	0.23
298.299	0.16
298.511	0.14
298.724	0.21
298.937	0.16
299.15	0.15
299.363	0.21
299.575	0.26
299.788	0.24
300.001	0.19
300.213	0.18
300.426	0.19
300.639	0.17
300.852	0.17
301.064	0.26
301.277	0.3
301.489	0.26
301.702	0.28
301.915	0.23
302.127	0.22
302.34	0.23
302.552	0.23
302.765	0.2
302.977	0.25
303.19	0.21
303.402	0.19
303.615	0.21
303.827	0.2
304.04	0.21
304.252	0.24
304.464	0.21
304.677	0.35
304.889	0.3
305.102	0.11
305.314	0.14
305.526	0.21
305.739	0.24
305.951	0.19
306.163	0.19
306.375	0.28
306.588	0.18
306.8	0.13
307.012	0.15
307.224	0.23
307.436	0.27
307.649	0.12
307.861	0.2
308.073	0.22
308.285	0.18
308.497	0.16
308.709	0.16
308.921	0.24
309.133	0.29
309.346	0.18
309.558	0.18
309.77	0.26
309.982	0.27
310.194	0.2
310.406	0.18
310.617	0.27
310.829	0.25
311.041	0.26
311.253	0.2
311.465	0.19
311.677	0.2
311.889	0.17
312.101	0.15
312.313	0.25
312.524	0.27
312.736	0.19
312.948	0.18
313.16	0.31
313.372	0.22
313.583	0.25
313.795	0.19
314.007	0.16
314.218	0.27
314.43	0.2
314.642	0.15
314.853	0.17
315.065	0.23
315.277	0.17
315.488	0.23
315.7	0.25
315.912	0.24
316.123	0.17
316.335	0.2
316.546	0.36
316.758	0.17
316.969	0.21
317.181	0.22
317.392	0.2
317.604	0.29
317.815	0.19
318.026	0.18
318.238	0.18
318.449	0.22
318.661	0.14
318.872	0.15
319.083	0.14
319.295	0.24
319.506	0.2
319.717	0.25
319.929	0.24
320.14	0.21
320.351	0.18
320.562	0.16
320.774	0.27
320.985	0.26
321.196	0.13
321.407	0.12
321.618	0.25
321.829	0.21
322.041	0.25
322.252	0.22
322.463	0.25
322.674	0.23
322.885	0.17
323.096	0.15
323.307	0.21
323.518	0.23
323.729	0.14
323.94	0.19
324.151	0.19
324.362	0.22
324.573	0.21
324.784	0.22
324.995	0.29
325.206	0.23
325.417	0.2
325.628	0.18
325.838	0.2
326.049	0.21
326.26	0.25
326.471	0.18
326.682	0.25
326.892	0.23
327.103	0.14
327.314	0.17
327.525	0.31
327.735	0.27
327.946	0.22
328.157	0.21
328.368	0.26
328.578	0.2
328.789	0.29
328.999	0.19
329.21	0.18
329.421	0.27
329.631	0.15
329.842	0.21
330.052	0.21
330.263	0.23
330.473	0.24
330.684	0.21
330.894	0.25
331.105	0.25
331.315	0.2
331.526	0.14
331.736	0.3
331.947	0.24
332.157	0.22
332.367	0.14
332.578	0.23
332.788	0.28
332.999	0.21
333.209	0.18
333.419	0.16
333.629	0.23
333.84	0.24
334.05	0.19
334.26	0.31
334.47	0.19
334.681	0.24
334.891	0.15
335.101	0.25
335.311	0.31
335.521	0.19
335.732	0.16
335.942	0.28
336.152	0.26
336.362	0.18
336.572	0.23
336.782	0.27
336.992	0.21
337.202	0.18
337.412	0.22
337.622	0.23
337.832	0.22
338.042	0.22
338.252	0.18
338.462	0.17
338.672	0.24
338.882	0.18
339.092	0.23
339.302	0.27
339.511	0.26
339.721	0.17
339.931	0.16
340.141	0.3
340.351	0.28
340.561	0.23
340.77	0.22
340.98	0.21
341.19	0.21
341.4	0.21
341.609	0.16
341.819	0.2
342.029	0.16
342.238	0.18
342.448	0.16
342.658	0.24
342.867	0.21
343.077	0.17
343.286	0.21
343.496	0.2
343.706	0.23
343.915	0.2
344.125	0.24
344.334	0.2
344.544	0.15
344.753	0.16
344.963	0.15
345.172	0.19
345.381	0.2
345.591	0.15
345.8	0.16
346.01	0.26
346.219	0.26
346.428	0.09
346.638	0.18
346.847	0.21
347.056	0.29
347.266	0.23
347.475	0.19
347.684	0.22
347.893	0.2
348.103	0.21
348.312	0.2
348.521	0.21
348.73	0.2
348.94	0.19
349.149	0.2
349.358	0.14
349.567	0.17
349.776	0.13
349.985	0.17
350.194	0.26
350.403	0.26
350.612	0.15
350.821	0.2
351.03	0.23
351.239	0.14
351.448	0.18
351.657	0.17
351.866	0.34
352.075	0.22
352.284	0.17
352.493	0.12
352.702	0.26
352.911	0.18
353.12	0.23
353.329	0.17
353.538	0.22
353.746	0.22
353.955	0.16
354.164	0.22
354.373	0.18
354.582	0.25
354.79	0.18
354.999	0.21
355.208	0.21
355.416	0.25
355.625	0.15
355.834	0.23
356.042	0.22
356.251	0.2
356.46	0.14
356.668	0.18
356.877	0.31
357.085	0.28
357.294	0.1
357.503	0.21
357.711	0.18
357.92	0.35
358.128	0.22
358.337	0.17
358.545	0.27
358.754	0.15
358.962	0.21
359.17	0.21
359.379	0.22
359.587	0.21
359.796	0.21
360.004	0.28
360.212	0.29
360.421	0.24
360.629	0.16
360.837	0.18
361.046	0.25
361.254	0.32
361.462	0.22
361.67	0.18
361.879	0.21
362.087	0.27
362.295	0.2
362.503	0.16
362.711	0.15
362.92	0.17
363.128	0.16
363.336	0.16
363.544	0.11
363.752	0.19
363.96	0.17
364.168	0.16
364.376	0.2
364.584	0.23
364.792	0.26
365	0.24
365.208	0.24
365.416	0.2
365.624	0.27
365.832	0.15
366.04	0.28
366.248	0.22
366.456	0.19
366.664	0.21
366.872	0.21
367.079	0.22
367.287	0.2
367.495	0.22
367.703	0.21
367.911	0.2
368.118	0.21
368.326	0.2
368.534	0.18
368.742	0.25
368.949	0.18
369.157	0.15
369.365	0.23
369.572	0.18
369.78	0.14
369.988	0.23
370.195	0.22
370.403	0.21
370.61	0.18
370.818	0.24
371.026	0.3
371.233	0.18
371.441	0.2
371.648	0.14
371.856	0.24
372.063	0.17
372.271	0.18
372.478	0.17
372.685	0.18
372.893	0.29
373.1	0.17
373.308	0.19
373.515	0.27
373.722	0.25
373.93	0.15
374.137	0.21
374.344	0.28
374.552	0.27
374.759	0.25
374.966	0.19
375.173	0.18
375.381	0.26
375.588	0.2
375.795	0.11
376.002	0.18
376.209	0.17
376.417	0.2
376.624	0.23
376.831	0.24
377.038	0.2
377.245	0.14
377.452	0.19
377.659	0.21
377.866	0.22
378.073	0.19
378.28	0.22
378.487	0.25
378.694	0.21
378.901	0.22
379.108	0.19
379.315	0.25
379.522	0.31
379.729	0.2
379.936	0.21
380.143	0.21
380.35	0.22
380.557	0.22
380.763	0.18
380.97	0.21
381.177	0.27
381.384	0.25
381.591	0.17
381.797	0.24
382.004	0.26
382.211	0.25
382.418	0.2
382.624	0.25
382.831	0.27
383.038	0.22
383.244	0.24
383.451	0.26
383.658	0.28
383.864	0.23
384.071	0.19
384.277	0.29
384.484	0.2
384.69	0.28
384.897	0.18
385.103	0.21
385.31	0.19
385.516	0.2
385.723	0.19
385.929	0.24
386.136	0.23
386.342	0.24
386.549	0.21
386.755	0.3
386.961	0.28
387.168	0.24
387.374	0.22
387.58	0.25
387.787	0.23
387.993	0.27
388.199	0.21
388.406	0.2
388.612	0.2
388.818	0.2
389.024	0.18
389.231	0.2
389.437	0.31
389.643	0.26
389.849	0.2
390.055	0.25
390.261	0.23
390.467	0.28
390.674	0.21
390.88	0.21
391.086	0.26
391.292	0.17
391.498	0.24
391.704	0.23
391.91	0.26
392.116	0.17
392.322	0.1
392.528	0.28
392.734	0.23
392.94	0.27
393.146	0.2
393.352	0.22
393.557	0.21
393.763	0.21
393.969	0.27
394.175	0.28
394.381	0.28
394.587	0.18
394.792	0.23
394.998	0.34
395.204	0.33
395.41	0.21
395.615	0.27
395.821	0.28
396.027	0.3
396.233	0.17
396.438	0.3
396.644	0.34
396.85	0.26
397.055	0.27
397.261	0.25
397.466	0.27
397.672	0.27
397.878	0.33
398.083	0.31
398.289	0.24
398.494	0.34
398.7	0.31
398.905	0.23
399.111	0.35
399.316	0.25
399.522	0.32
399.727	0.29
399.932	0.26
400.138	0.24
400.343	0.3
400.549	0.29
400.754	0.3
400.959	0.31
401.165	0.28
401.37	0.31
401.575	0.27
401.78	0.31
401.986	0.26
402.191	0.25
402.396	0.29
402.601	0.28
402.807	0.36
403.012	0.33
403.217	0.36
403.422	0.36
403.627	0.36
403.832	0.35
404.037	0.38
404.243	0.35
404.448	0.37
404.653	0.33
404.858	0.37
405.063	0.4
405.268	0.3
405.473	0.29
405.678	0.34
405.883	0.5
406.088	0.39
406.293	0.35
406.498	0.31
406.703	0.43
406.907	0.37
407.112	0.37
407.317	0.46
407.522	0.46
407.727	0.38
407.932	0.42
408.136	0.53
408.341	0.45
408.546	0.47
408.751	0.45
408.956	0.5
409.16	0.54
409.365	0.49
409.57	0.48
409.774	0.56
409.979	0.57
410.184	0.55
410.388	0.51
410.593	0.63
410.798	0.59
411.002	0.57
411.207	0.63
411.411	0.67
411.616	0.6
411.82	0.68
412.025	0.75
412.229	0.69
412.434	0.86
412.638	0.77
412.843	0.77
413.047	0.81
413.252	0.75
413.456	0.84
413.66	0.87
413.865	0.84
414.069	0.96
414.273	0.88
414.478	0.88
414.682	0.94
414.886	0.97
415.091	0.98
415.295	0.93
415.499	1.15
415.703	1.09
415.908	1.24
416.112	1.14
416.316	1.34
416.52	1.3
416.724	1.3
416.929	1.36
417.133	1.55
417.337	1.47
417.541	1.48
417.745	1.56
417.949	1.61
418.153	1.69
418.357	1.71
418.561	1.84
418.765	1.8
418.969	1.95
419.173	2.01
419.377	2.03
419.581	2.21
419.785	2.21
419.989	2.18
420.193	2.31
420.397	2.39
420.601	2.56
420.804	2.6
421.008	2.62
421.212	2.67
421.416	2.77
421.62	2.74
421.823	2.83
422.027	3.02
422.231	2.91
422.435	2.93
422.638	2.98
422.842	3.09
423.046	3.12
423.249	3.32
423.453	3.32
423.657	3.53
423.86	3.54
424.064	3.65
424.268	3.83
424.471	3.76
424.675	4
424.878	4.05
425.082	4.14
425.285	4.35
425.489	4.28
425.692	4.4
425.896	4.38
426.099	4.6
426.303	4.76
426.506	4.79
426.71	5.04
426.913	5.27
427.116	5.32
427.32	5.26
427.523	5.38
427.726	5.74
427.93	5.77
428.133	5.96
428.336	6.09
428.54	6.26
428.743	6.44
428.946	6.64
429.149	6.57
429.353	6.69
429.556	6.67
429.759	6.7
429.962	6.78
430.165	6.93
430.368	6.72
430.571	6.73
430.775	6.78
430.978	6.83
431.181	6.78
431.384	6.96
431.587	7.03
431.79	7.31
431.993	7.26
432.196	7.48
432.399	7.79
432.602	7.94
432.805	8.02
433.008	8.53
433.211	8.33
433.414	8.7
433.616	8.65
433.819	8.62
434.022	8.72
434.225	8.87
434.428	8.97
434.631	9.31
434.833	9.12
435.036	9.34
435.239	9.47
435.442	9.42
435.645	9.66
435.847	9.72
436.05	9.97
436.253	10.23
436.455	10.2
436.658	10.08
436.861	10.39
437.063	10.44
437.266	10.41
437.468	10.77
437.671	11.1
437.874	11.02
438.076	10.87
438.279	11.38
438.481	11.38
438.684	12.1
438.886	11.6
439.089	11.91
439.291	11.96
439.494	12.3
439.696	12.37
439.899	12.82
440.101	13.27
440.303	13.31
440.506	13.99
440.708	13.81
440.91	14.03
441.113	14.17
441.315	14.52
441.517	14.22
441.72	14.72
441.922	14.33
442.124	14.24
442.326	14.73
442.529	14.88
442.731	14.85
442.933	15.09
443.135	14.93
443.337	14.95
443.539	15.39
443.742	15.17
443.944	15.55
444.146	15.42
444.348	15.58
444.55	15.41
444.752	15.43
444.954	15.49
445.156	15.4
445.358	15.7
445.56	16.02
445.762	15.94
445.964	16.02
446.166	15.86
446.368	15.84
446.57	15.98
446.772	15.73
446.974	15.38
447.175	15.68
447.377	15.41
447.579	15.71
447.781	15.48
447.983	15.3
448.184	14.88
448.386	15.34
448.588	14.9
448.79	14.79
448.991	14.96
449.193	15.04
449.395	14.48
449.597	14.07
449.798	14.09
450	13.67
450.202	13.58
450.403	13.51
450.605	13.44
450.806	13.24
451.008	13.02
451.21	12.76
451.411	12.4
451.613	11.72
451.814	12.05
452.016	12.06
452.217	11.26
452.419	11.38
452.62	11.15
452.821	10.88
453.023	10.77
453.224	10.38
453.426	10
453.627	9.38
453.828	9.48
454.03	9.53
454.231	9.54
454.432	9.41
454.634	9.16
454.835	8.88
455.036	8.76
455.238	8.46
455.439	8.32
455.64	8.16
455.841	8
456.042	8.06
456.244	7.83
456.445	7.45
456.646	7.3
456.847	7.18
457.048	7.22
457.249	7.21
457.45	7.09
457.651	6.57
457.852	6.36
458.054	6.14
458.255	6.08
458.456	6.17
458.657	6.11
458.858	5.64
459.058	5.59
459.259	5.65
459.46	5.46
459.661	5.36
459.862	5.48
460.063	5.37
460.264	5.26
460.465	5.12
460.666	5.16
460.866	4.83
461.067	4.6
461.268	4.64
461.469	4.65
461.67	4.54
461.87	4.37
462.071	4.39
462.272	4.24
462.473	4.23
462.673	4.48
462.874	4.32
463.075	4.32
463.275	4.31
463.476	4.27
463.676	4.3
463.877	4.23
464.078	4.15
464.278	4.2
464.479	4.14
464.679	4.05
464.88	3.89
465.08	3.95
465.281	3.73
465.481	3.6
465.682	3.45
465.882	3.53
466.083	3.44
466.283	3.41
466.483	3.26
466.684	3.17
466.884	3.02
467.085	3.05
467.285	3.16
467.485	3.03
467.686	2.99
467.886	2.87
468.086	2.87
468.286	2.82
468.487	2.82
468.687	2.72
468.887	2.67
469.087	2.81
469.287	2.73
469.488	2.48
469.688	2.72
469.888	2.68
470.088	2.65
470.288	2.55
470.488	2.56
470.688	2.37
470.888	2.41
471.088	2.19
471.288	2.39
471.488	2.34
471.688	2.28
471.888	2.21
472.088	2.39
472.288	2.2
472.488	2.15
472.688	2.11
472.888	2.15
473.088	2.18
473.288	2.12
473.488	2.05
473.688	2.19
473.887	2.1
474.087	2.01
474.287	2.03
474.487	1.98
474.687	2
474.886	1.96
475.086	1.98
475.286	1.94
475.486	1.88
475.685	1.88
475.885	1.83
476.085	1.92
476.284	1.93
476.484	1.86
476.684	1.85
476.883	1.94
477.083	1.79
477.282	1.78
477.482	1.84
477.681	1.75
477.881	1.73
478.08	1.73
478.28	1.71
478.479	1.74
478.679	1.78
478.878	1.71
479.078	1.75
479.277	1.75
479.477	1.71
479.676	1.71
479.875	1.68
480.075	1.61
480.274	1.64
480.473	1.73
480.673	1.68
480.872	1.76
481.071	1.71
481.271	1.71
481.47	1.7
481.669	1.65
481.868	1.63
482.067	1.66
482.267	1.59
482.466	1.61
482.665	1.63
482.864	1.65
483.063	1.59
483.262	1.67
483.461	1.74
483.661	1.74
483.86	1.64
484.059	1.72
484.258	1.67
484.457	1.69
484.656	1.68
484.855	1.77
485.054	1.6
485.253	1.67
485.452	1.64
485.651	1.72
485.849	1.71
486.048	1.65
486.247	1.69
486.446	1.73
486.645	1.72
486.844	1.7
487.043	1.72
487.241	1.77
487.44	1.72
487.639	1.78
487.838	1.77
488.037	1.79
488.235	1.85
488.434	1.82
488.633	1.67
488.831	1.87
489.03	1.84
489.229	1.87
489.427	1.85
489.626	1.93
489.825	1.96
490.023	1.93
490.222	1.91
490.42	1.94
490.619	1.99
490.817	2.05
491.016	1.98
491.214	2.04
491.413	2.05
491.611	2.02
491.81	2.02
492.008	2.09
492.207	2.12
492.405	2.15
492.604	2.08
492.802	2.2
493	2.22
493.199	2.28
493.397	2.23
493.595	2.25
493.794	2.24
493.992	2.39
494.19	2.34
494.388	2.42
494.587	2.31
494.785	2.34
494.983	2.33
495.181	2.46
495.379	2.44
495.578	2.5
495.776	2.53
495.974	2.5
496.172	2.52
496.37	2.63
496.568	2.67
496.766	2.61
496.964	2.73
497.162	2.68
497.36	2.75
497.558	2.76
497.756	2.81
497.954	2.82
498.152	2.84
498.35	2.95
498.548	2.82
498.746	2.9
498.944	2.89
499.142	2.98
499.34	2.98
499.538	3.09
499.736	3.01
499.933	3.11
500.131	3.06
500.329	3.22
500.527	3.17
500.725	3.29
500.922	3.31
501.12	3.34
501.318	3.36
501.516	3.35
501.713	3.44
501.911	3.42
502.109	3.41
502.306	3.48
502.504	3.41
502.701	3.51
502.899	3.56
