Data from Apollo_Calib_20240827__AbsoluteIrradiance__838__13-07-00-451.txt Node

Date: Wed Aug 28 13:07:00 BST 2024
User: biology
Spectrometer: FLMT08252
Trigger mode: 0
Integration Time (sec): 5.000000E-1
Scans to average: 5
Electric dark correction enabled: true
Nonlinearity correction enabled: false
Boxcar width: 0
XAxis mode: Wavelengths
Number of Pixels in Spectrum: 3648
>>>>>Begin Spectral Data<<<<<
179.588	-0
179.809	-0
180.03	-0
180.251	-0
180.473	-0
180.694	0
180.915	0
181.136	-0
181.357	0
181.578	-0
181.799	-0
182.02	-0
182.241	-0
182.462	-0
182.683	0
182.904	-0
183.125	0
183.346	0
183.567	0
183.788	0
184.009	0
184.23	0
184.451	0
184.672	0
184.892	0
185.113	0
185.334	0
185.555	0
185.776	0
185.996	0
186.217	0
186.438	0
186.659	0
186.879	0
187.1	0
187.321	0
187.541	0
187.762	0
187.983	0
188.203	0
188.424	0
188.644	0
188.865	0
189.086	0
189.306	0
189.527	0
189.747	0
189.968	0
190.188	0
190.409	0
190.629	0
190.849	0
191.07	0
191.29	0
191.511	0
191.731	0
191.951	0
192.172	0
192.392	0
192.612	0
192.833	0
193.053	0
193.273	0
193.493	0
193.714	0
193.934	0
194.154	0
194.374	0
194.594	0
194.815	0
195.035	0
195.255	0
195.475	0
195.695	0
195.915	0
196.135	0
196.355	0
196.575	0
196.795	0
197.015	0
197.235	0
197.455	0
197.675	0
197.895	0
198.115	0
198.335	0
198.555	0
198.775	0
198.995	0
199.214	0
199.434	0
199.654	0
199.874	0
200.094	3.88
200.313	3.15
200.533	2.29
200.753	1.74
200.973	4.01
201.192	3.3
201.412	1.42
201.632	2.38
201.851	3.22
202.071	2.13
202.291	1.74
202.51	1.24
202.73	2.67
202.95	2.13
203.169	1.42
203.389	2.09
203.608	2.36
203.828	1.46
204.047	1.86
204.267	2.39
204.486	2.18
204.706	2.39
204.925	1.76
205.145	1.54
205.364	2.52
205.583	2.43
205.803	1.39
206.022	1.31
206.242	1.69
206.461	1.98
206.68	1.39
206.9	1.67
207.119	2.6
207.338	2.09
207.557	1.08
207.777	1.15
207.996	1.7
208.215	2.24
208.434	1.02
208.654	0.92
208.873	1.79
209.092	2.33
209.311	1
209.53	1
209.749	1.65
209.968	0.97
210.187	1.11
210.407	0.53
210.626	1.26
210.845	1.69
211.064	1.38
211.283	0.92
211.502	1.47
211.721	1.24
211.94	1.14
212.159	1.4
212.377	1.49
212.596	1.8
212.815	1.25
213.034	1
213.253	1.28
213.472	1.52
213.691	0.86
213.91	0.83
214.128	0.67
214.347	1.55
214.566	0.52
214.785	0.62
215.003	1.32
215.222	1.23
215.441	0.99
215.66	0.78
215.878	1.07
216.097	1.4
216.316	0.62
216.534	0.77
216.753	1.31
216.972	0.98
217.19	0.99
217.409	0.64
217.627	0.71
217.846	0.82
218.064	1.02
218.283	0.7
218.501	1.48
218.72	1.21
218.938	0.53
219.157	0.71
219.375	1.16
219.594	0.99
219.812	0.49
220.031	0.69
220.249	1.21
220.467	1.1
220.686	0.62
220.904	0.4
221.122	0.89
221.341	1.09
221.559	0.92
221.777	0.53
221.995	0.72
222.214	0.99
222.432	0.5
222.65	0.9
222.868	0.85
223.086	0.9
223.305	0.92
223.523	0.69
223.741	1.11
223.959	0.72
224.177	0.44
224.395	0.52
224.613	0.88
224.831	0.99
225.049	0.5
225.267	0.48
225.485	0.74
225.703	0.67
225.921	0.66
226.139	0.53
226.357	0.89
226.575	0.84
226.793	0.57
227.011	1.54
227.229	0.88
227.447	0.8
227.665	0.63
227.883	0.46
228.1	0.6
228.318	0.89
228.536	0.28
228.754	0.54
228.972	0.85
229.189	0.86
229.407	0.48
229.625	0.56
229.843	0.76
230.06	0.9
230.278	0.42
230.496	0.71
230.713	0.69
230.931	0.87
231.149	0.45
231.366	0.29
231.584	0.72
231.801	1.05
232.019	0.48
232.236	0.38
232.454	0.44
232.671	0.68
232.889	0.47
233.106	0.41
233.324	0.57
233.541	0.54
233.759	0.46
233.976	0.49
234.194	0.63
234.411	0.54
234.628	0.43
234.846	0.44
235.063	0.6
235.28	0.53
235.498	0.57
235.715	0.35
235.932	0.71
236.149	0.62
236.367	0.34
236.584	0.59
236.801	0.54
237.018	0.68
237.236	0.48
237.453	0.29
237.67	0.69
237.887	0.51
238.104	0.51
238.321	0.35
238.538	0.37
238.755	0.69
238.973	0.32
239.19	0.51
239.407	0.63
239.624	0.56
239.841	0.35
240.058	0.35
240.275	0.58
240.492	0.44
240.709	0.47
240.925	0.41
241.142	0.51
241.359	0.45
241.576	0.33
241.793	0.39
242.01	0.57
242.227	0.68
242.444	0.52
242.66	0.61
242.877	0.56
243.094	0.4
243.311	0.47
243.527	0.39
243.744	0.55
243.961	0.59
244.178	0.4
244.394	0.44
244.611	0.53
244.828	0.72
245.044	0.39
245.261	0.4
245.477	0.55
245.694	0.52
245.911	0.32
246.127	0.51
246.344	0.68
246.56	0.54
246.777	0.39
246.993	0.49
247.21	0.55
247.426	0.56
247.643	0.34
247.859	0.42
248.076	0.29
248.292	0.74
248.508	0.35
248.725	0.45
248.941	0.44
249.157	0.55
249.374	0.32
249.59	0.37
249.806	0.42
250.023	0.51
250.239	0.34
250.455	0.32
250.671	0.45
250.888	0.48
251.104	0.5
251.32	0.36
251.536	0.38
251.752	0.37
251.969	0.41
252.185	0.4
252.401	0.69
252.617	0.49
252.833	0.41
253.049	0.41
253.265	0.48
253.481	0.5
253.697	0.37
253.913	0.33
254.129	0.45
254.345	0.4
254.561	0.36
254.777	0.39
254.993	0.54
255.209	0.44
255.425	0.38
255.641	0.32
255.857	0.47
256.073	0.41
256.288	0.27
256.504	0.3
256.72	0.41
256.936	0.51
257.152	0.33
257.367	0.3
257.583	0.44
257.799	0.55
258.015	0.33
258.23	0.4
258.446	0.61
258.662	0.41
258.877	0.32
259.093	0.33
259.309	0.42
259.524	0.49
259.74	0.39
259.955	0.3
260.171	0.4
260.387	0.42
260.602	0.49
260.818	0.46
261.033	0.38
261.249	0.46
261.464	0.36
261.68	0.23
261.895	0.47
262.11	0.48
262.326	0.37
262.541	0.27
262.757	0.54
262.972	0.49
263.187	0.42
263.403	0.38
263.618	0.53
263.833	0.4
264.049	0.25
264.264	0.38
264.479	0.4
264.694	0.54
264.91	0.24
265.125	0.37
265.34	0.52
265.555	0.6
265.77	0.43
265.986	0.37
266.201	0.44
266.416	0.5
266.631	0.36
266.846	0.32
267.061	0.42
267.276	0.49
267.491	0.19
267.706	0.43
267.921	0.45
268.136	0.39
268.351	0.38
268.566	0.28
268.781	0.49
268.996	0.47
269.211	0.32
269.426	0.29
269.641	0.41
269.856	0.45
270.071	0.28
270.285	0.26
270.5	0.44
270.715	0.43
270.93	0.33
271.145	0.4
271.359	0.46
271.574	0.31
271.789	0.32
272.004	0.27
272.218	0.32
272.433	0.45
272.648	0.31
272.862	0.45
273.077	0.4
273.292	0.32
273.506	0.32
273.721	0.32
273.936	0.37
274.15	0.45
274.365	0.31
274.579	0.36
274.794	0.42
275.008	0.41
275.223	0.26
275.437	0.36
275.652	0.47
275.866	0.37
276.081	0.29
276.295	0.44
276.509	0.36
276.724	0.39
276.938	0.3
277.153	0.36
277.367	0.39
277.581	0.3
277.796	0.24
278.01	0.24
278.224	0.42
278.438	0.48
278.653	0.24
278.867	0.21
279.081	0.22
279.295	0.36
279.51	0.4
279.724	0.18
279.938	0.39
280.152	0.42
280.366	0.28
280.58	0.38
280.794	0.44
281.008	0.37
281.222	0.36
281.437	0.52
281.651	0.36
281.865	0.37
282.079	0.27
282.293	0.16
282.507	0.25
282.721	0.28
282.935	0.29
283.148	0.21
283.362	0.32
283.576	0.28
283.79	0.29
284.004	0.25
284.218	0.44
284.432	0.28
284.646	0.32
284.859	0.27
285.073	0.3
285.287	0.37
285.501	0.31
285.714	0.28
285.928	0.31
286.142	0.34
286.356	0.22
286.569	0.23
286.783	0.38
286.997	0.4
287.21	0.28
287.424	0.3
287.637	0.24
287.851	0.32
288.065	0.38
288.278	0.27
288.492	0.29
288.705	0.28
288.919	0.3
289.132	0.12
289.346	0.35
289.559	0.15
289.773	0.22
289.986	0.26
290.2	0.28
290.413	0.37
290.626	0.23
290.84	0.29
291.053	0.33
291.267	0.41
291.48	0.23
291.693	0.24
291.906	0.29
292.12	0.24
292.333	0.26
292.546	0.29
292.76	0.45
292.973	0.34
293.186	0.33
293.399	0.24
293.612	0.34
293.826	0.3
294.039	0.31
294.252	0.26
294.465	0.37
294.678	0.32
294.891	0.29
295.104	0.19
295.317	0.28
295.53	0.28
295.743	0.24
295.956	0.26
296.169	0.34
296.382	0.38
296.595	0.24
296.808	0.22
297.021	0.37
297.234	0.36
297.447	0.26
297.66	0.3
297.873	0.39
298.086	0.37
298.299	0.25
298.511	0.18
298.724	0.29
298.937	0.28
299.15	0.23
299.363	0.26
299.575	0.34
299.788	0.33
300.001	0.28
300.213	0.25
300.426	0.31
300.639	0.25
300.852	0.22
301.064	0.24
301.277	0.36
301.489	0.34
301.702	0.29
301.915	0.24
302.127	0.29
302.34	0.32
302.552	0.29
302.765	0.22
302.977	0.33
303.19	0.25
303.402	0.27
303.615	0.23
303.827	0.25
304.04	0.29
304.252	0.29
304.464	0.26
304.677	0.38
304.889	0.3
305.102	0.25
305.314	0.2
305.526	0.33
305.739	0.31
305.951	0.25
306.163	0.26
306.375	0.36
306.588	0.24
306.8	0.27
307.012	0.22
307.224	0.29
307.436	0.33
307.649	0.18
307.861	0.28
308.073	0.34
308.285	0.25
308.497	0.19
308.709	0.23
308.921	0.28
309.133	0.3
309.346	0.27
309.558	0.24
309.77	0.31
309.982	0.36
310.194	0.28
310.406	0.24
310.617	0.4
310.829	0.29
311.041	0.31
311.253	0.21
311.465	0.26
311.677	0.27
311.889	0.29
312.101	0.21
312.313	0.35
312.524	0.32
312.736	0.18
312.948	0.24
313.16	0.37
313.372	0.32
313.583	0.3
313.795	0.27
314.007	0.26
314.218	0.3
314.43	0.24
314.642	0.24
314.853	0.17
315.065	0.32
315.277	0.22
315.488	0.28
315.7	0.36
315.912	0.26
316.123	0.24
316.335	0.24
316.546	0.39
316.758	0.26
316.969	0.22
317.181	0.25
317.392	0.27
317.604	0.35
317.815	0.25
318.026	0.2
318.238	0.25
318.449	0.33
318.661	0.18
318.872	0.17
319.083	0.23
319.295	0.32
319.506	0.21
319.717	0.26
319.929	0.3
320.14	0.28
320.351	0.25
320.562	0.24
320.774	0.27
320.985	0.26
321.196	0.23
321.407	0.19
321.618	0.37
321.829	0.3
322.041	0.29
322.252	0.25
322.463	0.31
322.674	0.29
322.885	0.18
323.096	0.25
323.307	0.3
323.518	0.29
323.729	0.25
323.94	0.18
324.151	0.23
324.362	0.3
324.573	0.27
324.784	0.23
324.995	0.36
325.206	0.32
325.417	0.27
325.628	0.22
325.838	0.26
326.049	0.29
326.26	0.36
326.471	0.23
326.682	0.24
326.892	0.27
327.103	0.17
327.314	0.22
327.525	0.37
327.735	0.32
327.946	0.23
328.157	0.19
328.368	0.33
328.578	0.27
328.789	0.29
328.999	0.26
329.21	0.23
329.421	0.32
329.631	0.25
329.842	0.18
330.052	0.29
330.263	0.31
330.473	0.31
330.684	0.24
330.894	0.29
331.105	0.28
331.315	0.29
331.526	0.2
331.736	0.41
331.947	0.31
332.157	0.31
332.367	0.2
332.578	0.31
332.788	0.36
332.999	0.28
333.209	0.26
333.419	0.24
333.629	0.29
333.84	0.28
334.05	0.25
334.26	0.37
334.47	0.28
334.681	0.29
334.891	0.25
335.101	0.26
335.311	0.43
335.521	0.27
335.732	0.22
335.942	0.33
336.152	0.27
336.362	0.29
336.572	0.26
336.782	0.31
336.992	0.24
337.202	0.26
337.412	0.24
337.622	0.26
337.832	0.24
338.042	0.25
338.252	0.17
338.462	0.23
338.672	0.28
338.882	0.28
339.092	0.23
339.302	0.4
339.511	0.28
339.721	0.26
339.931	0.2
340.141	0.34
340.351	0.32
340.561	0.27
340.77	0.29
340.98	0.28
341.19	0.29
341.4	0.27
341.609	0.24
341.819	0.29
342.029	0.23
342.238	0.25
342.448	0.23
342.658	0.32
342.867	0.27
343.077	0.3
343.286	0.22
343.496	0.28
343.706	0.32
343.915	0.19
344.125	0.27
344.334	0.3
344.544	0.19
344.753	0.2
344.963	0.21
345.172	0.22
345.381	0.26
345.591	0.19
345.8	0.26
346.01	0.32
346.219	0.3
346.428	0.1
346.638	0.2
346.847	0.28
347.056	0.36
347.266	0.22
347.475	0.24
347.684	0.29
347.893	0.31
348.103	0.27
348.312	0.26
348.521	0.27
348.73	0.31
348.94	0.3
349.149	0.21
349.358	0.24
349.567	0.24
349.776	0.19
349.985	0.25
350.194	0.33
350.403	0.34
350.612	0.17
350.821	0.2
351.03	0.29
351.239	0.18
351.448	0.22
351.657	0.21
351.866	0.32
352.075	0.3
352.284	0.25
352.493	0.19
352.702	0.37
352.911	0.28
353.12	0.25
353.329	0.25
353.538	0.29
353.746	0.25
353.955	0.21
354.164	0.3
354.373	0.2
354.582	0.32
354.79	0.26
354.999	0.27
355.208	0.27
355.416	0.37
355.625	0.19
355.834	0.25
356.042	0.3
356.251	0.23
356.46	0.17
356.668	0.24
356.877	0.37
357.085	0.3
357.294	0.17
357.503	0.26
357.711	0.25
357.92	0.41
358.128	0.24
358.337	0.23
358.545	0.32
358.754	0.27
358.962	0.32
359.17	0.21
359.379	0.26
359.587	0.22
359.796	0.25
360.004	0.29
360.212	0.34
360.421	0.36
360.629	0.23
360.837	0.24
361.046	0.3
361.254	0.39
361.462	0.25
361.67	0.22
361.879	0.29
362.087	0.37
362.295	0.25
362.503	0.22
362.711	0.23
362.92	0.21
363.128	0.2
363.336	0.23
363.544	0.22
363.752	0.2
363.96	0.23
364.168	0.2
364.376	0.25
364.584	0.24
364.792	0.29
365	0.3
365.208	0.28
365.416	0.33
365.624	0.3
365.832	0.23
366.04	0.3
366.248	0.3
366.456	0.25
366.664	0.23
366.872	0.27
367.079	0.27
367.287	0.22
367.495	0.27
367.703	0.26
367.911	0.25
368.118	0.23
368.326	0.26
368.534	0.2
368.742	0.34
368.949	0.2
369.157	0.24
369.365	0.31
369.572	0.22
369.78	0.23
369.988	0.3
370.195	0.26
370.403	0.3
370.61	0.21
370.818	0.25
371.026	0.34
371.233	0.23
371.441	0.26
371.648	0.24
371.856	0.3
372.063	0.29
372.271	0.22
372.478	0.19
372.685	0.24
372.893	0.33
373.1	0.22
373.308	0.23
373.515	0.32
373.722	0.32
373.93	0.26
374.137	0.29
374.344	0.35
374.552	0.33
374.759	0.31
374.966	0.23
375.173	0.23
375.381	0.35
375.588	0.22
375.795	0.19
376.002	0.26
376.209	0.22
376.417	0.23
376.624	0.3
376.831	0.3
377.038	0.25
377.245	0.21
377.452	0.25
377.659	0.28
377.866	0.24
378.073	0.23
378.28	0.26
378.487	0.3
378.694	0.34
378.901	0.23
379.108	0.25
379.315	0.29
379.522	0.4
379.729	0.26
379.936	0.27
380.143	0.28
380.35	0.27
380.557	0.26
380.763	0.25
380.97	0.29
381.177	0.26
381.384	0.31
381.591	0.21
381.797	0.3
382.004	0.33
382.211	0.31
382.418	0.26
382.624	0.3
382.831	0.36
383.038	0.25
383.244	0.31
383.451	0.29
383.658	0.32
383.864	0.2
384.071	0.25
384.277	0.38
384.484	0.26
384.69	0.33
384.897	0.33
385.103	0.28
385.31	0.29
385.516	0.29
385.723	0.25
385.929	0.26
386.136	0.24
386.342	0.26
386.549	0.26
386.755	0.41
386.961	0.34
387.168	0.32
387.374	0.29
387.58	0.36
387.787	0.29
387.993	0.3
388.199	0.3
388.406	0.29
388.612	0.31
388.818	0.23
389.024	0.26
389.231	0.25
389.437	0.38
389.643	0.35
389.849	0.32
390.055	0.29
390.261	0.31
390.467	0.33
390.674	0.27
390.88	0.29
391.086	0.34
391.292	0.25
391.498	0.32
391.704	0.34
391.91	0.27
392.116	0.28
392.322	0.19
392.528	0.35
392.734	0.28
392.94	0.3
393.146	0.3
393.352	0.35
393.557	0.31
393.763	0.29
393.969	0.32
394.175	0.3
394.381	0.31
394.587	0.3
394.792	0.32
394.998	0.38
395.204	0.36
395.41	0.3
395.615	0.33
395.821	0.35
396.027	0.37
396.233	0.31
396.438	0.4
396.644	0.39
396.85	0.4
397.055	0.3
397.261	0.38
397.466	0.33
397.672	0.34
397.878	0.39
398.083	0.37
398.289	0.3
398.494	0.41
398.7	0.39
398.905	0.22
399.111	0.47
399.316	0.3
399.522	0.36
399.727	0.35
399.932	0.38
400.138	0.34
400.343	0.38
400.549	0.34
400.754	0.37
400.959	0.4
401.165	0.34
401.37	0.35
401.575	0.32
401.78	0.4
401.986	0.35
402.191	0.34
402.396	0.39
402.601	0.41
402.807	0.36
403.012	0.38
403.217	0.49
403.422	0.44
403.627	0.43
403.832	0.38
404.037	0.46
404.243	0.46
404.448	0.38
404.653	0.37
404.858	0.45
405.063	0.53
405.268	0.4
405.473	0.42
405.678	0.48
405.883	0.66
406.088	0.51
406.293	0.42
406.498	0.42
406.703	0.56
406.907	0.43
407.112	0.42
407.317	0.55
407.522	0.57
407.727	0.48
407.932	0.54
408.136	0.63
408.341	0.52
408.546	0.6
408.751	0.62
408.956	0.59
409.16	0.66
409.365	0.61
409.57	0.63
409.774	0.67
409.979	0.71
410.184	0.71
410.388	0.64
410.593	0.77
410.798	0.79
411.002	0.72
411.207	0.84
411.411	0.78
411.616	0.76
411.82	0.88
412.025	0.89
412.229	0.86
412.434	1
412.638	0.93
412.843	0.91
413.047	0.99
413.252	0.96
413.456	1.06
413.66	1.09
413.865	1.02
414.069	1.21
414.273	1.07
414.478	1.18
414.682	1.19
414.886	1.27
415.091	1.24
415.295	1.26
415.499	1.41
415.703	1.39
415.908	1.53
416.112	1.4
416.316	1.64
416.52	1.59
416.724	1.58
416.929	1.6
417.133	1.96
417.337	1.74
417.541	1.83
417.745	1.86
417.949	2
418.153	2.05
418.357	2.08
418.561	2.38
418.765	2.29
418.969	2.47
419.173	2.49
419.377	2.45
419.581	2.77
419.785	2.7
419.989	2.7
420.193	2.85
420.397	2.97
420.601	3.11
420.804	3.23
421.008	3.16
421.212	3.34
421.416	3.32
421.62	3.34
421.823	3.44
422.027	3.65
422.231	3.58
422.435	3.61
422.638	3.6
422.842	3.69
423.046	3.82
423.249	4.07
423.453	4.01
423.657	4.17
423.86	4.29
424.064	4.46
424.268	4.56
424.471	4.6
424.675	4.85
424.878	4.95
425.082	5
425.285	5.28
425.489	5.25
425.692	5.25
425.896	5.38
426.099	5.67
426.303	5.77
426.506	5.82
426.71	6.15
426.913	6.3
427.116	6.46
427.32	6.37
427.523	6.53
427.726	6.8
427.93	6.94
428.133	7.26
428.336	7.45
428.54	7.6
428.743	7.75
428.946	7.99
429.149	8.1
429.353	7.98
429.556	8.14
429.759	8.23
429.962	8.33
430.165	8.45
430.368	8.1
430.571	8.22
430.775	8.28
430.978	8.29
431.181	8.3
431.384	8.37
431.587	8.47
431.79	8.8
431.993	8.8
432.196	9.03
432.399	9.45
432.602	9.56
432.805	9.67
433.008	10.17
433.211	10
433.414	10.46
433.616	10.44
433.819	10.44
434.022	10.54
434.225	10.82
434.428	10.73
434.631	11.17
434.833	10.96
435.036	11.18
435.239	11.42
435.442	11.63
435.645	11.66
435.847	11.7
436.05	12.09
436.253	12.28
436.455	12.26
436.658	12.09
436.861	12.54
437.063	12.56
437.266	12.5
437.468	13.02
437.671	13.16
437.874	13.26
438.076	13.14
438.279	13.56
438.481	13.67
438.684	14.31
438.886	13.88
439.089	14.28
439.291	14.27
439.494	14.63
439.696	14.76
439.899	15.41
440.101	15.83
440.303	16.07
440.506	16.73
440.708	16.53
440.91	16.7
441.113	16.95
441.315	17.07
441.517	16.74
441.72	17.44
441.922	17.08
442.124	16.99
442.326	17.4
442.529	17.5
442.731	17.54
442.933	17.97
443.135	17.58
443.337	17.5
443.539	18.07
443.742	17.8
443.944	18.42
444.146	18.18
444.348	18.29
444.55	18.21
444.752	18.17
444.954	18.22
445.156	18.09
445.358	18.49
445.56	18.78
445.762	18.58
445.964	18.86
446.166	18.66
446.368	18.74
446.57	18.71
446.772	18.33
446.974	17.99
447.175	18.3
447.377	17.98
447.579	18.43
447.781	18.05
447.983	17.84
448.184	17.33
448.386	17.68
448.588	17.27
448.79	17.22
448.991	17.54
449.193	17.54
449.395	16.86
449.597	16.44
449.798	16.36
450	15.78
450.202	15.92
450.403	15.92
450.605	15.73
450.806	15.4
451.008	15.13
451.21	15
451.411	14.61
451.613	13.76
451.814	14.19
452.016	13.92
452.217	13.28
452.419	13.23
452.62	12.88
452.821	12.68
453.023	12.54
453.224	12.32
453.426	11.75
453.627	11
453.828	11.09
454.03	11.17
454.231	11.21
454.432	11
454.634	10.73
454.835	10.36
455.036	10.28
455.238	10.03
455.439	9.88
455.64	9.36
455.841	9.38
456.042	9.39
456.244	9.02
456.445	8.78
456.646	8.52
456.847	8.4
457.048	8.3
457.249	8.4
457.45	8.19
457.651	7.58
457.852	7.56
458.054	7.28
458.255	7.15
458.456	7.17
458.657	7.1
458.858	6.61
459.058	6.65
459.259	6.74
459.46	6.41
459.661	6.35
459.862	6.35
460.063	6.28
460.264	6.25
460.465	5.96
460.666	6.08
460.866	5.61
461.067	5.49
461.268	5.58
461.469	5.43
461.67	5.37
461.87	5.26
462.071	5.18
462.272	5.11
462.473	5.06
462.673	5.14
462.874	5.14
463.075	5.06
463.275	5.01
463.476	5.13
463.676	5.04
463.877	4.89
464.078	4.88
464.278	4.89
464.479	4.82
464.679	4.66
464.88	4.68
465.08	4.62
465.281	4.38
465.481	4.22
465.682	4.06
465.882	4.16
466.083	4.1
466.283	4
466.483	3.83
466.684	3.77
466.884	3.6
467.085	3.71
467.285	3.75
467.485	3.59
467.686	3.55
467.886	3.38
468.086	3.37
468.286	3.3
468.487	3.42
468.687	3.22
468.887	3.18
469.087	3.29
469.287	3.2
469.488	3.05
469.688	3.23
469.888	3.16
470.088	3.16
470.288	3.02
470.488	3.05
470.688	2.89
470.888	2.83
471.088	2.68
471.288	2.81
471.488	2.78
471.688	2.71
471.888	2.63
472.088	2.82
472.288	2.69
472.488	2.62
472.688	2.56
472.888	2.64
473.088	2.63
473.288	2.49
473.488	2.47
473.688	2.61
473.887	2.4
474.087	2.42
474.287	2.38
474.487	2.35
474.687	2.39
474.886	2.33
475.086	2.31
475.286	2.33
475.486	2.27
475.685	2.26
475.885	2.26
476.085	2.27
476.284	2.21
476.484	2.27
476.684	2.22
476.883	2.27
477.083	2.17
477.282	2.1
477.482	2.23
477.681	2.13
477.881	2.02
478.08	2.11
478.28	2.05
478.479	2.13
478.679	2.15
478.878	2.04
479.078	2.03
479.277	2.03
479.477	2.03
479.676	2.04
479.875	2.02
480.075	1.96
480.274	2.05
480.473	2.07
480.673	1.99
480.872	2.06
481.071	2.07
481.271	2.03
481.47	1.96
481.669	2
481.868	1.94
482.067	1.95
482.267	1.92
482.466	1.93
482.665	1.9
482.864	1.99
483.063	1.95
483.262	2.02
483.461	2.06
483.661	2.08
483.86	1.99
484.059	2.06
484.258	2.06
484.457	1.99
484.656	2.06
484.855	2.09
485.054	1.91
485.253	1.97
485.452	1.96
485.651	2.08
485.849	2.03
486.048	2.01
486.247	2
486.446	2.09
486.645	1.99
486.844	2.04
487.043	2.03
487.241	2.09
487.44	2.07
487.639	2.1
487.838	2.14
488.037	2.16
488.235	2.2
488.434	2.12
488.633	2.07
488.831	2.19
489.03	2.24
489.229	2.18
489.427	2.21
489.626	2.3
489.825	2.28
490.023	2.29
490.222	2.28
490.42	2.31
490.619	2.38
490.817	2.4
491.016	2.37
491.214	2.42
491.413	2.41
491.611	2.39
491.81	2.39
492.008	2.43
492.207	2.53
492.405	2.54
492.604	2.47
492.802	2.52
493	2.61
493.199	2.6
493.397	2.64
493.595	2.68
493.794	2.69
493.992	2.76
494.19	2.75
494.388	2.82
494.587	2.77
494.785	2.75
494.983	2.72
495.181	2.89
495.379	2.91
495.578	2.98
495.776	2.97
495.974	2.94
496.172	2.97
496.37	3.08
496.568	3.13
496.766	3.09
496.964	3.17
497.162	3.24
497.36	3.24
497.558	3.3
497.756	3.3
497.954	3.33
498.152	3.35
498.35	3.46
498.548	3.34
498.746	3.39
498.944	3.35
499.142	3.46
499.34	3.52
499.538	3.63
499.736	3.51
499.933	3.65
500.131	3.64
500.329	3.78
500.527	3.78
500.725	3.86
500.922	3.92
501.12	3.89
501.318	3.95
501.516	3.99
501.713	4.03
501.911	4.02
502.109	3.98
502.306	4.09
502.504	4.01
502.701	4.14
502.899	4.19
503.097	4.38
