Data from Apollo_Calib_20240827__AbsoluteIrradiance__894__14-03-00-324.txt Node

Date: Wed Aug 28 14:03:00 BST 2024
User: biology
Spectrometer: FLMT08252
Trigger mode: 0
Integration Time (sec): 5.000000E-1
Scans to average: 5
Electric dark correction enabled: true
Nonlinearity correction enabled: false
Boxcar width: 0
XAxis mode: Wavelengths
Number of Pixels in Spectrum: 3648
>>>>>Begin Spectral Data<<<<<
179.588	-0
179.809	-0
180.03	-0
180.251	-0
180.473	-0
180.694	0
180.915	0
181.136	-0
181.357	0
181.578	-0
181.799	0
182.02	-0
182.241	-0
182.462	-0
182.683	0
182.904	-0
183.125	-0
183.346	0
183.567	0
183.788	0
184.009	0
184.23	0
184.451	0
184.672	0
184.892	0
185.113	0
185.334	0
185.555	0
185.776	0
185.996	0
186.217	0
186.438	0
186.659	0
186.879	0
187.1	0
187.321	0
187.541	0
187.762	0
187.983	0
188.203	0
188.424	0
188.644	0
188.865	0
189.086	0
189.306	0
189.527	0
189.747	0
189.968	0
190.188	0
190.409	0
190.629	0
190.849	0
191.07	0
191.29	0
191.511	0
191.731	0
191.951	0
192.172	0
192.392	0
192.612	0
192.833	0
193.053	0
193.273	0
193.493	0
193.714	0
193.934	0
194.154	0
194.374	0
194.594	0
194.815	0
195.035	0
195.255	0
195.475	0
195.695	0
195.915	0
196.135	0
196.355	0
196.575	0
196.795	0
197.015	0
197.235	0
197.455	0
197.675	0
197.895	0
198.115	0
198.335	0
198.555	0
198.775	0
198.995	0
199.214	0
199.434	0
199.654	0
199.874	0
200.094	4.84
200.313	2.53
200.533	1.97
200.753	2.03
200.973	3.75
201.192	3.55
201.412	1.39
201.632	1.6
201.851	3.64
202.071	2.09
202.291	1.84
202.51	1.35
202.73	3.31
202.95	1.93
203.169	1.32
203.389	1.93
203.608	2.03
203.828	1.43
204.047	1.75
204.267	2.32
204.486	2.19
204.706	2.4
204.925	1.52
205.145	1.54
205.364	2.13
205.583	2.75
205.803	1.28
206.022	1.39
206.242	1.69
206.461	2.02
206.68	1.03
206.9	1.72
207.119	2.72
207.338	2.28
207.557	1.47
207.777	1.23
207.996	1.45
208.215	2.22
208.434	1.23
208.654	1.02
208.873	1.65
209.092	2.17
209.311	0.94
209.53	1.14
209.749	1.35
209.968	0.95
210.187	1.05
210.407	0.72
210.626	1.21
210.845	1.74
211.064	1.06
211.283	0.74
211.502	1.58
211.721	1.37
211.94	1.01
212.159	1.13
212.377	1.53
212.596	1.67
212.815	0.97
213.034	1.21
213.253	1.38
213.472	1.38
213.691	1.04
213.91	0.69
214.128	1.03
214.347	1.55
214.566	0.28
214.785	0.45
215.003	1.39
215.222	1.07
215.441	0.73
215.66	0.43
215.878	1.06
216.097	1.19
216.316	0.64
216.534	0.87
216.753	1.16
216.972	0.84
217.19	0.71
217.409	0.71
217.627	0.63
217.846	0.64
218.064	1.09
218.283	0.6
218.501	1.53
218.72	1.12
218.938	0.61
219.157	0.69
219.375	1.08
219.594	1.08
219.812	0.51
220.031	0.47
220.249	1.24
220.467	1.25
220.686	0.6
220.904	0.47
221.122	0.64
221.341	1.38
221.559	0.86
221.777	0.55
221.995	0.86
222.214	0.99
222.432	0.6
222.65	0.7
222.868	0.64
223.086	0.97
223.305	0.88
223.523	0.65
223.741	1.27
223.959	0.81
224.177	0.36
224.395	0.4
224.613	0.91
224.831	0.88
225.049	0.43
225.267	0.51
225.485	0.75
225.703	0.53
225.921	0.58
226.139	0.54
226.357	0.88
226.575	0.72
226.793	0.45
227.011	1.55
227.229	0.74
227.447	0.78
227.665	0.45
227.883	0.38
228.1	0.71
228.318	0.78
228.536	0.1
228.754	0.46
228.972	0.78
229.189	0.93
229.407	0.58
229.625	0.5
229.843	0.99
230.06	0.78
230.278	0.51
230.496	0.63
230.713	0.62
230.931	0.89
231.149	0.4
231.366	0.24
231.584	0.53
231.801	1.06
232.019	0.49
232.236	0.29
232.454	0.44
232.671	0.71
232.889	0.49
233.106	0.41
233.324	0.64
233.541	0.56
233.759	0.51
233.976	0.39
234.194	0.47
234.411	0.47
234.628	0.41
234.846	0.42
235.063	0.53
235.28	0.58
235.498	0.47
235.715	0.33
235.932	0.72
236.149	0.47
236.367	0.44
236.584	0.44
236.801	0.43
237.018	0.67
237.236	0.6
237.453	0.26
237.67	0.63
237.887	0.5
238.104	0.46
238.321	0.43
238.538	0.44
238.755	0.65
238.973	0.23
239.19	0.5
239.407	0.66
239.624	0.66
239.841	0.36
240.058	0.33
240.275	0.57
240.492	0.45
240.709	0.46
240.925	0.4
241.142	0.47
241.359	0.35
241.576	0.25
241.793	0.29
242.01	0.38
242.227	0.75
242.444	0.51
242.66	0.71
242.877	0.52
243.094	0.37
243.311	0.42
243.527	0.43
243.744	0.52
243.961	0.51
244.178	0.33
244.394	0.34
244.611	0.68
244.828	0.73
245.044	0.32
245.261	0.37
245.477	0.51
245.694	0.48
245.911	0.35
246.127	0.51
246.344	0.68
246.56	0.56
246.777	0.38
246.993	0.44
247.21	0.49
247.426	0.57
247.643	0.33
247.859	0.26
248.076	0.36
248.292	0.69
248.508	0.41
248.725	0.5
248.941	0.5
249.157	0.54
249.374	0.36
249.59	0.41
249.806	0.49
250.023	0.45
250.239	0.3
250.455	0.31
250.671	0.44
250.888	0.49
251.104	0.57
251.32	0.36
251.536	0.37
251.752	0.46
251.969	0.34
252.185	0.4
252.401	0.73
252.617	0.51
252.833	0.38
253.049	0.39
253.265	0.41
253.481	0.44
253.697	0.31
253.913	0.3
254.129	0.51
254.345	0.51
254.561	0.38
254.777	0.4
254.993	0.49
255.209	0.39
255.425	0.35
255.641	0.37
255.857	0.5
256.073	0.46
256.288	0.27
256.504	0.3
256.72	0.46
256.936	0.63
257.152	0.29
257.367	0.25
257.583	0.49
257.799	0.46
258.015	0.34
258.23	0.24
258.446	0.59
258.662	0.38
258.877	0.28
259.093	0.32
259.309	0.37
259.524	0.48
259.74	0.26
259.955	0.21
260.171	0.46
260.387	0.38
260.602	0.46
260.818	0.43
261.033	0.27
261.249	0.45
261.464	0.3
261.68	0.23
261.895	0.5
262.11	0.39
262.326	0.33
262.541	0.28
262.757	0.47
262.972	0.46
263.187	0.36
263.403	0.42
263.618	0.53
263.833	0.29
264.049	0.2
264.264	0.34
264.479	0.34
264.694	0.53
264.91	0.2
265.125	0.3
265.34	0.39
265.555	0.62
265.77	0.37
265.986	0.31
266.201	0.44
266.416	0.39
266.631	0.36
266.846	0.33
267.061	0.42
267.276	0.41
267.491	0.21
267.706	0.41
267.921	0.39
268.136	0.34
268.351	0.41
268.566	0.26
268.781	0.48
268.996	0.5
269.211	0.37
269.426	0.2
269.641	0.31
269.856	0.47
270.071	0.22
270.285	0.2
270.5	0.45
270.715	0.5
270.93	0.31
271.145	0.3
271.359	0.44
271.574	0.31
271.789	0.3
272.004	0.23
272.218	0.34
272.433	0.38
272.648	0.25
272.862	0.36
273.077	0.35
273.292	0.36
273.506	0.22
273.721	0.3
273.936	0.41
274.15	0.46
274.365	0.29
274.579	0.38
274.794	0.39
275.008	0.36
275.223	0.2
275.437	0.29
275.652	0.41
275.866	0.38
276.081	0.3
276.295	0.39
276.509	0.36
276.724	0.42
276.938	0.37
277.153	0.32
277.367	0.37
277.581	0.26
277.796	0.31
278.01	0.29
278.224	0.39
278.438	0.5
278.653	0.24
278.867	0.27
279.081	0.23
279.295	0.38
279.51	0.32
279.724	0.18
279.938	0.38
280.152	0.38
280.366	0.25
280.58	0.38
280.794	0.49
281.008	0.33
281.222	0.37
281.437	0.48
281.651	0.35
281.865	0.46
282.079	0.26
282.293	0.19
282.507	0.28
282.721	0.32
282.935	0.31
283.148	0.2
283.362	0.29
283.576	0.19
283.79	0.28
284.004	0.24
284.218	0.44
284.432	0.22
284.646	0.32
284.859	0.24
285.073	0.24
285.287	0.31
285.501	0.31
285.714	0.28
285.928	0.33
286.142	0.37
286.356	0.26
286.569	0.26
286.783	0.43
286.997	0.31
287.21	0.27
287.424	0.31
287.637	0.32
287.851	0.3
288.065	0.38
288.278	0.27
288.492	0.33
288.705	0.26
288.919	0.29
289.132	0.23
289.346	0.39
289.559	0.21
289.773	0.23
289.986	0.26
290.2	0.26
290.413	0.39
290.626	0.2
290.84	0.22
291.053	0.3
291.267	0.38
291.48	0.3
291.693	0.28
291.906	0.22
292.12	0.26
292.333	0.21
292.546	0.21
292.76	0.39
292.973	0.3
293.186	0.38
293.399	0.2
293.612	0.38
293.826	0.3
294.039	0.27
294.252	0.25
294.465	0.33
294.678	0.31
294.891	0.29
295.104	0.23
295.317	0.24
295.53	0.27
295.743	0.3
295.956	0.28
296.169	0.4
296.382	0.38
296.595	0.27
296.808	0.21
297.021	0.39
297.234	0.34
297.447	0.27
297.66	0.26
297.873	0.35
298.086	0.35
298.299	0.25
298.511	0.19
298.724	0.29
298.937	0.21
299.15	0.22
299.363	0.28
299.575	0.33
299.788	0.31
300.001	0.26
300.213	0.2
300.426	0.19
300.639	0.27
300.852	0.2
301.064	0.28
301.277	0.35
301.489	0.31
301.702	0.27
301.915	0.24
302.127	0.24
302.34	0.27
302.552	0.26
302.765	0.21
302.977	0.31
303.19	0.21
303.402	0.24
303.615	0.22
303.827	0.26
304.04	0.26
304.252	0.31
304.464	0.21
304.677	0.42
304.889	0.37
305.102	0.18
305.314	0.21
305.526	0.31
305.739	0.33
305.951	0.19
306.163	0.21
306.375	0.34
306.588	0.25
306.8	0.23
307.012	0.14
307.224	0.28
307.436	0.36
307.649	0.14
307.861	0.24
308.073	0.32
308.285	0.2
308.497	0.19
308.709	0.21
308.921	0.32
309.133	0.34
309.346	0.25
309.558	0.22
309.77	0.28
309.982	0.33
310.194	0.27
310.406	0.24
310.617	0.4
310.829	0.27
311.041	0.32
311.253	0.19
311.465	0.25
311.677	0.27
311.889	0.27
312.101	0.2
312.313	0.33
312.524	0.37
312.736	0.15
312.948	0.27
313.16	0.33
313.372	0.31
313.583	0.29
313.795	0.23
314.007	0.26
314.218	0.32
314.43	0.28
314.642	0.18
314.853	0.17
315.065	0.3
315.277	0.3
315.488	0.26
315.7	0.35
315.912	0.32
316.123	0.27
316.335	0.2
316.546	0.36
316.758	0.25
316.969	0.19
317.181	0.24
317.392	0.31
317.604	0.29
317.815	0.26
318.026	0.2
318.238	0.28
318.449	0.27
318.661	0.17
318.872	0.16
319.083	0.19
319.295	0.29
319.506	0.22
319.717	0.24
319.929	0.25
320.14	0.26
320.351	0.22
320.562	0.18
320.774	0.26
320.985	0.29
321.196	0.21
321.407	0.16
321.618	0.29
321.829	0.3
322.041	0.23
322.252	0.25
322.463	0.31
322.674	0.3
322.885	0.15
323.096	0.22
323.307	0.27
323.518	0.26
323.729	0.24
323.94	0.22
324.151	0.26
324.362	0.3
324.573	0.26
324.784	0.24
324.995	0.34
325.206	0.3
325.417	0.24
325.628	0.2
325.838	0.29
326.049	0.25
326.26	0.27
326.471	0.25
326.682	0.27
326.892	0.26
327.103	0.18
327.314	0.2
327.525	0.34
327.735	0.28
327.946	0.23
328.157	0.19
328.368	0.3
328.578	0.26
328.789	0.28
328.999	0.24
329.21	0.24
329.421	0.35
329.631	0.21
329.842	0.24
330.052	0.25
330.263	0.3
330.473	0.3
330.684	0.24
330.894	0.32
331.105	0.3
331.315	0.24
331.526	0.22
331.736	0.35
331.947	0.24
332.157	0.26
332.367	0.17
332.578	0.31
332.788	0.34
332.999	0.29
333.209	0.23
333.419	0.2
333.629	0.28
333.84	0.27
334.05	0.31
334.26	0.38
334.47	0.27
334.681	0.28
334.891	0.22
335.101	0.31
335.311	0.34
335.521	0.26
335.732	0.18
335.942	0.36
336.152	0.3
336.362	0.28
336.572	0.28
336.782	0.35
336.992	0.25
337.202	0.28
337.412	0.22
337.622	0.3
337.832	0.28
338.042	0.25
338.252	0.22
338.462	0.24
338.672	0.27
338.882	0.2
339.092	0.26
339.302	0.37
339.511	0.34
339.721	0.26
339.931	0.23
340.141	0.32
340.351	0.31
340.561	0.26
340.77	0.31
340.98	0.24
341.19	0.26
341.4	0.23
341.609	0.21
341.819	0.24
342.029	0.19
342.238	0.3
342.448	0.25
342.658	0.31
342.867	0.24
343.077	0.22
343.286	0.26
343.496	0.3
343.706	0.37
343.915	0.17
344.125	0.26
344.334	0.33
344.544	0.2
344.753	0.23
344.963	0.23
345.172	0.25
345.381	0.28
345.591	0.17
345.8	0.21
346.01	0.38
346.219	0.31
346.428	0.11
346.638	0.22
346.847	0.25
347.056	0.32
347.266	0.23
347.475	0.21
347.684	0.29
347.893	0.26
348.103	0.26
348.312	0.21
348.521	0.24
348.73	0.25
348.94	0.24
349.149	0.22
349.358	0.28
349.567	0.23
349.776	0.19
349.985	0.21
350.194	0.29
350.403	0.28
350.612	0.15
350.821	0.19
351.03	0.24
351.239	0.22
351.448	0.21
351.657	0.22
351.866	0.34
352.075	0.3
352.284	0.35
352.493	0.16
352.702	0.37
352.911	0.28
353.12	0.23
353.329	0.22
353.538	0.27
353.746	0.27
353.955	0.19
354.164	0.24
354.373	0.25
354.582	0.3
354.79	0.2
354.999	0.29
355.208	0.2
355.416	0.31
355.625	0.2
355.834	0.18
356.042	0.26
356.251	0.21
356.46	0.19
356.668	0.25
356.877	0.39
357.085	0.3
357.294	0.16
357.503	0.28
357.711	0.27
357.92	0.43
358.128	0.24
358.337	0.23
358.545	0.26
358.754	0.26
358.962	0.32
359.17	0.2
359.379	0.27
359.587	0.28
359.796	0.22
360.004	0.33
360.212	0.29
360.421	0.33
360.629	0.22
360.837	0.24
361.046	0.31
361.254	0.41
361.462	0.25
361.67	0.19
361.879	0.31
362.087	0.28
362.295	0.27
362.503	0.24
362.711	0.18
362.92	0.23
363.128	0.23
363.336	0.21
363.544	0.2
363.752	0.21
363.96	0.24
364.168	0.22
364.376	0.26
364.584	0.23
364.792	0.3
365	0.3
365.208	0.28
365.416	0.29
365.624	0.31
365.832	0.23
366.04	0.34
366.248	0.25
366.456	0.29
366.664	0.26
366.872	0.26
367.079	0.24
367.287	0.25
367.495	0.25
367.703	0.22
367.911	0.26
368.118	0.25
368.326	0.22
368.534	0.21
368.742	0.31
368.949	0.19
369.157	0.2
369.365	0.29
369.572	0.23
369.78	0.18
369.988	0.3
370.195	0.25
370.403	0.36
370.61	0.21
370.818	0.24
371.026	0.38
371.233	0.19
371.441	0.25
371.648	0.26
371.856	0.27
372.063	0.28
372.271	0.21
372.478	0.18
372.685	0.22
372.893	0.32
373.1	0.22
373.308	0.24
373.515	0.36
373.722	0.31
373.93	0.28
374.137	0.27
374.344	0.4
374.552	0.31
374.759	0.27
374.966	0.27
375.173	0.24
375.381	0.36
375.588	0.26
375.795	0.18
376.002	0.21
376.209	0.21
376.417	0.26
376.624	0.28
376.831	0.29
377.038	0.23
377.245	0.15
377.452	0.24
377.659	0.3
377.866	0.24
378.073	0.26
378.28	0.25
378.487	0.35
378.694	0.32
378.901	0.23
379.108	0.28
379.315	0.33
379.522	0.37
379.729	0.28
379.936	0.21
380.143	0.24
380.35	0.32
380.557	0.29
380.763	0.25
380.97	0.27
381.177	0.29
381.384	0.27
381.591	0.24
381.797	0.33
382.004	0.32
382.211	0.3
382.418	0.26
382.624	0.25
382.831	0.36
383.038	0.27
383.244	0.33
383.451	0.3
383.658	0.33
383.864	0.28
384.071	0.24
384.277	0.38
384.484	0.26
384.69	0.32
384.897	0.26
385.103	0.29
385.31	0.28
385.516	0.2
385.723	0.2
385.929	0.25
386.136	0.24
386.342	0.29
386.549	0.23
386.755	0.37
386.961	0.32
387.168	0.26
387.374	0.25
387.58	0.34
387.787	0.29
387.993	0.28
388.199	0.27
388.406	0.29
388.612	0.31
388.818	0.24
389.024	0.24
389.231	0.31
389.437	0.39
389.643	0.29
389.849	0.27
390.055	0.29
390.261	0.29
390.467	0.3
390.674	0.27
390.88	0.33
391.086	0.32
391.292	0.21
391.498	0.34
391.704	0.33
391.91	0.31
392.116	0.28
392.322	0.19
392.528	0.3
392.734	0.29
392.94	0.33
393.146	0.29
393.352	0.36
393.557	0.29
393.763	0.3
393.969	0.39
394.175	0.33
394.381	0.32
394.587	0.3
394.792	0.29
394.998	0.37
395.204	0.35
395.41	0.28
395.615	0.3
395.821	0.35
396.027	0.42
396.233	0.26
396.438	0.29
396.644	0.39
396.85	0.3
397.055	0.31
397.261	0.38
397.466	0.34
397.672	0.33
397.878	0.36
398.083	0.39
398.289	0.3
398.494	0.46
398.7	0.37
398.905	0.22
399.111	0.46
399.316	0.27
399.522	0.36
399.727	0.35
399.932	0.35
400.138	0.35
400.343	0.38
400.549	0.33
400.754	0.38
400.959	0.4
401.165	0.34
401.37	0.41
401.575	0.51
401.78	0.38
401.986	0.32
402.191	0.34
402.396	0.38
402.601	0.44
402.807	0.4
403.012	0.39
403.217	0.47
403.422	0.42
403.627	0.43
403.832	0.44
404.037	0.46
404.243	0.47
404.448	0.41
404.653	0.39
404.858	0.44
405.063	0.49
405.268	0.41
405.473	0.39
405.678	0.37
405.883	0.66
406.088	0.5
406.293	0.43
406.498	0.53
406.703	0.53
406.907	0.48
407.112	0.41
407.317	0.53
407.522	0.59
407.727	0.5
407.932	0.53
408.136	0.68
408.341	0.58
408.546	0.56
408.751	0.6
408.956	0.6
409.16	0.64
409.365	0.65
409.57	0.58
409.774	0.66
409.979	0.7
410.184	0.69
410.388	0.63
410.593	0.76
410.798	0.8
411.002	0.75
411.207	0.79
411.411	0.78
411.616	0.73
411.82	0.82
412.025	0.87
412.229	0.88
412.434	1.02
412.638	0.94
412.843	0.91
413.047	0.98
413.252	0.95
413.456	1.03
413.66	1.08
413.865	1.01
414.069	1.15
414.273	1.15
414.478	1.12
414.682	1.23
414.886	1.25
415.091	1.18
415.295	1.23
415.499	1.43
415.703	1.4
415.908	1.47
416.112	1.37
416.316	1.54
416.52	1.64
416.724	1.55
416.929	1.62
417.133	1.89
417.337	1.78
417.541	1.82
417.745	1.84
417.949	2
418.153	2.06
418.357	2.02
418.561	2.32
418.765	2.22
418.969	2.42
419.173	2.46
419.377	2.37
419.581	2.71
419.785	2.64
419.989	2.64
420.193	2.86
420.397	2.98
420.601	3.11
420.804	3.14
421.008	3.11
421.212	3.29
421.416	3.26
421.62	3.34
421.823	3.35
422.027	3.56
422.231	3.52
422.435	3.55
422.638	3.55
422.842	3.73
423.046	3.71
423.249	4.03
423.453	4
423.657	4.18
423.86	4.29
424.064	4.4
424.268	4.54
424.471	4.51
424.675	4.69
424.878	4.83
425.082	4.88
425.285	5.23
425.489	5.13
425.692	5.27
425.896	5.31
426.099	5.51
426.303	5.69
426.506	5.75
426.71	6.04
426.913	6.15
427.116	6.45
427.32	6.32
427.523	6.44
427.726	6.8
427.93	6.87
428.133	7.22
428.336	7.23
428.54	7.34
428.743	7.71
428.946	7.94
429.149	8.05
429.353	8.03
429.556	8.04
429.759	8.05
429.962	8.21
430.165	8.29
430.368	8.01
430.571	8.13
430.775	8.15
430.978	8.23
431.181	8.21
431.384	8.22
431.587	8.34
431.79	8.71
431.993	8.59
432.196	8.93
432.399	9.42
432.602	9.53
432.805	9.63
433.008	9.99
433.211	10.02
433.414	10.32
433.616	10.46
433.819	10.3
434.022	10.43
434.225	10.73
434.428	10.7
434.631	11.1
434.833	10.82
435.036	11.14
435.239	11.39
435.442	11.37
435.645	11.48
435.847	11.66
436.05	11.95
436.253	12.2
436.455	12.02
436.658	12.11
436.861	12.38
437.063	12.43
437.266	12.55
437.468	12.79
437.671	13.19
437.874	13.14
438.076	12.99
438.279	13.54
438.481	13.47
438.684	14.23
438.886	13.93
439.089	14.28
439.291	14.2
439.494	14.45
439.696	14.6
439.899	15.4
440.101	15.51
440.303	15.85
440.506	16.67
440.708	16.2
440.91	16.52
441.113	16.68
441.315	16.91
441.517	16.72
441.72	17.43
441.922	16.86
442.124	16.72
442.326	17.23
442.529	17.45
442.731	17.52
442.933	17.88
443.135	17.45
443.337	17.58
443.539	18.03
443.742	17.49
443.944	18.48
444.146	18.1
444.348	18.12
444.55	18
444.752	18.06
444.954	18.17
445.156	18.01
445.358	18.46
445.56	18.66
445.762	18.51
445.964	18.88
446.166	18.53
446.368	18.58
446.57	18.49
446.772	18.22
446.974	17.92
447.175	18.38
447.377	17.98
447.579	18.55
447.781	18.11
447.983	17.82
448.184	17.53
448.386	17.87
448.588	17.23
448.79	17.1
448.991	17.52
449.193	17.5
449.395	16.74
449.597	16.47
449.798	16.3
450	15.85
450.202	15.78
450.403	15.85
450.605	15.79
450.806	15.31
451.008	15.03
451.21	14.93
451.411	14.45
451.613	13.8
451.814	14.07
452.016	13.9
452.217	13.22
452.419	13.34
452.62	13.04
452.821	12.62
453.023	12.59
453.224	12.17
453.426	11.73
453.627	11.13
453.828	11.18
454.03	11.15
454.231	11.25
454.432	11.06
454.634	10.79
454.835	10.42
455.036	10.4
455.238	9.97
455.439	9.78
455.64	9.5
455.841	9.21
456.042	9.4
456.244	9.1
456.445	8.91
456.646	8.62
456.847	8.51
457.048	8.41
457.249	8.38
457.45	8.23
457.651	7.72
457.852	7.59
458.054	7.26
458.255	7.26
458.456	7.33
458.657	7.18
458.858	6.69
459.058	6.72
459.259	6.7
459.46	6.46
459.661	6.4
459.862	6.52
460.063	6.28
460.264	6.18
460.465	5.96
460.666	6.07
460.866	5.69
461.067	5.52
461.268	5.48
461.469	5.46
461.67	5.38
461.87	5.22
462.071	5.22
462.272	5.22
462.473	5.09
462.673	5.31
462.874	5.11
463.075	5.16
463.275	5.09
463.476	5.14
463.676	5.07
463.877	4.89
464.078	4.91
464.278	4.88
464.479	4.81
464.679	4.71
464.88	4.75
465.08	4.64
465.281	4.43
465.481	4.25
465.682	4.11
465.882	4.2
466.083	4.08
466.283	3.96
466.483	3.85
466.684	3.71
466.884	3.59
467.085	3.65
467.285	3.76
467.485	3.63
467.686	3.46
467.886	3.41
468.086	3.37
468.286	3.4
468.487	3.45
468.687	3.27
468.887	3.16
469.087	3.3
469.287	3.26
469.488	3.03
469.688	3.23
469.888	3.25
470.088	3.14
470.288	3.05
470.488	3.03
470.688	2.84
470.888	2.83
471.088	2.73
471.288	2.81
471.488	2.77
471.688	2.74
471.888	2.64
472.088	2.86
472.288	2.7
472.488	2.56
472.688	2.55
472.888	2.62
473.088	2.57
473.288	2.44
473.488	2.47
473.688	2.63
473.887	2.44
474.087	2.41
474.287	2.42
474.487	2.34
474.687	2.39
474.886	2.37
475.086	2.33
475.286	2.34
475.486	2.28
475.685	2.23
475.885	2.17
476.085	2.29
476.284	2.24
476.484	2.28
476.684	2.23
476.883	2.25
477.083	2.16
477.282	2.09
477.482	2.15
477.681	2.18
477.881	2.06
478.08	2.06
478.28	2.06
478.479	2.1
478.679	2.16
478.878	2.04
479.078	2.01
479.277	2.09
479.477	2.07
479.676	2
479.875	1.98
480.075	1.93
480.274	2.02
480.473	2.12
480.673	2.04
480.872	2.07
481.071	2.06
481.271	2.01
481.47	2.03
481.669	2.03
481.868	1.91
482.067	1.97
482.267	1.91
482.466	1.95
482.665	1.94
482.864	1.95
483.063	1.93
483.262	2.02
483.461	2.06
483.661	2.05
483.86	2.02
484.059	2.09
484.258	2.04
484.457	1.99
484.656	2.03
484.855	2.09
485.054	1.93
485.253	1.98
485.452	1.95
485.651	2
485.849	2.03
486.048	1.97
486.247	2.03
486.446	2.11
486.645	2.05
486.844	2.07
487.043	2.05
487.241	2.1
487.44	2.12
487.639	2.1
487.838	2.09
488.037	2.13
488.235	2.18
488.434	2.16
488.633	2.05
488.831	2.18
489.03	2.23
489.229	2.24
489.427	2.2
489.626	2.27
489.825	2.29
490.023	2.3
490.222	2.28
490.42	2.32
490.619	2.38
490.817	2.35
491.016	2.37
491.214	2.45
491.413	2.43
491.611	2.37
491.81	2.39
492.008	2.49
492.207	2.49
492.405	2.51
492.604	2.47
492.802	2.51
493	2.6
493.199	2.61
493.397	2.63
493.595	2.71
493.794	2.67
493.992	2.81
494.19	2.75
494.388	2.81
494.587	2.76
494.785	2.78
494.983	2.74
495.181	2.9
495.379	2.91
495.578	2.95
495.776	2.94
495.974	2.95
496.172	2.96
496.37	3.1
496.568	3.14
496.766	3.1
496.964	3.2
497.162	3.15
497.36	3.22
497.558	3.24
497.756	3.3
497.954	3.28
498.152	3.35
498.35	3.45
498.548	3.39
498.746	3.41
498.944	3.41
499.142	3.43
499.34	3.5
499.538	3.63
499.736	3.51
499.933	3.66
500.131	3.63
500.329	3.77
500.527	3.75
500.725	3.86
500.922	3.86
501.12	3.89
501.318	3.97
501.516	3.95
501.713	4.06
501.911	3.98
502.109	4.01
502.306	4.11
502.504	3.98
502.701	4.14
