Data from Apollo_Calib_20240827__AbsoluteIrradiance__759__11-48-01-431.txt Node

Date: Wed Aug 28 11:48:01 BST 2024
User: biology
Spectrometer: FLMT08252
Trigger mode: 0
Integration Time (sec): 5.000000E-1
Scans to average: 5
Electric dark correction enabled: true
Nonlinearity correction enabled: false
Boxcar width: 0
XAxis mode: Wavelengths
Number of Pixels in Spectrum: 3648
>>>>>Begin Spectral Data<<<<<
179.588	-0
179.809	-0
180.03	-0
180.251	-0
180.473	-0
180.694	0
180.915	0
181.136	-0
181.357	0
181.578	-0
181.799	-0
182.02	-0
182.241	0
182.462	-0
182.683	0
182.904	-0
183.125	-0
183.346	0
183.567	0
183.788	0
184.009	0
184.23	0
184.451	0
184.672	0
184.892	0
185.113	0
185.334	0
185.555	0
185.776	0
185.996	0
186.217	0
186.438	0
186.659	0
186.879	0
187.1	0
187.321	0
187.541	0
187.762	0
187.983	0
188.203	0
188.424	0
188.644	0
188.865	0
189.086	0
189.306	0
189.527	0
189.747	0
189.968	0
190.188	0
190.409	0
190.629	0
190.849	0
191.07	0
191.29	0
191.511	0
191.731	0
191.951	0
192.172	0
192.392	0
192.612	0
192.833	0
193.053	0
193.273	0
193.493	0
193.714	0
193.934	0
194.154	0
194.374	0
194.594	0
194.815	0
195.035	0
195.255	0
195.475	0
195.695	0
195.915	0
196.135	0
196.355	0
196.575	0
196.795	0
197.015	0
197.235	0
197.455	0
197.675	0
197.895	0
198.115	0
198.335	0
198.555	0
198.775	0
198.995	0
199.214	0
199.434	0
199.654	0
199.874	0
200.094	3.37
200.313	1.31
200.533	1.26
200.753	1.5
200.973	3.02
201.192	2.97
201.412	1.13
201.632	1.01
201.851	2.45
202.071	0.96
202.291	1.21
202.51	1.24
202.73	2.28
202.95	1.22
203.169	0.8
203.389	1.45
203.608	1.74
203.828	0.96
204.047	1.04
204.267	1.7
204.486	1.3
204.706	1.66
204.925	1.74
205.145	1.31
205.364	2.18
205.583	2.15
205.803	1.16
206.022	0.91
206.242	1.58
206.461	1.01
206.68	0.84
206.9	1.3
207.119	1.75
207.338	1.89
207.557	0.8
207.777	1.16
207.996	1.11
208.215	1.72
208.434	0.77
208.654	0.59
208.873	1.39
209.092	1.78
209.311	0.91
209.53	1.03
209.749	0.88
209.968	1
210.187	0.8
210.407	0.71
210.626	1
210.845	1.41
211.064	0.93
211.283	0.75
211.502	1.3
211.721	0.78
211.94	0.74
212.159	1.25
212.377	1.02
212.596	1.32
212.815	0.81
213.034	0.96
213.253	1.24
213.472	1.06
213.691	0.76
213.91	0.37
214.128	0.6
214.347	1.24
214.566	0.16
214.785	0.38
215.003	0.99
215.222	1.09
215.441	0.74
215.66	0.29
215.878	0.74
216.097	0.89
216.316	0.58
216.534	0.55
216.753	0.88
216.972	0.74
217.19	0.58
217.409	0.45
217.627	0.62
217.846	0.58
218.064	0.7
218.283	0.54
218.501	0.98
218.72	0.96
218.938	0.41
219.157	0.54
219.375	0.87
219.594	0.7
219.812	0.41
220.031	0.43
220.249	1.02
220.467	0.91
220.686	0.49
220.904	0.26
221.122	0.38
221.341	1
221.559	0.72
221.777	0.37
221.995	0.73
222.214	0.84
222.432	0.49
222.65	0.7
222.868	0.56
223.086	0.7
223.305	0.7
223.523	0.52
223.741	0.99
223.959	0.55
224.177	0.3
224.395	0.52
224.613	0.54
224.831	0.86
225.049	0.39
225.267	0.38
225.485	0.57
225.703	0.5
225.921	0.55
226.139	0.53
226.357	0.64
226.575	0.72
226.793	0.51
227.011	1.4
227.229	0.59
227.447	0.69
227.665	0.52
227.883	0.24
228.1	0.52
228.318	0.63
228.536	0.13
228.754	0.3
228.972	0.7
229.189	0.73
229.407	0.48
229.625	0.36
229.843	0.78
230.06	0.62
230.278	0.36
230.496	0.43
230.713	0.5
230.931	0.6
231.149	0.39
231.366	0.3
231.584	0.46
231.801	0.83
232.019	0.31
232.236	0.35
232.454	0.29
232.671	0.46
232.889	0.29
233.106	0.33
233.324	0.44
233.541	0.4
233.759	0.42
233.976	0.39
234.194	0.4
234.411	0.39
234.628	0.28
234.846	0.33
235.063	0.45
235.28	0.5
235.498	0.36
235.715	0.26
235.932	0.66
236.149	0.48
236.367	0.34
236.584	0.39
236.801	0.29
237.018	0.58
237.236	0.39
237.453	0.24
237.67	0.5
237.887	0.35
238.104	0.44
238.321	0.2
238.538	0.32
238.755	0.73
238.973	0.26
239.19	0.37
239.407	0.53
239.624	0.47
239.841	0.34
240.058	0.33
240.275	0.39
240.492	0.47
240.709	0.26
240.925	0.35
241.142	0.4
241.359	0.29
241.576	0.28
241.793	0.3
242.01	0.39
242.227	0.52
242.444	0.48
242.66	0.53
242.877	0.36
243.094	0.38
243.311	0.38
243.527	0.33
243.744	0.47
243.961	0.44
244.178	0.25
244.394	0.41
244.611	0.4
244.828	0.62
245.044	0.23
245.261	0.31
245.477	0.35
245.694	0.34
245.911	0.25
246.127	0.38
246.344	0.55
246.56	0.45
246.777	0.31
246.993	0.4
247.21	0.41
247.426	0.46
247.643	0.3
247.859	0.22
248.076	0.26
248.292	0.51
248.508	0.26
248.725	0.36
248.941	0.41
249.157	0.48
249.374	0.26
249.59	0.32
249.806	0.38
250.023	0.59
250.239	0.35
250.455	0.27
250.671	0.35
250.888	0.37
251.104	0.37
251.32	0.25
251.536	0.34
251.752	0.34
251.969	0.34
252.185	0.36
252.401	0.45
252.617	0.39
252.833	0.28
253.049	0.28
253.265	0.4
253.481	0.32
253.697	0.25
253.913	0.27
254.129	0.44
254.345	0.44
254.561	0.31
254.777	0.27
254.993	0.42
255.209	0.34
255.425	0.31
255.641	0.21
255.857	0.38
256.073	0.46
256.288	0.15
256.504	0.24
256.72	0.33
256.936	0.46
257.152	0.28
257.367	0.22
257.583	0.32
257.799	0.36
258.015	0.32
258.23	0.3
258.446	0.5
258.662	0.33
258.877	0.16
259.093	0.23
259.309	0.34
259.524	0.33
259.74	0.3
259.955	0.17
260.171	0.32
260.387	0.26
260.602	0.39
260.818	0.28
261.033	0.25
261.249	0.27
261.464	0.23
261.68	0.2
261.895	0.38
262.11	0.37
262.326	0.17
262.541	0.22
262.757	0.33
262.972	0.35
263.187	0.32
263.403	0.29
263.618	0.44
263.833	0.31
264.049	0.21
264.264	0.3
264.479	0.3
264.694	0.42
264.91	0.2
265.125	0.27
265.34	0.35
265.555	0.47
265.77	0.28
265.986	0.27
266.201	0.36
266.416	0.4
266.631	0.28
266.846	0.28
267.061	0.28
267.276	0.41
267.491	0.13
267.706	0.32
267.921	0.29
268.136	0.3
268.351	0.27
268.566	0.19
268.781	0.39
268.996	0.34
269.211	0.25
269.426	0.16
269.641	0.22
269.856	0.4
270.071	0.24
270.285	0.12
270.5	0.35
270.715	0.37
270.93	0.22
271.145	0.31
271.359	0.31
271.574	0.24
271.789	0.26
272.004	0.25
272.218	0.24
272.433	0.3
272.648	0.27
272.862	0.35
273.077	0.29
273.292	0.21
273.506	0.14
273.721	0.18
273.936	0.34
274.15	0.34
274.365	0.18
274.579	0.3
274.794	0.35
275.008	0.3
275.223	0.18
275.437	0.23
275.652	0.33
275.866	0.25
276.081	0.24
276.295	0.39
276.509	0.32
276.724	0.25
276.938	0.21
277.153	0.29
277.367	0.38
277.581	0.21
277.796	0.22
278.01	0.17
278.224	0.29
278.438	0.37
278.653	0.19
278.867	0.2
279.081	0.09
279.295	0.25
279.51	0.25
279.724	0.15
279.938	0.27
280.152	0.26
280.366	0.19
280.58	0.27
280.794	0.28
281.008	0.32
281.222	0.29
281.437	0.43
281.651	0.26
281.865	0.3
282.079	0.21
282.293	0.12
282.507	0.1
282.721	0.22
282.935	0.26
283.148	0.11
283.362	0.25
283.576	0.18
283.79	0.22
284.004	0.16
284.218	0.31
284.432	0.17
284.646	0.29
284.859	0.21
285.073	0.24
285.287	0.29
285.501	0.22
285.714	0.22
285.928	0.21
286.142	0.29
286.356	0.21
286.569	0.15
286.783	0.3
286.997	0.27
287.21	0.13
287.424	0.26
287.637	0.21
287.851	0.2
288.065	0.28
288.278	0.21
288.492	0.24
288.705	0.28
288.919	0.27
289.132	0.14
289.346	0.27
289.559	0.14
289.773	0.22
289.986	0.22
290.2	0.24
290.413	0.32
290.626	0.21
290.84	0.23
291.053	0.25
291.267	0.28
291.48	0.25
291.693	0.22
291.906	0.19
292.12	0.23
292.333	0.18
292.546	0.21
292.76	0.35
292.973	0.24
293.186	0.23
293.399	0.17
293.612	0.28
293.826	0.23
294.039	0.19
294.252	0.21
294.465	0.25
294.678	0.19
294.891	0.22
295.104	0.13
295.317	0.22
295.53	0.23
295.743	0.22
295.956	0.23
296.169	0.3
296.382	0.25
296.595	0.22
296.808	0.17
297.021	0.33
297.234	0.31
297.447	0.22
297.66	0.24
297.873	0.31
298.086	0.28
298.299	0.19
298.511	0.12
298.724	0.17
298.937	0.17
299.15	0.2
299.363	0.19
299.575	0.27
299.788	0.25
300.001	0.21
300.213	0.16
300.426	0.23
300.639	0.15
300.852	0.17
301.064	0.26
301.277	0.29
301.489	0.22
301.702	0.24
301.915	0.2
302.127	0.18
302.34	0.2
302.552	0.23
302.765	0.19
302.977	0.23
303.19	0.23
303.402	0.19
303.615	0.22
303.827	0.23
304.04	0.19
304.252	0.28
304.464	0.17
304.677	0.33
304.889	0.29
305.102	0.21
305.314	0.15
305.526	0.26
305.739	0.23
305.951	0.17
306.163	0.21
306.375	0.28
306.588	0.19
306.8	0.18
307.012	0.18
307.224	0.19
307.436	0.29
307.649	0.11
307.861	0.22
308.073	0.25
308.285	0.21
308.497	0.16
308.709	0.14
308.921	0.22
309.133	0.24
309.346	0.19
309.558	0.18
309.77	0.25
309.982	0.3
310.194	0.22
310.406	0.18
310.617	0.3
310.829	0.17
311.041	0.25
311.253	0.18
311.465	0.16
311.677	0.19
311.889	0.18
312.101	0.15
312.313	0.26
312.524	0.29
312.736	0.11
312.948	0.22
313.16	0.3
313.372	0.3
313.583	0.21
313.795	0.21
314.007	0.19
314.218	0.27
314.43	0.19
314.642	0.16
314.853	0.15
315.065	0.26
315.277	0.18
315.488	0.2
315.7	0.26
315.912	0.26
316.123	0.19
316.335	0.18
316.546	0.34
316.758	0.23
316.969	0.19
317.181	0.19
317.392	0.25
317.604	0.26
317.815	0.19
318.026	0.14
318.238	0.17
318.449	0.2
318.661	0.15
318.872	0.17
319.083	0.17
319.295	0.26
319.506	0.19
319.717	0.22
319.929	0.26
320.14	0.23
320.351	0.23
320.562	0.15
320.774	0.18
320.985	0.22
321.196	0.15
321.407	0.15
321.618	0.27
321.829	0.23
322.041	0.23
322.252	0.21
322.463	0.24
322.674	0.24
322.885	0.16
323.096	0.19
323.307	0.21
323.518	0.21
323.729	0.18
323.94	0.18
324.151	0.2
324.362	0.22
324.573	0.21
324.784	0.21
324.995	0.27
325.206	0.21
325.417	0.2
325.628	0.16
325.838	0.22
326.049	0.24
326.26	0.2
326.471	0.22
326.682	0.22
326.892	0.21
327.103	0.16
327.314	0.15
327.525	0.24
327.735	0.22
327.946	0.2
328.157	0.15
328.368	0.28
328.578	0.23
328.789	0.26
328.999	0.22
329.21	0.19
329.421	0.25
329.631	0.15
329.842	0.18
330.052	0.23
330.263	0.24
330.473	0.27
330.684	0.19
330.894	0.19
331.105	0.23
331.315	0.24
331.526	0.12
331.736	0.3
331.947	0.22
332.157	0.2
332.367	0.16
332.578	0.28
332.788	0.3
332.999	0.22
333.209	0.22
333.419	0.14
333.629	0.25
333.84	0.23
334.05	0.2
334.26	0.31
334.47	0.18
334.681	0.25
334.891	0.17
335.101	0.23
335.311	0.31
335.521	0.22
335.732	0.15
335.942	0.31
336.152	0.25
336.362	0.25
336.572	0.2
336.782	0.28
336.992	0.19
337.202	0.21
337.412	0.14
337.622	0.24
337.832	0.22
338.042	0.16
338.252	0.17
338.462	0.17
338.672	0.2
338.882	0.19
339.092	0.18
339.302	0.31
339.511	0.24
339.721	0.15
339.931	0.12
340.141	0.28
340.351	0.28
340.561	0.25
340.77	0.24
340.98	0.24
341.19	0.22
341.4	0.19
341.609	0.16
341.819	0.22
342.029	0.13
342.238	0.22
342.448	0.2
342.658	0.2
342.867	0.2
343.077	0.23
343.286	0.19
343.496	0.23
343.706	0.26
343.915	0.19
344.125	0.19
344.334	0.22
344.544	0.14
344.753	0.17
344.963	0.2
345.172	0.18
345.381	0.12
345.591	0.17
345.8	0.18
346.01	0.23
346.219	0.31
346.428	0.1
346.638	0.17
346.847	0.17
347.056	0.22
347.266	0.2
347.475	0.19
347.684	0.25
347.893	0.21
348.103	0.25
348.312	0.18
348.521	0.18
348.73	0.2
348.94	0.18
349.149	0.13
349.358	0.22
349.567	0.15
349.776	0.14
349.985	0.14
350.194	0.27
350.403	0.28
350.612	0.15
350.821	0.17
351.03	0.21
351.239	0.12
351.448	0.22
351.657	0.19
351.866	0.31
352.075	0.19
352.284	0.19
352.493	0.16
352.702	0.29
352.911	0.2
353.12	0.26
353.329	0.19
353.538	0.21
353.746	0.19
353.955	0.17
354.164	0.21
354.373	0.19
354.582	0.23
354.79	0.18
354.999	0.26
355.208	0.16
355.416	0.25
355.625	0.13
355.834	0.13
356.042	0.26
356.251	0.18
356.46	0.19
356.668	0.25
356.877	0.3
357.085	0.2
357.294	0.13
357.503	0.21
357.711	0.21
357.92	0.4
358.128	0.22
358.337	0.16
358.545	0.2
358.754	0.19
358.962	0.26
359.17	0.15
359.379	0.22
359.587	0.21
359.796	0.17
360.004	0.27
360.212	0.27
360.421	0.25
360.629	0.17
360.837	0.2
361.046	0.27
361.254	0.32
361.462	0.21
361.67	0.16
361.879	0.22
362.087	0.3
362.295	0.22
362.503	0.17
362.711	0.12
362.92	0.16
363.128	0.16
363.336	0.16
363.544	0.13
363.752	0.19
363.96	0.21
364.168	0.14
364.376	0.2
364.584	0.18
364.792	0.27
365	0.23
365.208	0.2
365.416	0.23
365.624	0.22
365.832	0.17
366.04	0.28
366.248	0.25
366.456	0.18
366.664	0.22
366.872	0.17
367.079	0.19
367.287	0.17
367.495	0.2
367.703	0.22
367.911	0.19
368.118	0.2
368.326	0.21
368.534	0.17
368.742	0.26
368.949	0.14
369.157	0.18
369.365	0.21
369.572	0.15
369.78	0.14
369.988	0.24
370.195	0.19
370.403	0.25
370.61	0.2
370.818	0.24
371.026	0.31
371.233	0.16
371.441	0.23
371.648	0.16
371.856	0.26
372.063	0.19
372.271	0.22
372.478	0.19
372.685	0.16
372.893	0.28
373.1	0.2
373.308	0.17
373.515	0.28
373.722	0.25
373.93	0.2
374.137	0.26
374.344	0.32
374.552	0.27
374.759	0.21
374.966	0.2
375.173	0.19
375.381	0.32
375.588	0.2
375.795	0.11
376.002	0.19
376.209	0.17
376.417	0.21
376.624	0.19
376.831	0.27
377.038	0.22
377.245	0.1
377.452	0.19
377.659	0.22
377.866	0.17
378.073	0.25
378.28	0.19
378.487	0.27
378.694	0.23
378.901	0.23
379.108	0.21
379.315	0.28
379.522	0.33
379.729	0.24
379.936	0.22
380.143	0.22
380.35	0.23
380.557	0.19
380.763	0.18
380.97	0.25
381.177	0.27
381.384	0.31
381.591	0.19
381.797	0.25
382.004	0.26
382.211	0.21
382.418	0.18
382.624	0.26
382.831	0.24
383.038	0.19
383.244	0.25
383.451	0.22
383.658	0.27
383.864	0.2
384.071	0.18
384.277	0.29
384.484	0.21
384.69	0.27
384.897	0.21
385.103	0.22
385.31	0.17
385.516	0.18
385.723	0.23
385.929	0.2
386.136	0.19
386.342	0.25
386.549	0.2
386.755	0.27
386.961	0.26
387.168	0.22
387.374	0.21
387.58	0.28
387.787	0.26
387.993	0.23
388.199	0.23
388.406	0.22
388.612	0.23
388.818	0.2
389.024	0.2
389.231	0.22
389.437	0.33
389.643	0.25
389.849	0.27
390.055	0.26
390.261	0.26
390.467	0.28
390.674	0.23
390.88	0.25
391.086	0.26
391.292	0.15
391.498	0.28
391.704	0.27
391.91	0.23
392.116	0.21
392.322	0.13
392.528	0.28
392.734	0.2
392.94	0.26
393.146	0.23
393.352	0.24
393.557	0.18
393.763	0.25
393.969	0.24
394.175	0.31
394.381	0.26
394.587	0.21
394.792	0.26
394.998	0.33
395.204	0.33
395.41	0.23
395.615	0.25
395.821	0.3
396.027	0.31
396.233	0.27
396.438	0.27
396.644	0.28
396.85	0.27
397.055	0.26
397.261	0.29
397.466	0.25
397.672	0.3
397.878	0.3
398.083	0.29
398.289	0.25
398.494	0.38
398.7	0.31
398.905	0.19
399.111	0.38
399.316	0.2
399.522	0.29
399.727	0.27
399.932	0.26
400.138	0.21
400.343	0.32
400.549	0.29
400.754	0.31
400.959	0.32
401.165	0.29
401.37	0.29
401.575	0.38
401.78	0.34
401.986	0.29
402.191	0.28
402.396	0.29
402.601	0.28
402.807	0.38
403.012	0.32
403.217	0.37
403.422	0.3
403.627	0.32
403.832	0.34
404.037	0.4
404.243	0.38
404.448	0.33
404.653	0.31
404.858	0.33
405.063	0.37
405.268	0.31
405.473	0.33
405.678	0.35
405.883	0.54
406.088	0.4
406.293	0.34
406.498	0.4
406.703	0.39
406.907	0.38
407.112	0.31
407.317	0.41
407.522	0.47
407.727	0.39
407.932	0.45
408.136	0.52
408.341	0.46
408.546	0.46
408.751	0.46
408.956	0.5
409.16	0.55
409.365	0.47
409.57	0.45
409.774	0.52
409.979	0.58
410.184	0.56
410.388	0.51
410.593	0.61
410.798	0.56
411.002	0.58
411.207	0.61
411.411	0.64
411.616	0.61
411.82	0.66
412.025	0.67
412.229	0.67
412.434	0.82
412.638	0.75
412.843	0.73
413.047	0.78
413.252	0.76
413.456	0.86
413.66	0.88
413.865	0.86
414.069	0.97
414.273	0.9
414.478	0.9
414.682	0.93
414.886	1.01
415.091	0.95
415.295	0.97
415.499	1.12
415.703	1.11
415.908	1.23
416.112	1.08
416.316	1.29
416.52	1.28
416.724	1.23
416.929	1.3
417.133	1.54
417.337	1.39
417.541	1.51
417.745	1.48
417.949	1.59
418.153	1.63
418.357	1.65
418.561	1.9
418.765	1.78
418.969	1.94
419.173	2
419.377	1.99
419.581	2.19
419.785	2.12
419.989	2.17
420.193	2.26
420.397	2.36
420.601	2.52
420.804	2.61
421.008	2.58
421.212	2.76
421.416	2.71
421.62	2.67
421.823	2.75
422.027	2.91
422.231	2.84
422.435	2.89
422.638	2.96
422.842	3.11
423.046	3.03
423.249	3.25
423.453	3.27
423.657	3.43
423.86	3.4
424.064	3.56
424.268	3.74
424.471	3.73
424.675	3.92
424.878	3.92
425.082	4.08
425.285	4.28
425.489	4.25
425.692	4.35
425.896	4.33
426.099	4.56
426.303	4.61
426.506	4.71
426.71	4.95
426.913	5.12
427.116	5.28
427.32	5.19
427.523	5.31
427.726	5.61
427.93	5.57
428.133	5.93
428.336	6.08
428.54	6.09
428.743	6.33
428.946	6.54
429.149	6.57
429.353	6.56
429.556	6.61
429.759	6.67
429.962	6.62
430.165	6.96
430.368	6.53
430.571	6.72
430.775	6.73
430.978	6.69
431.181	6.72
431.384	6.77
431.587	6.95
431.79	7.24
431.993	7.16
432.196	7.43
432.399	7.77
432.602	7.9
432.805	7.97
433.008	8.37
433.211	8.31
433.414	8.51
433.616	8.54
433.819	8.51
434.022	8.66
434.225	8.89
434.428	8.78
434.631	9.24
434.833	9.03
435.036	9.19
435.239	9.35
435.442	9.44
435.645	9.53
435.847	9.67
436.05	9.87
436.253	10.08
436.455	10.08
436.658	10.02
436.861	10.39
437.063	10.35
437.266	10.28
437.468	10.62
437.671	10.92
437.874	10.95
438.076	10.79
438.279	11.19
438.481	11.21
438.684	11.85
438.886	11.66
439.089	11.86
439.291	11.92
439.494	12.17
439.696	12.27
439.899	12.86
440.101	13.03
440.303	13.39
440.506	13.89
440.708	13.75
440.91	13.84
441.113	14.01
441.315	14.31
441.517	14.02
441.72	14.62
441.922	14.16
442.124	14.14
442.326	14.48
442.529	14.84
442.731	14.66
442.933	15.05
443.135	14.71
443.337	14.83
443.539	15.3
443.742	14.95
443.944	15.65
444.146	15.33
444.348	15.4
444.55	15.24
444.752	15.42
444.954	15.42
445.156	15.46
445.358	15.78
445.56	16
445.762	15.8
445.964	16.05
446.166	15.8
446.368	15.79
446.57	15.83
446.772	15.64
446.974	15.36
447.175	15.65
447.377	15.37
447.579	15.73
447.781	15.4
447.983	15.25
448.184	14.86
448.386	15.33
448.588	14.83
448.79	14.79
448.991	15.15
449.193	15.03
449.395	14.53
449.597	14.2
449.798	14.11
450	13.68
450.202	13.65
450.403	13.62
450.605	13.56
450.806	13.18
451.008	13.11
451.21	12.82
451.411	12.52
451.613	12.01
451.814	12
452.016	12.08
452.217	11.45
452.419	11.54
452.62	11.2
452.821	10.88
453.023	10.7
453.224	10.43
453.426	10.17
453.627	9.55
453.828	9.65
454.03	9.7
454.231	9.57
454.432	9.49
454.634	9.29
454.835	8.98
455.036	8.94
455.238	8.6
455.439	8.33
455.64	8.1
455.841	8.02
456.042	8.19
456.244	7.84
456.445	7.55
456.646	7.33
456.847	7.33
457.048	7.15
457.249	7.3
457.45	7.03
457.651	6.52
457.852	6.55
458.054	6.25
458.255	6.1
458.456	6.19
458.657	6.12
458.858	5.71
459.058	5.65
459.259	5.72
459.46	5.4
459.661	5.48
459.862	5.51
460.063	5.35
460.264	5.26
460.465	5.09
460.666	5.18
460.866	4.93
461.067	4.67
461.268	4.74
461.469	4.7
461.67	4.64
461.87	4.4
462.071	4.51
462.272	4.37
462.473	4.36
462.673	4.51
462.874	4.35
463.075	4.35
463.275	4.29
463.476	4.43
463.676	4.25
463.877	4.18
464.078	4.23
464.278	4.26
464.479	4.16
464.679	4.05
464.88	3.96
465.08	3.96
465.281	3.79
465.481	3.71
465.682	3.55
465.882	3.58
466.083	3.49
466.283	3.41
466.483	3.32
466.684	3.15
466.884	3.04
467.085	3.15
467.285	3.19
467.485	3.09
467.686	3.06
467.886	2.95
468.086	2.83
468.286	2.84
468.487	2.94
468.687	2.73
468.887	2.69
469.087	2.82
469.287	2.75
469.488	2.61
469.688	2.71
469.888	2.67
470.088	2.67
470.288	2.58
470.488	2.51
470.688	2.42
470.888	2.42
471.088	2.24
471.288	2.37
471.488	2.36
471.688	2.31
471.888	2.29
472.088	2.4
472.288	2.29
472.488	2.22
472.688	2.15
472.888	2.19
473.088	2.25
473.288	2.08
473.488	2.04
473.688	2.23
473.887	1.99
474.087	2.09
474.287	2.09
474.487	1.96
474.687	2.06
474.886	2
475.086	1.97
475.286	1.93
475.486	1.86
475.685	1.9
475.885	1.87
476.085	1.92
476.284	1.93
476.484	1.85
476.684	1.89
476.883	1.91
477.083	1.85
477.282	1.79
477.482	1.86
477.681	1.77
477.881	1.73
478.08	1.76
478.28	1.69
478.479	1.82
478.679	1.83
478.878	1.75
479.078	1.69
479.277	1.78
479.477	1.71
479.676	1.72
479.875	1.72
480.075	1.64
480.274	1.7
480.473	1.78
480.673	1.69
480.872	1.76
481.071	1.71
481.271	1.68
481.47	1.7
481.669	1.69
481.868	1.66
482.067	1.68
482.267	1.57
482.466	1.62
482.665	1.63
482.864	1.6
483.063	1.6
483.262	1.7
483.461	1.74
483.661	1.73
483.86	1.69
484.059	1.71
484.258	1.71
484.457	1.72
484.656	1.72
484.855	1.79
485.054	1.61
485.253	1.69
485.452	1.65
485.651	1.75
485.849	1.71
486.048	1.66
486.247	1.72
486.446	1.73
486.645	1.67
486.844	1.76
487.043	1.75
487.241	1.74
487.44	1.75
487.639	1.77
487.838	1.78
488.037	1.78
488.235	1.87
488.434	1.82
488.633	1.73
488.831	1.87
489.03	1.91
489.229	1.88
489.427	1.87
489.626	1.93
489.825	1.93
490.023	1.91
490.222	1.92
490.42	1.94
490.619	1.96
490.817	1.99
491.016	1.96
491.214	2.04
491.413	2.03
491.611	2
491.81	2
492.008	2.09
492.207	2.16
492.405	2.14
492.604	2.09
492.802	2.17
493	2.22
493.199	2.19
493.397	2.25
493.595	2.28
493.794	2.26
493.992	2.38
494.19	2.36
494.388	2.41
494.587	2.34
494.785	2.36
494.983	2.33
495.181	2.42
495.379	2.48
495.578	2.54
495.776	2.52
495.974	2.47
496.172	2.52
496.37	2.59
496.568	2.66
496.766	2.6
496.964	2.73
497.162	2.67
497.36	2.7
497.558	2.79
497.756	2.79
497.954	2.77
498.152	2.86
498.35	2.96
498.548	2.87
498.746	2.86
498.944	2.89
499.142	2.91
499.34	2.97
499.538	3.08
499.736	3.03
499.933	3.14
500.131	3.07
500.329	3.22
500.527	3.2
500.725	3.31
500.922	3.3
501.12	3.31
501.318	3.38
501.516	3.34
501.713	3.44
501.911	3.39
502.109	3.42
502.306	3.47
502.504	3.39
502.701	3.49
502.899	3.56
503.097	3.76
503.294	3.58
