Data from Apollo_Calib_20240827__AbsoluteIrradiance__858__13-27-00-407.txt Node

Date: Wed Aug 28 13:27:00 BST 2024
User: biology
Spectrometer: FLMT08252
Trigger mode: 0
Integration Time (sec): 5.000000E-1
Scans to average: 5
Electric dark correction enabled: true
Nonlinearity correction enabled: false
Boxcar width: 0
XAxis mode: Wavelengths
Number of Pixels in Spectrum: 3648
>>>>>Begin Spectral Data<<<<<
179.588	-0
179.809	-0
180.03	-0
180.251	-0
180.473	-0
180.694	0
180.915	0
181.136	-0
181.357	0
181.578	-0
181.799	-0
182.02	-0
182.241	0
182.462	-0
182.683	0
182.904	-0
183.125	-0
183.346	0
183.567	0
183.788	0
184.009	0
184.23	0
184.451	0
184.672	0
184.892	0
185.113	0
185.334	0
185.555	0
185.776	0
185.996	0
186.217	0
186.438	0
186.659	0
186.879	0
187.1	0
187.321	0
187.541	0
187.762	0
187.983	0
188.203	0
188.424	0
188.644	0
188.865	0
189.086	0
189.306	0
189.527	0
189.747	0
189.968	0
190.188	0
190.409	0
190.629	0
190.849	0
191.07	0
191.29	0
191.511	0
191.731	0
191.951	0
192.172	0
192.392	0
192.612	0
192.833	0
193.053	0
193.273	0
193.493	0
193.714	0
193.934	0
194.154	0
194.374	0
194.594	0
194.815	0
195.035	0
195.255	0
195.475	0
195.695	0
195.915	0
196.135	0
196.355	0
196.575	0
196.795	0
197.015	0
197.235	0
197.455	0
197.675	0
197.895	0
198.115	0
198.335	0
198.555	0
198.775	0
198.995	0
199.214	0
199.434	0
199.654	0
199.874	0
200.094	4.29
200.313	2.57
200.533	1.94
200.753	1.7
200.973	4.38
201.192	3.64
201.412	2.05
201.632	1.77
201.851	3.22
202.071	1.73
202.291	1.59
202.51	1.72
202.73	3.22
202.95	1.86
203.169	1.32
203.389	1.72
203.608	2.26
203.828	2.03
204.047	1.18
204.267	2.32
204.486	2.24
204.706	2.1
204.925	1.87
205.145	1.37
205.364	2.67
205.583	2.83
205.803	1.54
206.022	1.55
206.242	1.78
206.461	1.62
206.68	1.16
206.9	1.84
207.119	2.44
207.338	2.41
207.557	1.49
207.777	1.11
207.996	1.56
208.215	2.64
208.434	1.04
208.654	1.12
208.873	1.64
209.092	2.41
209.311	1.24
209.53	1.46
209.749	1.31
209.968	0.96
210.187	1.16
210.407	0.84
210.626	1.29
210.845	1.79
211.064	1.24
211.283	1.03
211.502	1.76
211.721	1.28
211.94	1.1
212.159	1.36
212.377	1.48
212.596	1.44
212.815	1.27
213.034	1.29
213.253	1.39
213.472	1.49
213.691	1.29
213.91	0.91
214.128	0.83
214.347	1.45
214.566	0.65
214.785	0.64
215.003	1.27
215.222	1.09
215.441	0.97
215.66	0.43
215.878	1.06
216.097	1.33
216.316	0.68
216.534	0.72
216.753	1.15
216.972	0.77
217.19	0.92
217.409	0.62
217.627	0.94
217.846	0.86
218.064	1
218.283	0.69
218.501	1.56
218.72	1.28
218.938	0.56
219.157	0.81
219.375	1.18
219.594	1.23
219.812	0.5
220.031	0.75
220.249	1.34
220.467	1.35
220.686	0.68
220.904	0.69
221.122	0.69
221.341	1.19
221.559	0.95
221.777	0.39
221.995	1.03
222.214	0.84
222.432	0.77
222.65	0.85
222.868	0.69
223.086	0.97
223.305	0.92
223.523	0.63
223.741	1.07
223.959	0.72
224.177	0.46
224.395	0.55
224.613	0.91
224.831	1.02
225.049	0.64
225.267	0.64
225.485	0.83
225.703	0.76
225.921	0.54
226.139	0.59
226.357	1.04
226.575	0.82
226.793	0.62
227.011	1.55
227.229	0.91
227.447	1.03
227.665	0.5
227.883	0.43
228.1	0.67
228.318	0.81
228.536	0.3
228.754	0.45
228.972	0.92
229.189	0.7
229.407	0.56
229.625	0.55
229.843	0.91
230.06	0.95
230.278	0.57
230.496	0.57
230.713	0.62
230.931	0.84
231.149	0.53
231.366	0.41
231.584	0.64
231.801	1.04
232.019	0.49
232.236	0.47
232.454	0.52
232.671	0.74
232.889	0.51
233.106	0.45
233.324	0.73
233.541	0.62
233.759	0.48
233.976	0.41
234.194	0.55
234.411	0.61
234.628	0.46
234.846	0.46
235.063	0.47
235.28	0.63
235.498	0.48
235.715	0.38
235.932	0.91
236.149	0.59
236.367	0.32
236.584	0.62
236.801	0.41
237.018	0.75
237.236	0.43
237.453	0.28
237.67	0.7
237.887	0.52
238.104	0.53
238.321	0.44
238.538	0.44
238.755	0.7
238.973	0.43
239.19	0.58
239.407	0.71
239.624	0.66
239.841	0.35
240.058	0.38
240.275	0.58
240.492	0.5
240.709	0.51
240.925	0.39
241.142	0.52
241.359	0.35
241.576	0.34
241.793	0.34
242.01	0.47
242.227	0.7
242.444	0.56
242.66	0.76
242.877	0.58
243.094	0.4
243.311	0.52
243.527	0.52
243.744	0.59
243.961	0.6
244.178	0.36
244.394	0.42
244.611	0.6
244.828	0.72
245.044	0.32
245.261	0.4
245.477	0.48
245.694	0.52
245.911	0.32
246.127	0.46
246.344	0.7
246.56	0.58
246.777	0.42
246.993	0.44
247.21	0.46
247.426	0.55
247.643	0.31
247.859	0.37
248.076	0.42
248.292	0.68
248.508	0.37
248.725	0.52
248.941	0.46
249.157	0.65
249.374	0.37
249.59	0.38
249.806	0.45
250.023	0.63
250.239	0.34
250.455	0.34
250.671	0.51
250.888	0.52
251.104	0.49
251.32	0.41
251.536	0.39
251.752	0.48
251.969	0.37
252.185	0.45
252.401	0.75
252.617	0.49
252.833	0.38
253.049	0.35
253.265	0.36
253.481	0.42
253.697	0.35
253.913	0.32
254.129	0.46
254.345	0.51
254.561	0.37
254.777	0.32
254.993	0.51
255.209	0.5
255.425	0.39
255.641	0.39
255.857	0.5
256.073	0.44
256.288	0.29
256.504	0.35
256.72	0.52
256.936	0.6
257.152	0.39
257.367	0.33
257.583	0.45
257.799	0.51
258.015	0.31
258.23	0.37
258.446	0.63
258.662	0.38
258.877	0.3
259.093	0.3
259.309	0.47
259.524	0.48
259.74	0.28
259.955	0.25
260.171	0.42
260.387	0.43
260.602	0.47
260.818	0.37
261.033	0.26
261.249	0.4
261.464	0.33
261.68	0.24
261.895	0.51
262.11	0.48
262.326	0.41
262.541	0.36
262.757	0.54
262.972	0.47
263.187	0.41
263.403	0.39
263.618	0.54
263.833	0.39
264.049	0.29
264.264	0.35
264.479	0.42
264.694	0.53
264.91	0.2
265.125	0.32
265.34	0.49
265.555	0.53
265.77	0.41
265.986	0.26
266.201	0.43
266.416	0.47
266.631	0.26
266.846	0.33
267.061	0.44
267.276	0.47
267.491	0.21
267.706	0.44
267.921	0.47
268.136	0.38
268.351	0.35
268.566	0.27
268.781	0.46
268.996	0.49
269.211	0.39
269.426	0.28
269.641	0.37
269.856	0.45
270.071	0.29
270.285	0.26
270.5	0.43
270.715	0.46
270.93	0.3
271.145	0.36
271.359	0.44
271.574	0.35
271.789	0.37
272.004	0.3
272.218	0.36
272.433	0.43
272.648	0.24
272.862	0.49
273.077	0.41
273.292	0.39
273.506	0.3
273.721	0.29
273.936	0.44
274.15	0.43
274.365	0.31
274.579	0.4
274.794	0.41
275.008	0.4
275.223	0.21
275.437	0.25
275.652	0.44
275.866	0.41
276.081	0.32
276.295	0.38
276.509	0.37
276.724	0.4
276.938	0.32
277.153	0.33
277.367	0.38
277.581	0.32
277.796	0.3
278.01	0.24
278.224	0.32
278.438	0.48
278.653	0.29
278.867	0.24
279.081	0.19
279.295	0.29
279.51	0.33
279.724	0.17
279.938	0.35
280.152	0.38
280.366	0.25
280.58	0.38
280.794	0.45
281.008	0.36
281.222	0.36
281.437	0.53
281.651	0.33
281.865	0.38
282.079	0.3
282.293	0.19
282.507	0.29
282.721	0.29
282.935	0.31
283.148	0.24
283.362	0.24
283.576	0.23
283.79	0.28
284.004	0.24
284.218	0.44
284.432	0.27
284.646	0.3
284.859	0.2
285.073	0.34
285.287	0.29
285.501	0.27
285.714	0.28
285.928	0.3
286.142	0.36
286.356	0.26
286.569	0.3
286.783	0.42
286.997	0.43
287.21	0.31
287.424	0.3
287.637	0.31
287.851	0.28
288.065	0.39
288.278	0.32
288.492	0.34
288.705	0.32
288.919	0.33
289.132	0.21
289.346	0.36
289.559	0.24
289.773	0.22
289.986	0.27
290.2	0.3
290.413	0.35
290.626	0.27
290.84	0.25
291.053	0.32
291.267	0.42
291.48	0.27
291.693	0.27
291.906	0.25
292.12	0.31
292.333	0.26
292.546	0.24
292.76	0.39
292.973	0.33
293.186	0.35
293.399	0.21
293.612	0.31
293.826	0.29
294.039	0.27
294.252	0.3
294.465	0.35
294.678	0.32
294.891	0.34
295.104	0.24
295.317	0.31
295.53	0.35
295.743	0.3
295.956	0.26
296.169	0.4
296.382	0.34
296.595	0.26
296.808	0.18
297.021	0.35
297.234	0.35
297.447	0.28
297.66	0.27
297.873	0.37
298.086	0.37
298.299	0.19
298.511	0.24
298.724	0.28
298.937	0.26
299.15	0.24
299.363	0.21
299.575	0.34
299.788	0.29
300.001	0.25
300.213	0.22
300.426	0.25
300.639	0.25
300.852	0.2
301.064	0.32
301.277	0.35
301.489	0.33
301.702	0.3
301.915	0.22
302.127	0.32
302.34	0.34
302.552	0.34
302.765	0.22
302.977	0.33
303.19	0.21
303.402	0.21
303.615	0.26
303.827	0.27
304.04	0.23
304.252	0.34
304.464	0.24
304.677	0.39
304.889	0.3
305.102	0.19
305.314	0.25
305.526	0.3
305.739	0.3
305.951	0.18
306.163	0.27
306.375	0.41
306.588	0.27
306.8	0.25
307.012	0.19
307.224	0.33
307.436	0.38
307.649	0.23
307.861	0.29
308.073	0.32
308.285	0.28
308.497	0.19
308.709	0.25
308.921	0.29
309.133	0.38
309.346	0.23
309.558	0.26
309.77	0.32
309.982	0.39
310.194	0.33
310.406	0.21
310.617	0.36
310.829	0.26
311.041	0.3
311.253	0.17
311.465	0.23
311.677	0.24
311.889	0.24
312.101	0.21
312.313	0.34
312.524	0.4
312.736	0.19
312.948	0.21
313.16	0.39
313.372	0.33
313.583	0.27
313.795	0.22
314.007	0.26
314.218	0.33
314.43	0.29
314.642	0.25
314.853	0.22
315.065	0.31
315.277	0.26
315.488	0.28
315.7	0.32
315.912	0.31
316.123	0.27
316.335	0.23
316.546	0.41
316.758	0.26
316.969	0.23
317.181	0.26
317.392	0.3
317.604	0.32
317.815	0.24
318.026	0.2
318.238	0.25
318.449	0.33
318.661	0.17
318.872	0.19
319.083	0.2
319.295	0.38
319.506	0.23
319.717	0.26
319.929	0.34
320.14	0.3
320.351	0.24
320.562	0.21
320.774	0.25
320.985	0.26
321.196	0.18
321.407	0.21
321.618	0.31
321.829	0.26
322.041	0.27
322.252	0.27
322.463	0.32
322.674	0.3
322.885	0.21
323.096	0.27
323.307	0.33
323.518	0.27
323.729	0.23
323.94	0.27
324.151	0.25
324.362	0.33
324.573	0.24
324.784	0.25
324.995	0.36
325.206	0.32
325.417	0.27
325.628	0.21
325.838	0.26
326.049	0.32
326.26	0.29
326.471	0.25
326.682	0.26
326.892	0.32
327.103	0.15
327.314	0.21
327.525	0.38
327.735	0.3
327.946	0.23
328.157	0.17
328.368	0.31
328.578	0.28
328.789	0.29
328.999	0.22
329.21	0.24
329.421	0.36
329.631	0.25
329.842	0.19
330.052	0.28
330.263	0.32
330.473	0.32
330.684	0.23
330.894	0.3
331.105	0.29
331.315	0.3
331.526	0.18
331.736	0.35
331.947	0.3
332.157	0.3
332.367	0.16
332.578	0.31
332.788	0.35
332.999	0.29
333.209	0.26
333.419	0.2
333.629	0.35
333.84	0.29
334.05	0.22
334.26	0.34
334.47	0.23
334.681	0.34
334.891	0.25
335.101	0.34
335.311	0.37
335.521	0.26
335.732	0.19
335.942	0.36
336.152	0.31
336.362	0.24
336.572	0.27
336.782	0.33
336.992	0.28
337.202	0.23
337.412	0.16
337.622	0.31
337.832	0.26
338.042	0.27
338.252	0.21
338.462	0.24
338.672	0.23
338.882	0.26
339.092	0.24
339.302	0.34
339.511	0.32
339.721	0.26
339.931	0.16
340.141	0.32
340.351	0.32
340.561	0.28
340.77	0.31
340.98	0.29
341.19	0.31
341.4	0.24
341.609	0.25
341.819	0.26
342.029	0.27
342.238	0.26
342.448	0.26
342.658	0.3
342.867	0.22
343.077	0.27
343.286	0.22
343.496	0.27
343.706	0.37
343.915	0.22
344.125	0.26
344.334	0.32
344.544	0.18
344.753	0.22
344.963	0.22
345.172	0.23
345.381	0.25
345.591	0.22
345.8	0.26
346.01	0.31
346.219	0.33
346.428	0.12
346.638	0.25
346.847	0.27
347.056	0.37
347.266	0.25
347.475	0.21
347.684	0.32
347.893	0.3
348.103	0.29
348.312	0.22
348.521	0.26
348.73	0.27
348.94	0.27
349.149	0.22
349.358	0.26
349.567	0.23
349.776	0.18
349.985	0.19
350.194	0.35
350.403	0.34
350.612	0.21
350.821	0.21
351.03	0.25
351.239	0.21
351.448	0.26
351.657	0.2
351.866	0.37
352.075	0.27
352.284	0.36
352.493	0.16
352.702	0.34
352.911	0.28
353.12	0.27
353.329	0.25
353.538	0.27
353.746	0.33
353.955	0.2
354.164	0.26
354.373	0.25
354.582	0.25
354.79	0.22
354.999	0.29
355.208	0.27
355.416	0.31
355.625	0.2
355.834	0.21
356.042	0.3
356.251	0.24
356.46	0.19
356.668	0.28
356.877	0.35
357.085	0.29
357.294	0.17
357.503	0.27
357.711	0.24
357.92	0.46
358.128	0.31
358.337	0.24
358.545	0.28
358.754	0.21
358.962	0.28
359.17	0.22
359.379	0.31
359.587	0.24
359.796	0.28
360.004	0.35
360.212	0.32
360.421	0.36
360.629	0.24
360.837	0.24
361.046	0.3
361.254	0.41
361.462	0.24
361.67	0.23
361.879	0.29
362.087	0.31
362.295	0.24
362.503	0.21
362.711	0.23
362.92	0.25
363.128	0.22
363.336	0.2
363.544	0.22
363.752	0.29
363.96	0.23
364.168	0.25
364.376	0.25
364.584	0.26
364.792	0.34
365	0.26
365.208	0.28
365.416	0.28
365.624	0.34
365.832	0.24
366.04	0.32
366.248	0.29
366.456	0.28
366.664	0.26
366.872	0.26
367.079	0.22
367.287	0.27
367.495	0.26
367.703	0.24
367.911	0.25
368.118	0.3
368.326	0.29
368.534	0.22
368.742	0.36
368.949	0.19
369.157	0.19
369.365	0.3
369.572	0.24
369.78	0.24
369.988	0.27
370.195	0.28
370.403	0.3
370.61	0.23
370.818	0.23
371.026	0.33
371.233	0.24
371.441	0.28
371.648	0.2
371.856	0.27
372.063	0.29
372.271	0.22
372.478	0.25
372.685	0.26
372.893	0.31
373.1	0.22
373.308	0.23
373.515	0.43
373.722	0.29
373.93	0.3
374.137	0.29
374.344	0.34
374.552	0.31
374.759	0.29
374.966	0.26
375.173	0.22
375.381	0.34
375.588	0.28
375.795	0.18
376.002	0.26
376.209	0.26
376.417	0.3
376.624	0.33
376.831	0.34
377.038	0.25
377.245	0.19
377.452	0.22
377.659	0.24
377.866	0.23
378.073	0.25
378.28	0.26
378.487	0.32
378.694	0.34
378.901	0.26
379.108	0.28
379.315	0.3
379.522	0.39
379.729	0.3
379.936	0.25
380.143	0.3
380.35	0.32
380.557	0.3
380.763	0.28
380.97	0.3
381.177	0.28
381.384	0.3
381.591	0.23
381.797	0.3
382.004	0.34
382.211	0.28
382.418	0.19
382.624	0.34
382.831	0.37
383.038	0.29
383.244	0.3
383.451	0.33
383.658	0.3
383.864	0.29
384.071	0.2
384.277	0.38
384.484	0.27
384.69	0.36
384.897	0.23
385.103	0.28
385.31	0.26
385.516	0.26
385.723	0.21
385.929	0.3
386.136	0.26
386.342	0.31
386.549	0.24
386.755	0.34
386.961	0.32
387.168	0.32
387.374	0.31
387.58	0.33
387.787	0.31
387.993	0.3
388.199	0.27
388.406	0.23
388.612	0.26
388.818	0.24
389.024	0.26
389.231	0.35
389.437	0.42
389.643	0.33
389.849	0.35
390.055	0.37
390.261	0.32
390.467	0.34
390.674	0.28
390.88	0.3
391.086	0.35
391.292	0.26
391.498	0.34
391.704	0.35
391.91	0.29
392.116	0.35
392.322	0.22
392.528	0.35
392.734	0.31
392.94	0.31
393.146	0.29
393.352	0.34
393.557	0.32
393.763	0.31
393.969	0.4
394.175	0.28
394.381	0.31
394.587	0.25
394.792	0.3
394.998	0.4
395.204	0.36
395.41	0.27
395.615	0.3
395.821	0.37
396.027	0.37
396.233	0.3
396.438	0.39
396.644	0.37
396.85	0.32
397.055	0.35
397.261	0.36
397.466	0.43
397.672	0.41
397.878	0.4
398.083	0.37
398.289	0.31
398.494	0.39
398.7	0.42
398.905	0.25
399.111	0.47
399.316	0.27
399.522	0.33
399.727	0.34
399.932	0.34
400.138	0.36
400.343	0.37
400.549	0.33
400.754	0.37
400.959	0.39
401.165	0.34
401.37	0.41
401.575	0.49
401.78	0.4
401.986	0.35
402.191	0.34
402.396	0.4
402.601	0.42
402.807	0.42
403.012	0.41
403.217	0.44
403.422	0.45
403.627	0.45
403.832	0.39
404.037	0.5
404.243	0.46
404.448	0.4
404.653	0.41
404.858	0.47
405.063	0.5
405.268	0.42
405.473	0.41
405.678	0.41
405.883	0.68
406.088	0.56
406.293	0.42
406.498	0.47
406.703	0.53
406.907	0.5
407.112	0.45
407.317	0.52
407.522	0.61
407.727	0.48
407.932	0.54
408.136	0.66
408.341	0.57
408.546	0.53
408.751	0.57
408.956	0.57
409.16	0.7
409.365	0.57
409.57	0.62
409.774	0.66
409.979	0.72
410.184	0.7
410.388	0.68
410.593	0.77
410.798	0.74
411.002	0.76
411.207	0.81
411.411	0.79
411.616	0.73
411.82	0.81
412.025	0.85
412.229	0.79
412.434	0.91
412.638	0.93
412.843	0.88
413.047	0.96
413.252	0.91
413.456	1.03
413.66	1.1
413.865	1.12
414.069	1.17
414.273	1.13
414.478	1.1
414.682	1.16
414.886	1.2
415.091	1.17
415.295	1.26
415.499	1.4
415.703	1.4
415.908	1.46
416.112	1.4
416.316	1.56
416.52	1.57
416.724	1.48
416.929	1.52
417.133	1.82
417.337	1.73
417.541	1.82
417.745	1.84
417.949	2.01
418.153	1.91
418.357	2.02
418.561	2.19
418.765	2.12
418.969	2.31
419.173	2.44
419.377	2.35
419.581	2.66
419.785	2.57
419.989	2.56
420.193	2.73
420.397	2.79
420.601	3
420.804	3.08
421.008	3.01
421.212	3.23
421.416	3.22
421.62	3.22
421.823	3.24
422.027	3.39
422.231	3.39
422.435	3.43
422.638	3.5
422.842	3.62
423.046	3.62
423.249	3.83
423.453	3.82
423.657	4.07
423.86	3.98
424.064	4.22
424.268	4.38
424.471	4.43
424.675	4.6
424.878	4.72
425.082	4.77
425.285	5.07
425.489	5.01
425.692	5.1
425.896	5.06
426.099	5.37
426.303	5.43
426.506	5.55
426.71	5.87
426.913	6.1
427.116	6.19
427.32	6.15
427.523	6.27
427.726	6.61
427.93	6.62
428.133	6.9
428.336	6.99
428.54	7.25
428.743	7.53
428.946	7.62
429.149	7.72
429.353	7.69
429.556	7.91
429.759	7.96
429.962	8.08
430.165	8.23
430.368	7.82
430.571	7.87
430.775	7.98
430.978	7.88
431.181	7.99
431.384	8.04
431.587	8.2
431.79	8.61
431.993	8.5
432.196	8.77
432.399	9.21
432.602	9.22
432.805	9.32
433.008	9.96
433.211	9.79
433.414	10.07
433.616	10.29
433.819	10.2
434.022	10.47
434.225	10.47
434.428	10.47
434.631	10.96
434.833	10.58
435.036	10.96
435.239	11.19
435.442	11.17
435.645	11.37
435.847	11.53
436.05	11.78
436.253	12.03
436.455	11.85
436.658	11.95
436.861	12.3
437.063	12.4
437.266	12.4
437.468	12.6
437.671	13.02
437.874	12.92
438.076	12.91
438.279	13.18
438.481	13.28
438.684	14.08
438.886	13.68
439.089	13.85
439.291	14.07
439.494	14.36
439.696	14.43
439.899	15.02
440.101	15.5
440.303	15.66
440.506	16.3
440.708	16.13
440.91	16.26
441.113	16.63
441.315	16.82
441.517	16.62
441.72	17.19
441.922	16.65
442.124	16.68
442.326	17.05
442.529	17.27
442.731	17.18
442.933	17.48
443.135	17.37
443.337	17.37
443.539	17.76
443.742	17.41
443.944	18.2
444.146	17.97
444.348	17.89
444.55	17.88
444.752	17.88
444.954	17.99
445.156	17.88
445.358	18.34
445.56	18.55
445.762	18.26
445.964	18.63
446.166	18.47
446.368	18.46
446.57	18.49
446.772	18.16
446.974	17.92
447.175	18.22
447.377	17.92
447.579	18.34
447.781	17.92
447.983	17.73
448.184	17.33
448.386	17.78
448.588	17.17
448.79	17.21
448.991	17.7
449.193	17.56
449.395	16.86
449.597	16.4
449.798	16.38
450	16.06
450.202	15.75
450.403	15.94
450.605	15.84
450.806	15.44
451.008	15.4
451.21	15.15
451.411	14.64
451.613	13.91
451.814	14.26
452.016	14.18
452.217	13.46
452.419	13.4
452.62	13.12
452.821	12.76
453.023	12.73
453.224	12.37
453.426	11.93
453.627	11.22
453.828	11.33
454.03	11.4
454.231	11.47
454.432	11.19
454.634	11.05
454.835	10.71
455.036	10.57
455.238	10.14
455.439	10.1
455.64	9.81
455.841	9.54
456.042	9.74
456.244	9.37
456.445	8.97
456.646	8.7
456.847	8.73
457.048	8.58
457.249	8.6
457.45	8.47
457.651	7.81
457.852	7.7
458.054	7.44
458.255	7.34
458.456	7.48
458.657	7.36
458.858	6.78
459.058	6.75
459.259	6.89
459.46	6.6
459.661	6.57
459.862	6.61
460.063	6.41
460.264	6.38
460.465	6.01
460.666	6.19
460.866	5.76
461.067	5.6
461.268	5.61
461.469	5.59
461.67	5.53
461.87	5.32
462.071	5.28
462.272	5.14
462.473	5.22
462.673	5.33
462.874	5.31
463.075	5.23
463.275	5.22
463.476	5.34
463.676	5.23
463.877	5.08
464.078	5.07
464.278	5.11
464.479	4.92
464.679	4.91
464.88	4.76
465.08	4.76
465.281	4.52
465.481	4.4
465.682	4.2
465.882	4.29
466.083	4.23
466.283	4.14
466.483	3.95
466.684	3.8
466.884	3.69
467.085	3.78
467.285	3.88
467.485	3.64
467.686	3.61
467.886	3.55
468.086	3.43
468.286	3.47
468.487	3.53
468.687	3.34
468.887	3.32
469.087	3.46
469.287	3.34
469.488	3.1
469.688	3.33
469.888	3.25
470.088	3.2
470.288	3.14
470.488	3.09
470.688	2.91
470.888	2.93
471.088	2.72
471.288	2.91
471.488	2.85
471.688	2.77
471.888	2.68
472.088	2.91
472.288	2.84
472.488	2.74
472.688	2.59
472.888	2.66
473.088	2.62
473.288	2.52
473.488	2.54
473.688	2.61
473.887	2.53
474.087	2.49
474.287	2.5
474.487	2.46
474.687	2.45
474.886	2.38
475.086	2.36
475.286	2.44
475.486	2.42
475.685	2.31
475.885	2.23
476.085	2.31
476.284	2.29
476.484	2.32
476.684	2.25
476.883	2.32
477.083	2.27
477.282	2.24
477.482	2.28
477.681	2.18
477.881	2.11
478.08	2.1
478.28	2.06
478.479	2.12
478.679	2.2
478.878	2.06
479.078	2.02
479.277	2.11
479.477	2.08
479.676	2.05
479.875	2.05
480.075	1.98
480.274	2.08
480.473	2.12
480.673	2.01
480.872	2.15
481.071	2.1
481.271	2.14
481.47	2.03
481.669	2.04
481.868	2.03
482.067	2.03
482.267	1.94
482.466	1.98
482.665	1.96
482.864	1.96
483.063	1.96
483.262	2.03
483.461	2.09
483.661	2.04
483.86	2.05
484.059	2.06
484.258	2.1
484.457	2.04
484.656	2.06
484.855	2.15
485.054	1.95
485.253	1.99
485.452	2.01
485.651	2.1
485.849	2.03
486.048	2.05
486.247	2.1
486.446	2.14
486.645	2.04
486.844	2.09
487.043	2.07
487.241	2.12
487.44	2.1
487.639	2.15
487.838	2.13
488.037	2.13
488.235	2.24
488.434	2.2
488.633	2.05
488.831	2.27
489.03	2.25
489.229	2.28
489.427	2.24
489.626	2.27
489.825	2.32
490.023	2.33
490.222	2.31
490.42	2.35
490.619	2.41
490.817	2.41
491.016	2.36
491.214	2.46
491.413	2.41
491.611	2.39
491.81	2.41
492.008	2.49
492.207	2.55
492.405	2.52
492.604	2.53
492.802	2.57
493	2.6
493.199	2.67
493.397	2.65
493.595	2.73
493.794	2.65
493.992	2.78
494.19	2.73
494.388	2.84
494.587	2.74
494.785	2.8
494.983	2.74
495.181	2.85
495.379	2.91
495.578	2.96
495.776	2.95
495.974	2.94
496.172	2.93
496.37	3.07
496.568	3.11
496.766	3.11
496.964	3.23
497.162	3.21
497.36	3.19
497.558	3.24
497.756	3.32
497.954	3.28
498.152	3.39
498.35	3.47
498.548	3.36
498.746	3.42
498.944	3.43
499.142	3.43
499.34	3.55
499.538	3.61
499.736	3.52
499.933	3.68
500.131	3.6
500.329	3.78
500.527	3.74
500.725	3.9
500.922	3.89
501.12	3.84
501.318	3.98
501.516	3.93
501.713	4.01
501.911	3.99
502.109	3.95
502.306	4.11
502.504	4.02
502.701	4.12
