Data from Apollo_Calib_20240827__AbsoluteIrradiance__866__13-35-00-389.txt Node

Date: Wed Aug 28 13:35:00 BST 2024
User: biology
Spectrometer: FLMT08252
Trigger mode: 0
Integration Time (sec): 5.000000E-1
Scans to average: 5
Electric dark correction enabled: true
Nonlinearity correction enabled: false
Boxcar width: 0
XAxis mode: Wavelengths
Number of Pixels in Spectrum: 3648
>>>>>Begin Spectral Data<<<<<
179.588	-0
179.809	-0
180.03	-0
180.251	-0
180.473	-0
180.694	0
180.915	0
181.136	-0
181.357	0
181.578	-0
181.799	0
182.02	-0
182.241	-0
182.462	-0
182.683	0
182.904	-0
183.125	-0
183.346	0
183.567	0
183.788	0
184.009	0
184.23	0
184.451	0
184.672	0
184.892	0
185.113	0
185.334	0
185.555	0
185.776	0
185.996	0
186.217	0
186.438	0
186.659	0
186.879	0
187.1	0
187.321	0
187.541	0
187.762	0
187.983	0
188.203	0
188.424	0
188.644	0
188.865	0
189.086	0
189.306	0
189.527	0
189.747	0
189.968	0
190.188	0
190.409	0
190.629	0
190.849	0
191.07	0
191.29	0
191.511	0
191.731	0
191.951	0
192.172	0
192.392	0
192.612	0
192.833	0
193.053	0
193.273	0
193.493	0
193.714	0
193.934	0
194.154	0
194.374	0
194.594	0
194.815	0
195.035	0
195.255	0
195.475	0
195.695	0
195.915	0
196.135	0
196.355	0
196.575	0
196.795	0
197.015	0
197.235	0
197.455	0
197.675	0
197.895	0
198.115	0
198.335	0
198.555	0
198.775	0
198.995	0
199.214	0
199.434	0
199.654	0
199.874	0
200.094	4.34
200.313	2.58
200.533	1.1
200.753	1.5
200.973	3.99
201.192	3.39
201.412	1.03
201.632	1.59
201.851	3.63
202.071	1.84
202.291	1.79
202.51	0.99
202.73	2.9
202.95	1.99
203.169	1.55
203.389	1.6
203.608	2.05
203.828	1.54
204.047	1.72
204.267	2.1
204.486	2.27
204.706	2.19
204.925	1.49
205.145	1.51
205.364	2.37
205.583	2.37
205.803	1.4
206.022	0.98
206.242	1.88
206.461	1.22
206.68	1.35
206.9	1.74
207.119	2.48
207.338	2.25
207.557	1.01
207.777	0.92
207.996	1.52
208.215	1.79
208.434	1.12
208.654	0.77
208.873	1.7
209.092	2.28
209.311	1.05
209.53	1.22
209.749	1.21
209.968	1.01
210.187	0.99
210.407	0.7
210.626	1.17
210.845	1.57
211.064	1.11
211.283	0.8
211.502	1.57
211.721	1.23
211.94	0.85
212.159	1.29
212.377	1.4
212.596	1.43
212.815	1.05
213.034	1.02
213.253	1.6
213.472	1.43
213.691	1.03
213.91	0.71
214.128	0.78
214.347	1.69
214.566	0.54
214.785	0.47
215.003	1.38
215.222	1.32
215.441	0.88
215.66	0.41
215.878	1.05
216.097	1.33
216.316	0.78
216.534	0.7
216.753	1.14
216.972	0.9
217.19	0.65
217.409	0.69
217.627	0.84
217.846	0.88
218.064	0.82
218.283	0.67
218.501	1.42
218.72	1.39
218.938	0.54
219.157	0.66
219.375	1.14
219.594	1.05
219.812	0.59
220.031	0.42
220.249	1.12
220.467	1.28
220.686	0.5
220.904	0.68
221.122	0.55
221.341	1.2
221.559	0.77
221.777	0.43
221.995	0.84
222.214	0.86
222.432	0.61
222.65	0.83
222.868	0.68
223.086	0.64
223.305	0.89
223.523	0.72
223.741	1.08
223.959	0.56
224.177	0.28
224.395	0.54
224.613	0.87
224.831	0.8
225.049	0.5
225.267	0.45
225.485	0.69
225.703	0.57
225.921	0.58
226.139	0.52
226.357	0.86
226.575	0.86
226.793	0.5
227.011	1.56
227.229	0.79
227.447	0.99
227.665	0.53
227.883	0.36
228.1	0.59
228.318	0.78
228.536	0.27
228.754	0.44
228.972	0.81
229.189	0.88
229.407	0.54
229.625	0.58
229.843	0.94
230.06	0.74
230.278	0.54
230.496	0.65
230.713	0.58
230.931	0.78
231.149	0.49
231.366	0.3
231.584	0.6
231.801	0.99
232.019	0.33
232.236	0.32
232.454	0.45
232.671	0.74
232.889	0.52
233.106	0.44
233.324	0.63
233.541	0.48
233.759	0.61
233.976	0.43
234.194	0.56
234.411	0.48
234.628	0.41
234.846	0.42
235.063	0.56
235.28	0.56
235.498	0.37
235.715	0.33
235.932	0.87
236.149	0.53
236.367	0.45
236.584	0.49
236.801	0.51
237.018	0.63
237.236	0.43
237.453	0.29
237.67	0.71
237.887	0.53
238.104	0.4
238.321	0.36
238.538	0.32
238.755	0.71
238.973	0.25
239.19	0.57
239.407	0.62
239.624	0.47
239.841	0.4
240.058	0.32
240.275	0.55
240.492	0.56
240.709	0.34
240.925	0.47
241.142	0.53
241.359	0.31
241.576	0.33
241.793	0.39
242.01	0.42
242.227	0.66
242.444	0.47
242.66	0.5
242.877	0.56
243.094	0.4
243.311	0.42
243.527	0.36
243.744	0.48
243.961	0.5
244.178	0.37
244.394	0.35
244.611	0.62
244.828	0.6
245.044	0.38
245.261	0.37
245.477	0.62
245.694	0.6
245.911	0.39
246.127	0.43
246.344	0.65
246.56	0.67
246.777	0.35
246.993	0.4
247.21	0.39
247.426	0.51
247.643	0.34
247.859	0.28
248.076	0.36
248.292	0.7
248.508	0.4
248.725	0.47
248.941	0.53
249.157	0.6
249.374	0.3
249.59	0.38
249.806	0.46
250.023	0.64
250.239	0.38
250.455	0.32
250.671	0.47
250.888	0.5
251.104	0.45
251.32	0.27
251.536	0.44
251.752	0.4
251.969	0.36
252.185	0.36
252.401	0.73
252.617	0.49
252.833	0.34
253.049	0.38
253.265	0.38
253.481	0.46
253.697	0.32
253.913	0.24
254.129	0.45
254.345	0.5
254.561	0.3
254.777	0.33
254.993	0.49
255.209	0.4
255.425	0.34
255.641	0.35
255.857	0.45
256.073	0.43
256.288	0.22
256.504	0.28
256.72	0.45
256.936	0.58
257.152	0.29
257.367	0.28
257.583	0.36
257.799	0.47
258.015	0.32
258.23	0.28
258.446	0.64
258.662	0.46
258.877	0.34
259.093	0.31
259.309	0.43
259.524	0.52
259.74	0.3
259.955	0.22
260.171	0.42
260.387	0.36
260.602	0.44
260.818	0.37
261.033	0.29
261.249	0.4
261.464	0.3
261.68	0.29
261.895	0.42
262.11	0.43
262.326	0.29
262.541	0.25
262.757	0.5
262.972	0.39
263.187	0.42
263.403	0.41
263.618	0.46
263.833	0.43
264.049	0.28
264.264	0.31
264.479	0.43
264.694	0.54
264.91	0.26
265.125	0.36
265.34	0.44
265.555	0.57
265.77	0.34
265.986	0.25
266.201	0.41
266.416	0.52
266.631	0.26
266.846	0.26
267.061	0.43
267.276	0.44
267.491	0.14
267.706	0.41
267.921	0.35
268.136	0.44
268.351	0.31
268.566	0.18
268.781	0.49
268.996	0.46
269.211	0.3
269.426	0.25
269.641	0.33
269.856	0.43
270.071	0.25
270.285	0.2
270.5	0.41
270.715	0.4
270.93	0.3
271.145	0.36
271.359	0.43
271.574	0.31
271.789	0.35
272.004	0.27
272.218	0.33
272.433	0.47
272.648	0.29
272.862	0.39
273.077	0.32
273.292	0.38
273.506	0.25
273.721	0.27
273.936	0.33
274.15	0.39
274.365	0.3
274.579	0.41
274.794	0.43
275.008	0.4
275.223	0.26
275.437	0.33
275.652	0.41
275.866	0.41
276.081	0.32
276.295	0.39
276.509	0.39
276.724	0.33
276.938	0.32
277.153	0.36
277.367	0.42
277.581	0.32
277.796	0.28
278.01	0.25
278.224	0.41
278.438	0.48
278.653	0.25
278.867	0.22
279.081	0.2
279.295	0.33
279.51	0.31
279.724	0.18
279.938	0.39
280.152	0.38
280.366	0.26
280.58	0.29
280.794	0.44
281.008	0.36
281.222	0.33
281.437	0.57
281.651	0.38
281.865	0.41
282.079	0.29
282.293	0.2
282.507	0.3
282.721	0.29
282.935	0.27
283.148	0.23
283.362	0.3
283.576	0.24
283.79	0.26
284.004	0.2
284.218	0.36
284.432	0.29
284.646	0.26
284.859	0.28
285.073	0.27
285.287	0.39
285.501	0.27
285.714	0.24
285.928	0.35
286.142	0.34
286.356	0.25
286.569	0.27
286.783	0.47
286.997	0.35
287.21	0.27
287.424	0.22
287.637	0.32
287.851	0.24
288.065	0.33
288.278	0.27
288.492	0.3
288.705	0.25
288.919	0.29
289.132	0.18
289.346	0.37
289.559	0.25
289.773	0.21
289.986	0.24
290.2	0.27
290.413	0.35
290.626	0.23
290.84	0.22
291.053	0.24
291.267	0.36
291.48	0.3
291.693	0.3
291.906	0.27
292.12	0.34
292.333	0.23
292.546	0.23
292.76	0.38
292.973	0.29
293.186	0.32
293.399	0.22
293.612	0.34
293.826	0.27
294.039	0.23
294.252	0.27
294.465	0.39
294.678	0.33
294.891	0.27
295.104	0.2
295.317	0.24
295.53	0.3
295.743	0.26
295.956	0.26
296.169	0.37
296.382	0.36
296.595	0.23
296.808	0.17
297.021	0.37
297.234	0.37
297.447	0.23
297.66	0.27
297.873	0.34
298.086	0.33
298.299	0.23
298.511	0.16
298.724	0.23
298.937	0.26
299.15	0.21
299.363	0.21
299.575	0.32
299.788	0.32
300.001	0.24
300.213	0.25
300.426	0.2
300.639	0.28
300.852	0.19
301.064	0.35
301.277	0.37
301.489	0.29
301.702	0.29
301.915	0.27
302.127	0.24
302.34	0.28
302.552	0.31
302.765	0.21
302.977	0.32
303.19	0.23
303.402	0.22
303.615	0.25
303.827	0.25
304.04	0.26
304.252	0.27
304.464	0.23
304.677	0.39
304.889	0.33
305.102	0.23
305.314	0.21
305.526	0.28
305.739	0.33
305.951	0.21
306.163	0.22
306.375	0.36
306.588	0.25
306.8	0.25
307.012	0.16
307.224	0.33
307.436	0.37
307.649	0.17
307.861	0.21
308.073	0.3
308.285	0.21
308.497	0.19
308.709	0.23
308.921	0.29
309.133	0.32
309.346	0.24
309.558	0.22
309.77	0.31
309.982	0.34
310.194	0.3
310.406	0.2
310.617	0.32
310.829	0.27
311.041	0.34
311.253	0.18
311.465	0.24
311.677	0.28
311.889	0.22
312.101	0.19
312.313	0.35
312.524	0.36
312.736	0.12
312.948	0.23
313.16	0.33
313.372	0.33
313.583	0.29
313.795	0.21
314.007	0.25
314.218	0.32
314.43	0.27
314.642	0.21
314.853	0.18
315.065	0.28
315.277	0.25
315.488	0.27
315.7	0.35
315.912	0.28
316.123	0.29
316.335	0.22
316.546	0.4
316.758	0.25
316.969	0.21
317.181	0.24
317.392	0.27
317.604	0.32
317.815	0.26
318.026	0.23
318.238	0.2
318.449	0.29
318.661	0.16
318.872	0.16
319.083	0.24
319.295	0.25
319.506	0.24
319.717	0.28
319.929	0.31
320.14	0.28
320.351	0.24
320.562	0.2
320.774	0.3
320.985	0.27
321.196	0.23
321.407	0.17
321.618	0.3
321.829	0.29
322.041	0.27
322.252	0.25
322.463	0.3
322.674	0.32
322.885	0.24
323.096	0.25
323.307	0.27
323.518	0.28
323.729	0.22
323.94	0.26
324.151	0.23
324.362	0.3
324.573	0.29
324.784	0.2
324.995	0.33
325.206	0.28
325.417	0.25
325.628	0.21
325.838	0.24
326.049	0.29
326.26	0.3
326.471	0.26
326.682	0.28
326.892	0.25
327.103	0.16
327.314	0.21
327.525	0.35
327.735	0.3
327.946	0.23
328.157	0.17
328.368	0.35
328.578	0.24
328.789	0.33
328.999	0.28
329.21	0.25
329.421	0.3
329.631	0.16
329.842	0.25
330.052	0.24
330.263	0.33
330.473	0.36
330.684	0.22
330.894	0.31
331.105	0.27
331.315	0.25
331.526	0.15
331.736	0.35
331.947	0.31
332.157	0.28
332.367	0.15
332.578	0.36
332.788	0.34
332.999	0.3
333.209	0.28
333.419	0.18
333.629	0.29
333.84	0.28
334.05	0.25
334.26	0.34
334.47	0.28
334.681	0.32
334.891	0.19
335.101	0.29
335.311	0.39
335.521	0.25
335.732	0.18
335.942	0.32
336.152	0.29
336.362	0.28
336.572	0.24
336.782	0.34
336.992	0.23
337.202	0.26
337.412	0.21
337.622	0.31
337.832	0.27
338.042	0.28
338.252	0.2
338.462	0.24
338.672	0.29
338.882	0.2
339.092	0.27
339.302	0.36
339.511	0.32
339.721	0.23
339.931	0.19
340.141	0.28
340.351	0.31
340.561	0.29
340.77	0.26
340.98	0.33
341.19	0.3
341.4	0.24
341.609	0.19
341.819	0.23
342.029	0.17
342.238	0.28
342.448	0.21
342.658	0.27
342.867	0.23
343.077	0.25
343.286	0.27
343.496	0.23
343.706	0.34
343.915	0.2
344.125	0.26
344.334	0.26
344.544	0.19
344.753	0.22
344.963	0.22
345.172	0.22
345.381	0.24
345.591	0.21
345.8	0.23
346.01	0.31
346.219	0.34
346.428	0.13
346.638	0.27
346.847	0.23
347.056	0.36
347.266	0.19
347.475	0.2
347.684	0.3
347.893	0.31
348.103	0.3
348.312	0.2
348.521	0.28
348.73	0.28
348.94	0.25
349.149	0.18
349.358	0.25
349.567	0.19
349.776	0.18
349.985	0.21
350.194	0.3
350.403	0.34
350.612	0.16
350.821	0.16
351.03	0.27
351.239	0.16
351.448	0.27
351.657	0.2
351.866	0.33
352.075	0.27
352.284	0.32
352.493	0.21
352.702	0.33
352.911	0.28
353.12	0.27
353.329	0.21
353.538	0.24
353.746	0.25
353.955	0.21
354.164	0.3
354.373	0.24
354.582	0.29
354.79	0.23
354.999	0.27
355.208	0.26
355.416	0.33
355.625	0.19
355.834	0.21
356.042	0.24
356.251	0.23
356.46	0.2
356.668	0.25
356.877	0.37
357.085	0.29
357.294	0.16
357.503	0.28
357.711	0.25
357.92	0.44
358.128	0.27
358.337	0.23
358.545	0.27
358.754	0.23
358.962	0.27
359.17	0.18
359.379	0.32
359.587	0.3
359.796	0.27
360.004	0.32
360.212	0.27
360.421	0.34
360.629	0.28
360.837	0.23
361.046	0.33
361.254	0.34
361.462	0.24
361.67	0.17
361.879	0.31
362.087	0.35
362.295	0.29
362.503	0.23
362.711	0.19
362.92	0.25
363.128	0.18
363.336	0.2
363.544	0.19
363.752	0.24
363.96	0.22
364.168	0.22
364.376	0.26
364.584	0.27
364.792	0.36
365	0.28
365.208	0.26
365.416	0.3
365.624	0.28
365.832	0.21
366.04	0.35
366.248	0.24
366.456	0.25
366.664	0.26
366.872	0.28
367.079	0.26
367.287	0.25
367.495	0.24
367.703	0.25
367.911	0.25
368.118	0.22
368.326	0.23
368.534	0.19
368.742	0.32
368.949	0.2
369.157	0.24
369.365	0.27
369.572	0.25
369.78	0.24
369.988	0.29
370.195	0.26
370.403	0.28
370.61	0.24
370.818	0.23
371.026	0.36
371.233	0.22
371.441	0.28
371.648	0.23
371.856	0.27
372.063	0.28
372.271	0.19
372.478	0.23
372.685	0.24
372.893	0.31
373.1	0.24
373.308	0.23
373.515	0.37
373.722	0.33
373.93	0.23
374.137	0.27
374.344	0.38
374.552	0.3
374.759	0.27
374.966	0.25
375.173	0.29
375.381	0.33
375.588	0.25
375.795	0.21
376.002	0.25
376.209	0.26
376.417	0.24
376.624	0.29
376.831	0.29
377.038	0.27
377.245	0.21
377.452	0.25
377.659	0.28
377.866	0.25
378.073	0.27
378.28	0.24
378.487	0.29
378.694	0.34
378.901	0.26
379.108	0.22
379.315	0.34
379.522	0.42
379.729	0.27
379.936	0.26
380.143	0.32
380.35	0.31
380.557	0.26
380.763	0.26
380.97	0.28
381.177	0.28
381.384	0.28
381.591	0.21
381.797	0.29
382.004	0.34
382.211	0.27
382.418	0.22
382.624	0.31
382.831	0.31
383.038	0.25
383.244	0.32
383.451	0.27
383.658	0.29
383.864	0.23
384.071	0.23
384.277	0.33
384.484	0.25
384.69	0.34
384.897	0.24
385.103	0.22
385.31	0.24
385.516	0.25
385.723	0.2
385.929	0.3
386.136	0.33
386.342	0.28
386.549	0.25
386.755	0.32
386.961	0.31
387.168	0.24
387.374	0.22
387.58	0.38
387.787	0.29
387.993	0.27
388.199	0.29
388.406	0.26
388.612	0.28
388.818	0.22
389.024	0.24
389.231	0.29
389.437	0.41
389.643	0.32
389.849	0.28
390.055	0.27
390.261	0.32
390.467	0.31
390.674	0.24
390.88	0.26
391.086	0.38
391.292	0.26
391.498	0.35
391.704	0.27
391.91	0.3
392.116	0.27
392.322	0.2
392.528	0.35
392.734	0.27
392.94	0.32
393.146	0.26
393.352	0.31
393.557	0.29
393.763	0.31
393.969	0.39
394.175	0.29
394.381	0.39
394.587	0.23
394.792	0.3
394.998	0.37
395.204	0.37
395.41	0.29
395.615	0.3
395.821	0.33
396.027	0.33
396.233	0.25
396.438	0.35
396.644	0.39
396.85	0.33
397.055	0.31
397.261	0.34
397.466	0.38
397.672	0.36
397.878	0.39
398.083	0.36
398.289	0.3
398.494	0.46
398.7	0.37
398.905	0.27
399.111	0.45
399.316	0.27
399.522	0.34
399.727	0.33
399.932	0.29
400.138	0.33
400.343	0.39
400.549	0.33
400.754	0.41
400.959	0.37
401.165	0.3
401.37	0.4
401.575	0.35
401.78	0.41
401.986	0.33
402.191	0.35
402.396	0.35
402.601	0.43
402.807	0.41
403.012	0.34
403.217	0.46
403.422	0.42
403.627	0.41
403.832	0.35
404.037	0.5
404.243	0.44
404.448	0.39
404.653	0.44
404.858	0.46
405.063	0.48
405.268	0.45
405.473	0.41
405.678	0.44
405.883	0.7
406.088	0.46
406.293	0.35
406.498	0.44
406.703	0.48
406.907	0.46
407.112	0.47
407.317	0.51
407.522	0.6
407.727	0.48
407.932	0.59
408.136	0.67
408.341	0.57
408.546	0.66
408.751	0.59
408.956	0.56
409.16	0.68
409.365	0.58
409.57	0.64
409.774	0.67
409.979	0.69
410.184	0.71
410.388	0.64
410.593	0.76
410.798	0.76
411.002	0.7
411.207	0.77
411.411	0.82
411.616	0.75
411.82	0.82
412.025	0.86
412.229	0.87
412.434	0.96
412.638	0.93
412.843	0.95
413.047	1.03
413.252	0.99
413.456	1.01
413.66	1.07
413.865	1.06
414.069	1.18
414.273	1.09
414.478	1.18
414.682	1.24
414.886	1.25
415.091	1.2
415.295	1.27
415.499	1.45
415.703	1.36
415.908	1.49
416.112	1.36
416.316	1.62
416.52	1.55
416.724	1.58
416.929	1.66
417.133	1.9
417.337	1.72
417.541	1.83
417.745	1.87
417.949	1.97
418.153	2.08
418.357	1.96
418.561	2.27
418.765	2.23
418.969	2.35
419.173	2.48
419.377	2.46
419.581	2.7
419.785	2.74
419.989	2.72
420.193	2.85
420.397	2.89
420.601	3.14
420.804	3.16
421.008	3.1
421.212	3.29
421.416	3.27
421.62	3.35
421.823	3.38
422.027	3.56
422.231	3.56
422.435	3.54
422.638	3.65
422.842	3.7
423.046	3.8
423.249	3.97
423.453	3.97
423.657	4.23
423.86	4.31
424.064	4.44
424.268	4.59
424.471	4.61
424.675	4.81
424.878	4.85
425.082	4.89
425.285	5.23
425.489	5.2
425.692	5.37
425.896	5.35
426.099	5.6
426.303	5.68
426.506	5.85
426.71	6.02
426.913	6.24
427.116	6.41
427.32	6.45
427.523	6.52
427.726	6.86
427.93	6.89
428.133	7.21
428.336	7.25
428.54	7.45
428.743	7.76
428.946	7.92
429.149	8.04
429.353	8.02
429.556	8.11
429.759	8.2
429.962	8.24
430.165	8.49
430.368	8.08
430.571	8.14
430.775	8.25
430.978	8.14
431.181	8.19
431.384	8.34
431.587	8.42
431.79	8.82
431.993	8.79
432.196	9.04
432.399	9.31
432.602	9.54
432.805	9.63
433.008	10.07
433.211	10.04
433.414	10.35
433.616	10.44
433.819	10.39
434.022	10.54
434.225	10.75
434.428	10.77
434.631	11.17
434.833	10.88
435.036	11.18
435.239	11.3
435.442	11.41
435.645	11.56
435.847	11.69
436.05	12.04
436.253	12.23
436.455	12.33
436.658	12.12
436.861	12.42
437.063	12.49
437.266	12.5
437.468	12.92
437.671	13.34
437.874	13.25
438.076	13.03
438.279	13.44
438.481	13.55
438.684	14.26
438.886	13.94
439.089	14.18
439.291	14.28
439.494	14.58
439.696	14.77
439.899	15.39
440.101	15.71
440.303	15.85
440.506	16.56
440.708	16.4
440.91	16.65
441.113	16.76
441.315	17.24
441.517	16.75
441.72	17.25
441.922	17.05
442.124	16.87
442.326	17.21
442.529	17.53
442.731	17.49
442.933	17.75
443.135	17.53
443.337	17.59
443.539	18.11
443.742	17.67
443.944	18.38
444.146	18.28
444.348	18.19
444.55	18.08
444.752	18.19
444.954	18.11
445.156	18.14
445.358	18.58
445.56	18.75
445.762	18.5
445.964	18.77
446.166	18.57
446.368	18.55
446.57	18.69
446.772	18.22
446.974	18.13
447.175	18.4
447.377	18.03
447.579	18.31
447.781	18.04
447.983	17.83
448.184	17.33
448.386	17.81
448.588	17.28
448.79	17.19
448.991	17.49
449.193	17.43
449.395	16.85
449.597	16.43
449.798	16.26
450	15.84
450.202	15.8
450.403	15.66
450.605	15.63
450.806	15.25
451.008	15.06
451.21	14.92
451.411	14.49
451.613	13.75
451.814	13.99
452.016	13.99
452.217	13.22
452.419	13.26
452.62	12.91
452.821	12.63
453.023	12.52
453.224	12.26
453.426	11.76
453.627	10.98
453.828	11.11
454.03	11.16
454.231	11.14
454.432	10.85
454.634	10.75
454.835	10.38
455.036	10.31
455.238	9.89
455.439	9.73
455.64	9.39
455.841	9.34
456.042	9.44
456.244	9.16
456.445	8.86
456.646	8.59
456.847	8.56
457.048	8.39
457.249	8.39
457.45	8.32
457.651	7.66
457.852	7.61
458.054	7.24
458.255	7.16
458.456	7.19
458.657	7.16
458.858	6.67
459.058	6.64
459.259	6.65
459.46	6.43
459.661	6.35
459.862	6.45
460.063	6.27
460.264	6.17
460.465	5.96
460.666	6.08
460.866	5.73
461.067	5.46
461.268	5.42
461.469	5.41
461.67	5.32
461.87	5.13
462.071	5.18
462.272	5.08
462.473	5.17
462.673	5.22
462.874	5.08
463.075	5.06
463.275	5.11
463.476	5.12
463.676	5
463.877	4.89
464.078	4.95
464.278	4.95
464.479	4.83
464.679	4.7
464.88	4.66
465.08	4.7
465.281	4.49
465.481	4.28
465.682	4.04
465.882	4.12
466.083	4.07
466.283	4.01
466.483	3.89
466.684	3.71
466.884	3.59
467.085	3.59
467.285	3.72
467.485	3.53
467.686	3.55
467.886	3.4
468.086	3.37
468.286	3.31
468.487	3.45
468.687	3.21
468.887	3.22
469.087	3.37
469.287	3.26
469.488	3.05
469.688	3.15
469.888	3.19
470.088	3.14
470.288	3.05
470.488	3.07
470.688	2.88
470.888	2.8
471.088	2.7
471.288	2.74
471.488	2.73
471.688	2.76
471.888	2.6
472.088	2.83
472.288	2.68
472.488	2.5
472.688	2.58
472.888	2.66
473.088	2.59
473.288	2.44
473.488	2.47
473.688	2.59
473.887	2.49
474.087	2.42
474.287	2.44
474.487	2.41
474.687	2.41
474.886	2.32
475.086	2.26
475.286	2.32
475.486	2.26
475.685	2.3
475.885	2.17
476.085	2.27
476.284	2.25
476.484	2.26
476.684	2.18
476.883	2.32
477.083	2.19
477.282	2.08
477.482	2.13
477.681	2.18
477.881	2.12
478.08	2.05
478.28	2
478.479	2.1
478.679	2.13
478.878	2.03
479.078	2.06
479.277	2.08
479.477	2.04
479.676	2.03
479.875	2.01
480.075	1.97
480.274	2.04
480.473	2.06
480.673	1.98
480.872	2.06
481.071	2.04
481.271	2.05
481.47	1.95
481.669	1.99
481.868	1.99
482.067	1.98
482.267	1.9
482.466	1.91
482.665	1.91
482.864	1.95
483.063	1.89
483.262	2.08
483.461	2.04
483.661	2.03
483.86	1.99
484.059	2.07
484.258	2.05
484.457	2.01
484.656	1.99
484.855	2.09
485.054	1.93
485.253	2
485.452	1.98
485.651	2.08
485.849	2.01
486.048	1.99
486.247	2.05
486.446	2.09
486.645	2.03
486.844	2.07
487.043	2.08
487.241	2.1
487.44	2.11
487.639	2.11
487.838	2.13
488.037	2.12
488.235	2.25
488.434	2.1
488.633	2.05
488.831	2.24
489.03	2.22
489.229	2.21
489.427	2.22
489.626	2.3
489.825	2.28
490.023	2.26
490.222	2.26
490.42	2.31
490.619	2.39
490.817	2.37
491.016	2.35
491.214	2.43
491.413	2.41
491.611	2.35
491.81	2.38
492.008	2.46
492.207	2.5
492.405	2.52
492.604	2.51
492.802	2.53
493	2.63
493.199	2.63
493.397	2.63
493.595	2.67
493.794	2.7
493.992	2.79
494.19	2.77
494.388	2.82
494.587	2.78
494.785	2.78
494.983	2.71
495.181	2.9
495.379	2.94
495.578	2.98
495.776	2.96
495.974	2.96
496.172	2.94
496.37	3.09
496.568	3.05
496.766	3.1
496.964	3.19
497.162	3.18
497.36	3.21
497.558	3.27
497.756	3.28
497.954	3.3
498.152	3.41
498.35	3.42
498.548	3.4
498.746	3.37
498.944	3.42
499.142	3.45
499.34	3.49
499.538	3.6
499.736	3.51
499.933	3.68
500.131	3.66
500.329	3.75
500.527	3.78
500.725	3.87
500.922	3.94
501.12	3.9
501.318	3.94
501.516	3.91
501.713	4.04
501.911	4
502.109	3.95
502.306	4.09
502.504	4.06
