Data from Apollo_Calib_20240827__AbsoluteIrradiance__747__11-36-01-458.txt Node

Date: Wed Aug 28 11:36:01 BST 2024
User: biology
Spectrometer: FLMT08252
Trigger mode: 0
Integration Time (sec): 5.000000E-1
Scans to average: 5
Electric dark correction enabled: true
Nonlinearity correction enabled: false
Boxcar width: 0
XAxis mode: Wavelengths
Number of Pixels in Spectrum: 3648
>>>>>Begin Spectral Data<<<<<
179.588	-0
179.809	-0
180.03	-0
180.251	-0
180.473	-0
180.694	0
180.915	0
181.136	-0
181.357	0
181.578	-0
181.799	-0
182.02	-0
182.241	-0
182.462	-0
182.683	0
182.904	-0
183.125	-0
183.346	0
183.567	0
183.788	0
184.009	0
184.23	0
184.451	0
184.672	0
184.892	0
185.113	0
185.334	0
185.555	0
185.776	0
185.996	0
186.217	0
186.438	0
186.659	0
186.879	0
187.1	0
187.321	0
187.541	0
187.762	0
187.983	0
188.203	0
188.424	0
188.644	0
188.865	0
189.086	0
189.306	0
189.527	0
189.747	0
189.968	0
190.188	0
190.409	0
190.629	0
190.849	0
191.07	0
191.29	0
191.511	0
191.731	0
191.951	0
192.172	0
192.392	0
192.612	0
192.833	0
193.053	0
193.273	0
193.493	0
193.714	0
193.934	0
194.154	0
194.374	0
194.594	0
194.815	0
195.035	0
195.255	0
195.475	0
195.695	0
195.915	0
196.135	0
196.355	0
196.575	0
196.795	0
197.015	0
197.235	0
197.455	0
197.675	0
197.895	0
198.115	0
198.335	0
198.555	0
198.775	0
198.995	0
199.214	0
199.434	0
199.654	0
199.874	0
200.094	2.59
200.313	1.92
200.533	1.09
200.753	0.94
200.973	2.27
201.192	1.92
201.412	0.57
201.632	1.25
201.851	2.57
202.071	0.93
202.291	1.47
202.51	0.81
202.73	2.39
202.95	1.2
203.169	0.68
203.389	1.14
203.608	1.21
203.828	1.06
204.047	1.19
204.267	1.49
204.486	1.74
204.706	1.42
204.925	1.26
205.145	0.67
205.364	1.39
205.583	1.69
205.803	0.9
206.022	0.13
206.242	0.86
206.461	0.96
206.68	0.48
206.9	1.12
207.119	1.74
207.338	1.38
207.557	0.73
207.777	0.67
207.996	0.77
208.215	1.62
208.434	0.42
208.654	0.41
208.873	0.89
209.092	1.43
209.311	0.86
209.53	0.95
209.749	0.67
209.968	0.53
210.187	0.68
210.407	0.26
210.626	0.78
210.845	1.09
211.064	0.79
211.283	0.61
211.502	0.87
211.721	0.56
211.94	0.63
212.159	1.13
212.377	0.78
212.596	1.09
212.815	0.68
213.034	0.86
213.253	0.88
213.472	0.97
213.691	0.5
213.91	0.48
214.128	0.39
214.347	1.12
214.566	0.21
214.785	0.21
215.003	0.46
215.222	0.6
215.441	0.55
215.66	0.39
215.878	0.47
216.097	1.06
216.316	0.28
216.534	0.59
216.753	0.71
216.972	0.52
217.19	0.49
217.409	0.24
217.627	0.33
217.846	0.47
218.064	0.57
218.283	0.44
218.501	1.04
218.72	0.7
218.938	0.28
219.157	0.46
219.375	0.68
219.594	0.5
219.812	0.18
220.031	0.34
220.249	0.74
220.467	0.76
220.686	0.4
220.904	0.26
221.122	0.31
221.341	0.92
221.559	0.48
221.777	0.33
221.995	0.58
222.214	0.65
222.432	0.29
222.65	0.5
222.868	0.52
223.086	0.54
223.305	0.65
223.523	0.46
223.741	0.74
223.959	0.5
224.177	0.08
224.395	0.27
224.613	0.47
224.831	0.74
225.049	0.1
225.267	0.39
225.485	0.53
225.703	0.42
225.921	0.39
226.139	0.43
226.357	0.49
226.575	0.62
226.793	0.27
227.011	1.14
227.229	0.48
227.447	0.55
227.665	0.37
227.883	0.21
228.1	0.32
228.318	0.29
228.536	0.18
228.754	0.32
228.972	0.54
229.189	0.44
229.407	0.38
229.625	0.32
229.843	0.65
230.06	0.37
230.278	0.29
230.496	0.37
230.713	0.34
230.931	0.55
231.149	0.29
231.366	0.24
231.584	0.32
231.801	0.68
232.019	0.35
232.236	0.18
232.454	0.27
232.671	0.41
232.889	0.27
233.106	0.28
233.324	0.44
233.541	0.39
233.759	0.41
233.976	0.19
234.194	0.32
234.411	0.39
234.628	0.21
234.846	0.21
235.063	0.34
235.28	0.36
235.498	0.26
235.715	0.16
235.932	0.44
236.149	0.3
236.367	0.27
236.584	0.3
236.801	0.38
237.018	0.55
237.236	0.32
237.453	0.2
237.67	0.38
237.887	0.31
238.104	0.24
238.321	0.25
238.538	0.28
238.755	0.51
238.973	0.07
239.19	0.35
239.407	0.32
239.624	0.37
239.841	0.15
240.058	0.19
240.275	0.37
240.492	0.3
240.709	0.3
240.925	0.25
241.142	0.25
241.359	0.25
241.576	0.22
241.793	0.24
242.01	0.39
242.227	0.52
242.444	0.3
242.66	0.43
242.877	0.31
243.094	0.2
243.311	0.26
243.527	0.2
243.744	0.39
243.961	0.31
244.178	0.15
244.394	0.26
244.611	0.44
244.828	0.51
245.044	0.14
245.261	0.13
245.477	0.29
245.694	0.44
245.911	0.16
246.127	0.35
246.344	0.45
246.56	0.3
246.777	0.34
246.993	0.26
247.21	0.31
247.426	0.39
247.643	0.35
247.859	0.14
248.076	0.19
248.292	0.39
248.508	0.22
248.725	0.25
248.941	0.32
249.157	0.42
249.374	0.2
249.59	0.25
249.806	0.31
250.023	0.47
250.239	0.15
250.455	0.17
250.671	0.25
250.888	0.31
251.104	0.29
251.32	0.24
251.536	0.22
251.752	0.33
251.969	0.2
252.185	0.28
252.401	0.42
252.617	0.2
252.833	0.19
253.049	0.29
253.265	0.24
253.481	0.27
253.697	0.14
253.913	0.2
254.129	0.3
254.345	0.22
254.561	0.19
254.777	0.19
254.993	0.24
255.209	0.24
255.425	0.21
255.641	0.22
255.857	0.3
256.073	0.32
256.288	0.13
256.504	0.16
256.72	0.32
256.936	0.41
257.152	0.25
257.367	0.15
257.583	0.25
257.799	0.36
258.015	0.15
258.23	0.21
258.446	0.46
258.662	0.24
258.877	0.18
259.093	0.16
259.309	0.2
259.524	0.36
259.74	0.22
259.955	0.08
260.171	0.23
260.387	0.26
260.602	0.28
260.818	0.28
261.033	0.15
261.249	0.25
261.464	0.23
261.68	0.11
261.895	0.23
262.11	0.27
262.326	0.24
262.541	0.07
262.757	0.29
262.972	0.29
263.187	0.25
263.403	0.24
263.618	0.29
263.833	0.27
264.049	0.12
264.264	0.2
264.479	0.3
264.694	0.29
264.91	0.18
265.125	0.13
265.34	0.3
265.555	0.37
265.77	0.26
265.986	0.19
266.201	0.29
266.416	0.29
266.631	0.18
266.846	0.23
267.061	0.27
267.276	0.3
267.491	0.11
267.706	0.23
267.921	0.28
268.136	0.27
268.351	0.23
268.566	0.17
268.781	0.32
268.996	0.36
269.211	0.21
269.426	0.2
269.641	0.23
269.856	0.31
270.071	0.17
270.285	0.1
270.5	0.29
270.715	0.25
270.93	0.24
271.145	0.23
271.359	0.26
271.574	0.21
271.789	0.23
272.004	0.2
272.218	0.16
272.433	0.3
272.648	0.15
272.862	0.25
273.077	0.2
273.292	0.27
273.506	0.15
273.721	0.15
273.936	0.26
274.15	0.29
274.365	0.18
274.579	0.21
274.794	0.31
275.008	0.29
275.223	0.09
275.437	0.2
275.652	0.25
275.866	0.24
276.081	0.21
276.295	0.24
276.509	0.21
276.724	0.26
276.938	0.2
277.153	0.21
277.367	0.22
277.581	0.19
277.796	0.15
278.01	0.13
278.224	0.25
278.438	0.39
278.653	0.19
278.867	0.17
279.081	0.03
279.295	0.23
279.51	0.21
279.724	0.07
279.938	0.26
280.152	0.28
280.366	0.16
280.58	0.24
280.794	0.33
281.008	0.27
281.222	0.25
281.437	0.33
281.651	0.25
281.865	0.28
282.079	0.16
282.293	0.05
282.507	0.11
282.721	0.15
282.935	0.2
283.148	0.09
283.362	0.11
283.576	0.13
283.79	0.2
284.004	0.14
284.218	0.24
284.432	0.14
284.646	0.16
284.859	0.23
285.073	0.22
285.287	0.19
285.501	0.22
285.714	0.18
285.928	0.21
286.142	0.19
286.356	0.18
286.569	0.14
286.783	0.28
286.997	0.25
287.21	0.22
287.424	0.21
287.637	0.17
287.851	0.16
288.065	0.21
288.278	0.17
288.492	0.2
288.705	0.15
288.919	0.22
289.132	0.11
289.346	0.27
289.559	0.05
289.773	0.1
289.986	0.17
290.2	0.15
290.413	0.26
290.626	0.14
290.84	0.17
291.053	0.17
291.267	0.25
291.48	0.2
291.693	0.2
291.906	0.14
292.12	0.19
292.333	0.11
292.546	0.15
292.76	0.31
292.973	0.24
293.186	0.22
293.399	0.11
293.612	0.23
293.826	0.17
294.039	0.2
294.252	0.18
294.465	0.24
294.678	0.2
294.891	0.16
295.104	0.11
295.317	0.15
295.53	0.2
295.743	0.14
295.956	0.18
296.169	0.29
296.382	0.2
296.595	0.16
296.808	0.12
297.021	0.24
297.234	0.2
297.447	0.17
297.66	0.17
297.873	0.25
298.086	0.22
298.299	0.11
298.511	0.09
298.724	0.14
298.937	0.12
299.15	0.11
299.363	0.17
299.575	0.19
299.788	0.19
300.001	0.12
300.213	0.16
300.426	0.19
300.639	0.16
300.852	0.15
301.064	0.2
301.277	0.25
301.489	0.2
301.702	0.2
301.915	0.14
302.127	0.16
302.34	0.2
302.552	0.21
302.765	0.14
302.977	0.23
303.19	0.13
303.402	0.14
303.615	0.16
303.827	0.14
304.04	0.18
304.252	0.24
304.464	0.16
304.677	0.31
304.889	0.21
305.102	0.1
305.314	0.12
305.526	0.21
305.739	0.2
305.951	0.15
306.163	0.18
306.375	0.23
306.588	0.17
306.8	0.14
307.012	0.08
307.224	0.17
307.436	0.23
307.649	0.07
307.861	0.19
308.073	0.2
308.285	0.12
308.497	0.13
308.709	0.1
308.921	0.15
309.133	0.21
309.346	0.17
309.558	0.15
309.77	0.24
309.982	0.27
310.194	0.22
310.406	0.08
310.617	0.25
310.829	0.19
311.041	0.19
311.253	0.09
311.465	0.19
311.677	0.2
311.889	0.19
312.101	0.12
312.313	0.23
312.524	0.24
312.736	0.11
312.948	0.15
313.16	0.23
313.372	0.2
313.583	0.18
313.795	0.13
314.007	0.14
314.218	0.21
314.43	0.17
314.642	0.17
314.853	0.14
315.065	0.23
315.277	0.15
315.488	0.15
315.7	0.24
315.912	0.2
316.123	0.17
316.335	0.19
316.546	0.31
316.758	0.19
316.969	0.19
317.181	0.15
317.392	0.15
317.604	0.21
317.815	0.11
318.026	0.12
318.238	0.18
318.449	0.16
318.661	0.13
318.872	0.1
319.083	0.13
319.295	0.19
319.506	0.15
319.717	0.2
319.929	0.24
320.14	0.19
320.351	0.17
320.562	0.1
320.774	0.23
320.985	0.2
321.196	0.14
321.407	0.07
321.618	0.26
321.829	0.21
322.041	0.22
322.252	0.17
322.463	0.22
322.674	0.18
322.885	0.1
323.096	0.16
323.307	0.16
323.518	0.13
323.729	0.14
323.94	0.08
324.151	0.12
324.362	0.18
324.573	0.19
324.784	0.13
324.995	0.22
325.206	0.21
325.417	0.14
325.628	0.11
325.838	0.2
326.049	0.17
326.26	0.24
326.471	0.15
326.682	0.21
326.892	0.15
327.103	0.12
327.314	0.11
327.525	0.26
327.735	0.19
327.946	0.19
328.157	0.13
328.368	0.22
328.578	0.16
328.789	0.22
328.999	0.17
329.21	0.12
329.421	0.16
329.631	0.1
329.842	0.14
330.052	0.21
330.263	0.24
330.473	0.19
330.684	0.16
330.894	0.15
331.105	0.16
331.315	0.17
331.526	0.15
331.736	0.29
331.947	0.2
332.157	0.15
332.367	0.11
332.578	0.2
332.788	0.24
332.999	0.21
333.209	0.16
333.419	0.11
333.629	0.18
333.84	0.2
334.05	0.17
334.26	0.23
334.47	0.13
334.681	0.19
334.891	0.14
335.101	0.2
335.311	0.25
335.521	0.17
335.732	0.1
335.942	0.27
336.152	0.17
336.362	0.18
336.572	0.14
336.782	0.21
336.992	0.15
337.202	0.17
337.412	0.11
337.622	0.2
337.832	0.14
338.042	0.16
338.252	0.11
338.462	0.13
338.672	0.18
338.882	0.06
339.092	0.19
339.302	0.25
339.511	0.19
339.721	0.17
339.931	0.15
340.141	0.21
340.351	0.24
340.561	0.15
340.77	0.19
340.98	0.16
341.19	0.2
341.4	0.15
341.609	0.13
341.819	0.14
342.029	0.12
342.238	0.18
342.448	0.13
342.658	0.2
342.867	0.18
343.077	0.17
343.286	0.17
343.496	0.18
343.706	0.23
343.915	0.13
344.125	0.15
344.334	0.17
344.544	0.07
344.753	0.12
344.963	0.13
345.172	0.14
345.381	0.16
345.591	0.12
345.8	0.16
346.01	0.21
346.219	0.2
346.428	0.05
346.638	0.19
346.847	0.19
347.056	0.27
347.266	0.15
347.475	0.13
347.684	0.21
347.893	0.15
348.103	0.21
348.312	0.13
348.521	0.12
348.73	0.2
348.94	0.17
349.149	0.1
349.358	0.19
349.567	0.17
349.776	0.14
349.985	0.18
350.194	0.19
350.403	0.2
350.612	0.06
350.821	0.15
351.03	0.19
351.239	0.1
351.448	0.18
351.657	0.16
351.866	0.23
352.075	0.16
352.284	0.2
352.493	0.1
352.702	0.23
352.911	0.2
353.12	0.16
353.329	0.15
353.538	0.16
353.746	0.16
353.955	0.15
354.164	0.18
354.373	0.17
354.582	0.19
354.79	0.17
354.999	0.17
355.208	0.17
355.416	0.21
355.625	0.14
355.834	0.16
356.042	0.16
356.251	0.15
356.46	0.13
356.668	0.18
356.877	0.24
357.085	0.2
357.294	0.07
357.503	0.14
357.711	0.16
357.92	0.28
358.128	0.2
358.337	0.13
358.545	0.17
358.754	0.13
358.962	0.18
359.17	0.14
359.379	0.16
359.587	0.19
359.796	0.15
360.004	0.22
360.212	0.16
360.421	0.21
360.629	0.14
360.837	0.15
361.046	0.19
361.254	0.27
361.462	0.16
361.67	0.16
361.879	0.2
362.087	0.22
362.295	0.16
362.503	0.12
362.711	0.1
362.92	0.11
363.128	0.15
363.336	0.09
363.544	0.1
363.752	0.2
363.96	0.13
364.168	0.11
364.376	0.2
364.584	0.16
364.792	0.21
365	0.18
365.208	0.15
365.416	0.21
365.624	0.21
365.832	0.1
366.04	0.24
366.248	0.14
366.456	0.17
366.664	0.18
366.872	0.12
367.079	0.21
367.287	0.18
367.495	0.18
367.703	0.15
367.911	0.16
368.118	0.15
368.326	0.14
368.534	0.12
368.742	0.22
368.949	0.12
369.157	0.14
369.365	0.2
369.572	0.17
369.78	0.13
369.988	0.18
370.195	0.17
370.403	0.23
370.61	0.12
370.818	0.15
371.026	0.22
371.233	0.17
371.441	0.17
371.648	0.11
371.856	0.21
372.063	0.17
372.271	0.16
372.478	0.14
372.685	0.15
372.893	0.22
373.1	0.19
373.308	0.11
373.515	0.25
373.722	0.2
373.93	0.17
374.137	0.13
374.344	0.2
374.552	0.27
374.759	0.21
374.966	0.14
375.173	0.17
375.381	0.24
375.588	0.19
375.795	0.09
376.002	0.19
376.209	0.13
376.417	0.17
376.624	0.19
376.831	0.15
377.038	0.17
377.245	0.09
377.452	0.17
377.659	0.22
377.866	0.18
378.073	0.12
378.28	0.14
378.487	0.23
378.694	0.23
378.901	0.19
379.108	0.14
379.315	0.22
379.522	0.25
379.729	0.18
379.936	0.12
380.143	0.2
380.35	0.18
380.557	0.13
380.763	0.17
380.97	0.18
381.177	0.19
381.384	0.22
381.591	0.16
381.797	0.18
382.004	0.21
382.211	0.2
382.418	0.13
382.624	0.2
382.831	0.24
383.038	0.19
383.244	0.26
383.451	0.16
383.658	0.22
383.864	0.15
384.071	0.13
384.277	0.22
384.484	0.13
384.69	0.23
384.897	0.14
385.103	0.16
385.31	0.13
385.516	0.15
385.723	0.15
385.929	0.18
386.136	0.18
386.342	0.22
386.549	0.17
386.755	0.2
386.961	0.2
387.168	0.18
387.374	0.18
387.58	0.2
387.787	0.17
387.993	0.16
388.199	0.19
388.406	0.13
388.612	0.15
388.818	0.14
389.024	0.16
389.231	0.19
389.437	0.27
389.643	0.2
389.849	0.23
390.055	0.22
390.261	0.18
390.467	0.22
390.674	0.16
390.88	0.18
391.086	0.26
391.292	0.14
391.498	0.24
391.704	0.22
391.91	0.17
392.116	0.19
392.322	0.12
392.528	0.23
392.734	0.18
392.94	0.2
393.146	0.16
393.352	0.17
393.557	0.2
393.763	0.22
393.969	0.19
394.175	0.21
394.381	0.18
394.587	0.14
394.792	0.16
394.998	0.22
395.204	0.24
395.41	0.15
395.615	0.24
395.821	0.26
396.027	0.21
396.233	0.15
396.438	0.22
396.644	0.28
396.85	0.22
397.055	0.19
397.261	0.16
397.466	0.34
397.672	0.26
397.878	0.24
398.083	0.24
398.289	0.13
398.494	0.23
398.7	0.24
398.905	0.17
399.111	0.31
399.316	0.21
399.522	0.2
399.727	0.23
399.932	0.24
400.138	0.24
400.343	0.28
400.549	0.21
400.754	0.24
400.959	0.23
401.165	0.22
401.37	0.28
401.575	0.32
401.78	0.29
401.986	0.22
402.191	0.21
402.396	0.23
402.601	0.3
402.807	0.29
403.012	0.2
403.217	0.32
403.422	0.27
403.627	0.24
403.832	0.21
404.037	0.27
404.243	0.28
404.448	0.23
404.653	0.25
404.858	0.28
405.063	0.33
405.268	0.23
405.473	0.24
405.678	0.27
405.883	0.48
406.088	0.33
406.293	0.22
406.498	0.31
406.703	0.34
406.907	0.31
407.112	0.27
407.317	0.37
407.522	0.34
407.727	0.31
407.932	0.34
408.136	0.46
408.341	0.33
408.546	0.38
408.751	0.39
408.956	0.37
409.16	0.42
409.365	0.35
409.57	0.43
409.774	0.4
409.979	0.47
410.184	0.44
410.388	0.37
410.593	0.51
410.798	0.48
411.002	0.49
411.207	0.58
411.411	0.53
411.616	0.46
411.82	0.54
412.025	0.57
412.229	0.51
412.434	0.63
412.638	0.62
412.843	0.59
413.047	0.65
413.252	0.64
413.456	0.6
413.66	0.7
413.865	0.62
414.069	0.75
414.273	0.7
414.478	0.77
414.682	0.75
414.886	0.78
415.091	0.73
415.295	0.79
415.499	0.92
415.703	0.9
415.908	0.97
416.112	0.9
416.316	1
416.52	1.02
416.724	1.01
416.929	1.04
417.133	1.24
417.337	1.14
417.541	1.13
417.745	1.25
417.949	1.26
418.153	1.39
418.357	1.32
418.561	1.5
418.765	1.44
418.969	1.58
419.173	1.63
419.377	1.57
419.581	1.74
419.785	1.75
419.989	1.73
420.193	1.83
420.397	2
420.601	2.07
420.804	2.02
421.008	2.08
421.212	2.17
421.416	2.18
421.62	2.21
421.823	2.23
422.027	2.41
422.231	2.34
422.435	2.33
422.638	2.43
422.842	2.46
423.046	2.51
423.249	2.63
423.453	2.61
423.657	2.76
423.86	2.84
424.064	2.83
424.268	3.06
424.471	3.02
424.675	3.19
424.878	3.23
425.082	3.27
425.285	3.51
425.489	3.51
425.692	3.46
425.896	3.58
426.099	3.72
426.303	3.8
426.506	3.84
426.71	3.99
426.913	4.15
427.116	4.33
427.32	4.24
427.523	4.29
427.726	4.61
427.93	4.55
428.133	4.83
428.336	4.87
428.54	5.01
428.743	5.17
428.946	5.29
429.149	5.27
429.353	5.37
429.556	5.38
429.759	5.41
429.962	5.45
430.165	5.65
430.368	5.37
430.571	5.34
430.775	5.5
430.978	5.42
431.181	5.51
431.384	5.47
431.587	5.6
431.79	5.91
431.993	5.76
432.196	5.99
432.399	6.24
432.602	6.4
432.805	6.4
433.008	6.81
433.211	6.62
433.414	6.95
433.616	6.98
433.819	6.89
434.022	6.97
434.225	7.13
434.428	7.12
434.631	7.49
434.833	7.3
435.036	7.41
435.239	7.64
435.442	7.65
435.645	7.76
435.847	7.91
436.05	8
436.253	8.15
436.455	8.18
436.658	8.12
436.861	8.38
437.063	8.38
437.266	8.37
437.468	8.59
437.671	8.95
437.874	8.93
438.076	8.71
438.279	9.14
438.481	9.14
438.684	9.73
438.886	9.38
439.089	9.63
439.291	9.64
439.494	10.01
439.696	10.1
439.899	10.48
440.101	10.85
440.303	10.77
440.506	11.49
440.708	11.28
440.91	11.35
441.113	11.49
441.315	11.77
441.517	11.59
441.72	12.01
441.922	11.69
442.124	11.51
442.326	11.93
442.529	12.15
442.731	12.13
442.933	12.45
443.135	12.28
443.337	12.28
443.539	12.68
443.742	12.46
443.944	12.89
444.146	12.69
444.348	12.78
444.55	12.65
444.752	12.82
444.954	12.74
445.156	12.72
445.358	13.02
445.56	13.32
445.762	13.09
445.964	13.43
446.166	13.13
446.368	13.26
446.57	13.17
446.772	13
446.974	12.89
447.175	13.05
447.377	12.72
447.579	13.04
447.781	12.89
447.983	12.63
448.184	12.45
448.386	12.66
448.588	12.33
448.79	12.34
448.991	12.55
449.193	12.42
449.395	12.04
449.597	11.81
449.798	11.66
450	11.5
450.202	11.33
450.403	11.36
450.605	11.25
450.806	10.99
451.008	10.86
451.21	10.6
451.411	10.36
451.613	9.86
451.814	9.96
452.016	10.08
452.217	9.46
452.419	9.49
452.62	9.2
452.821	9.01
453.023	9.03
453.224	8.7
453.426	8.37
453.627	7.93
453.828	8
454.03	7.95
454.231	7.91
454.432	7.78
454.634	7.69
454.835	7.33
455.036	7.43
455.238	7.01
455.439	6.94
455.64	6.63
455.841	6.53
456.042	6.69
456.244	6.42
456.445	6.22
456.646	6.04
456.847	5.93
457.048	5.91
457.249	5.91
457.45	5.82
457.651	5.39
457.852	5.25
458.054	4.98
458.255	5.03
458.456	5.12
458.657	4.93
458.858	4.7
459.058	4.68
459.259	4.63
459.46	4.48
459.661	4.41
459.862	4.52
460.063	4.42
460.264	4.33
460.465	4.14
460.666	4.19
460.866	3.94
461.067	3.82
461.268	3.82
461.469	3.84
461.67	3.71
461.87	3.59
462.071	3.61
462.272	3.53
462.473	3.47
462.673	3.62
462.874	3.54
463.075	3.5
463.275	3.49
463.476	3.57
463.676	3.6
463.877	3.41
464.078	3.37
464.278	3.38
464.479	3.33
464.679	3.25
464.88	3.24
465.08	3.31
465.281	3.12
465.481	3.01
465.682	2.81
465.882	2.89
466.083	2.87
466.283	2.76
466.483	2.72
466.684	2.56
466.884	2.51
467.085	2.54
467.285	2.58
467.485	2.45
467.686	2.47
467.886	2.37
468.086	2.33
468.286	2.3
468.487	2.33
468.687	2.21
468.887	2.17
469.087	2.32
469.287	2.18
469.488	2.02
469.688	2.2
469.888	2.19
470.088	2.18
470.288	2.08
470.488	2.06
470.688	1.88
470.888	1.9
471.088	1.78
471.288	1.88
471.488	1.85
471.688	1.85
471.888	1.76
472.088	1.91
472.288	1.83
472.488	1.76
472.688	1.7
472.888	1.71
473.088	1.79
473.288	1.66
473.488	1.68
473.688	1.82
473.887	1.67
474.087	1.66
474.287	1.67
474.487	1.59
474.687	1.68
474.886	1.59
475.086	1.61
475.286	1.59
475.486	1.57
475.685	1.53
475.885	1.48
476.085	1.53
476.284	1.52
476.484	1.53
476.684	1.5
476.883	1.56
477.083	1.47
477.282	1.44
477.482	1.48
477.681	1.43
477.881	1.44
478.08	1.36
478.28	1.36
478.479	1.42
478.679	1.49
478.878	1.4
479.078	1.39
479.277	1.4
479.477	1.4
479.676	1.41
479.875	1.36
480.075	1.32
480.274	1.37
480.473	1.37
480.673	1.37
480.872	1.45
481.071	1.38
481.271	1.37
481.47	1.31
481.669	1.33
481.868	1.31
482.067	1.3
482.267	1.29
482.466	1.32
482.665	1.32
482.864	1.31
483.063	1.28
483.262	1.39
483.461	1.36
483.661	1.43
483.86	1.38
484.059	1.39
484.258	1.35
484.457	1.37
484.656	1.4
484.855	1.43
485.054	1.28
485.253	1.37
485.452	1.34
485.651	1.39
485.849	1.31
486.048	1.36
486.247	1.35
486.446	1.41
486.645	1.35
486.844	1.39
487.043	1.37
487.241	1.43
487.44	1.42
487.639	1.47
487.838	1.43
488.037	1.42
488.235	1.52
488.434	1.46
488.633	1.42
488.831	1.53
489.03	1.55
489.229	1.55
489.427	1.51
489.626	1.57
489.825	1.58
490.023	1.59
490.222	1.55
490.42	1.59
490.619	1.66
490.817	1.64
491.016	1.6
491.214	1.69
491.413	1.65
491.611	1.65
491.81	1.68
492.008	1.73
492.207	1.77
492.405	1.7
492.604	1.7
492.802	1.74
493	1.81
493.199	1.81
493.397	1.83
493.595	1.89
493.794	1.81
493.992	1.95
494.19	1.92
494.388	1.97
494.587	1.92
494.785	1.93
494.983	1.88
495.181	1.99
495.379	1.99
495.578	2.04
495.776	2.07
495.974	2.08
496.172	2.06
496.37	2.18
496.568	2.16
496.766	2.17
496.964	2.25
497.162	2.23
497.36	2.22
497.558	2.28
497.756	2.32
497.954	2.32
498.152	2.32
498.35	2.39
498.548	2.34
498.746	2.37
498.944	2.39
499.142	2.41
499.34	2.48
499.538	2.57
499.736	2.44
499.933	2.57
500.131	2.54
500.329	2.63
500.527	2.69
500.725	2.75
500.922	2.73
501.12	2.72
501.318	2.77
501.516	2.77
501.713	2.81
501.911	2.84
502.109	2.76
502.306	2.88
502.504	2.83
502.701	2.89
502.899	2.9
503.097	3.1
503.294	3.01
