Data from Apollo_Calib_20240827__AbsoluteIrradiance__847__13-16-01-231.txt Node

Date: Wed Aug 28 13:16:01 BST 2024
User: biology
Spectrometer: FLMT08252
Trigger mode: 0
Integration Time (sec): 5.000000E-1
Scans to average: 5
Electric dark correction enabled: true
Nonlinearity correction enabled: false
Boxcar width: 0
XAxis mode: Wavelengths
Number of Pixels in Spectrum: 3648
>>>>>Begin Spectral Data<<<<<
179.588	-0
179.809	-0
180.03	-0
180.251	-0
180.473	-0
180.694	0
180.915	0
181.136	-0
181.357	0
181.578	-0
181.799	0
182.02	-0
182.241	0
182.462	-0
182.683	0
182.904	-0
183.125	-0
183.346	0
183.567	0
183.788	0
184.009	0
184.23	0
184.451	0
184.672	0
184.892	0
185.113	0
185.334	0
185.555	0
185.776	0
185.996	0
186.217	0
186.438	0
186.659	0
186.879	0
187.1	0
187.321	0
187.541	0
187.762	0
187.983	0
188.203	0
188.424	0
188.644	0
188.865	0
189.086	0
189.306	0
189.527	0
189.747	0
189.968	0
190.188	0
190.409	0
190.629	0
190.849	0
191.07	0
191.29	0
191.511	0
191.731	0
191.951	0
192.172	0
192.392	0
192.612	0
192.833	0
193.053	0
193.273	0
193.493	0
193.714	0
193.934	0
194.154	0
194.374	0
194.594	0
194.815	0
195.035	0
195.255	0
195.475	0
195.695	0
195.915	0
196.135	0
196.355	0
196.575	0
196.795	0
197.015	0
197.235	0
197.455	0
197.675	0
197.895	0
198.115	0
198.335	0
198.555	0
198.775	0
198.995	0
199.214	0
199.434	0
199.654	0
199.874	0
200.094	4.25
200.313	2.08
200.533	1.27
200.753	1.49
200.973	3.84
201.192	3
201.412	1.19
201.632	1.11
201.851	3.77
202.071	1.53
202.291	1.24
202.51	1.44
202.73	3.28
202.95	1.39
203.169	0.95
203.389	1.92
203.608	1.94
203.828	1.97
204.047	1.17
204.267	2.26
204.486	2.34
204.706	2.18
204.925	1.38
205.145	1.32
205.364	1.92
205.583	2.57
205.803	1.32
206.022	1.19
206.242	1.81
206.461	1.72
206.68	1.22
206.9	1.29
207.119	2.28
207.338	1.87
207.557	0.98
207.777	1.12
207.996	1.54
208.215	2.13
208.434	1.06
208.654	0.92
208.873	1.66
209.092	2.12
209.311	1.03
209.53	0.92
209.749	1.14
209.968	0.95
210.187	0.81
210.407	0.48
210.626	1.27
210.845	1.43
211.064	1.14
211.283	0.7
211.502	1.47
211.721	1.05
211.94	0.94
212.159	1.19
212.377	1.51
212.596	1.55
212.815	1.25
213.034	1.13
213.253	1.36
213.472	1.4
213.691	0.99
213.91	0.72
214.128	0.57
214.347	1.53
214.566	0.32
214.785	0.39
215.003	1.31
215.222	1.35
215.441	0.84
215.66	0.44
215.878	1
216.097	1.27
216.316	0.76
216.534	0.72
216.753	1
216.972	0.93
217.19	0.73
217.409	0.56
217.627	0.71
217.846	0.88
218.064	0.83
218.283	0.46
218.501	1.36
218.72	1.2
218.938	0.38
219.157	0.64
219.375	1.05
219.594	1.11
219.812	0.5
220.031	0.48
220.249	1.26
220.467	1.16
220.686	0.48
220.904	0.49
221.122	0.78
221.341	1.38
221.559	0.78
221.777	0.37
221.995	0.67
222.214	0.95
222.432	0.7
222.65	0.97
222.868	0.76
223.086	0.85
223.305	0.81
223.523	0.6
223.741	1.21
223.959	0.57
224.177	0.31
224.395	0.58
224.613	0.91
224.831	0.84
225.049	0.45
225.267	0.63
225.485	0.78
225.703	0.42
225.921	0.63
226.139	0.42
226.357	0.73
226.575	1.02
226.793	0.53
227.011	1.58
227.229	0.83
227.447	0.93
227.665	0.39
227.883	0.3
228.1	0.69
228.318	0.76
228.536	0.29
228.754	0.38
228.972	0.69
229.189	0.77
229.407	0.46
229.625	0.54
229.843	0.87
230.06	0.71
230.278	0.43
230.496	0.6
230.713	0.68
230.931	0.87
231.149	0.46
231.366	0.38
231.584	0.66
231.801	1.02
232.019	0.39
232.236	0.29
232.454	0.46
232.671	0.53
232.889	0.53
233.106	0.3
233.324	0.49
233.541	0.51
233.759	0.51
233.976	0.41
234.194	0.56
234.411	0.64
234.628	0.29
234.846	0.49
235.063	0.66
235.28	0.57
235.498	0.47
235.715	0.29
235.932	0.6
236.149	0.58
236.367	0.48
236.584	0.51
236.801	0.53
237.018	0.73
237.236	0.42
237.453	0.29
237.67	0.65
237.887	0.42
238.104	0.47
238.321	0.4
238.538	0.39
238.755	0.7
238.973	0.34
239.19	0.48
239.407	0.6
239.624	0.45
239.841	0.43
240.058	0.31
240.275	0.49
240.492	0.52
240.709	0.37
240.925	0.27
241.142	0.45
241.359	0.32
241.576	0.25
241.793	0.29
242.01	0.4
242.227	0.62
242.444	0.51
242.66	0.61
242.877	0.46
243.094	0.45
243.311	0.45
243.527	0.4
243.744	0.53
243.961	0.58
244.178	0.33
244.394	0.41
244.611	0.46
244.828	0.71
245.044	0.35
245.261	0.34
245.477	0.47
245.694	0.58
245.911	0.31
246.127	0.45
246.344	0.65
246.56	0.59
246.777	0.32
246.993	0.38
247.21	0.5
247.426	0.48
247.643	0.32
247.859	0.26
248.076	0.32
248.292	0.69
248.508	0.35
248.725	0.44
248.941	0.49
249.157	0.63
249.374	0.4
249.59	0.38
249.806	0.36
250.023	0.62
250.239	0.33
250.455	0.33
250.671	0.43
250.888	0.44
251.104	0.51
251.32	0.25
251.536	0.39
251.752	0.37
251.969	0.33
252.185	0.34
252.401	0.63
252.617	0.33
252.833	0.34
253.049	0.42
253.265	0.45
253.481	0.52
253.697	0.33
253.913	0.29
254.129	0.44
254.345	0.37
254.561	0.27
254.777	0.37
254.993	0.49
255.209	0.43
255.425	0.3
255.641	0.32
255.857	0.46
256.073	0.47
256.288	0.25
256.504	0.23
256.72	0.43
256.936	0.57
257.152	0.33
257.367	0.23
257.583	0.4
257.799	0.39
258.015	0.35
258.23	0.34
258.446	0.55
258.662	0.3
258.877	0.3
259.093	0.24
259.309	0.42
259.524	0.39
259.74	0.32
259.955	0.18
260.171	0.41
260.387	0.43
260.602	0.37
260.818	0.35
261.033	0.25
261.249	0.38
261.464	0.27
261.68	0.29
261.895	0.4
262.11	0.51
262.326	0.33
262.541	0.29
262.757	0.49
262.972	0.43
263.187	0.37
263.403	0.33
263.618	0.53
263.833	0.42
264.049	0.29
264.264	0.31
264.479	0.37
264.694	0.56
264.91	0.21
265.125	0.31
265.34	0.4
265.555	0.61
265.77	0.43
265.986	0.28
266.201	0.38
266.416	0.44
266.631	0.33
266.846	0.32
267.061	0.44
267.276	0.47
267.491	0.16
267.706	0.38
267.921	0.37
268.136	0.34
268.351	0.35
268.566	0.21
268.781	0.43
268.996	0.42
269.211	0.33
269.426	0.26
269.641	0.36
269.856	0.44
270.071	0.21
270.285	0.21
270.5	0.41
270.715	0.37
270.93	0.32
271.145	0.31
271.359	0.48
271.574	0.36
271.789	0.38
272.004	0.27
272.218	0.26
272.433	0.41
272.648	0.32
272.862	0.38
273.077	0.35
273.292	0.34
273.506	0.24
273.721	0.26
273.936	0.33
274.15	0.43
274.365	0.24
274.579	0.3
274.794	0.38
275.008	0.41
275.223	0.21
275.437	0.34
275.652	0.41
275.866	0.48
276.081	0.29
276.295	0.39
276.509	0.34
276.724	0.3
276.938	0.36
277.153	0.29
277.367	0.36
277.581	0.26
277.796	0.27
278.01	0.23
278.224	0.4
278.438	0.47
278.653	0.24
278.867	0.2
279.081	0.22
279.295	0.27
279.51	0.28
279.724	0.18
279.938	0.43
280.152	0.31
280.366	0.29
280.58	0.33
280.794	0.44
281.008	0.34
281.222	0.33
281.437	0.41
281.651	0.29
281.865	0.45
282.079	0.27
282.293	0.16
282.507	0.22
282.721	0.29
282.935	0.24
283.148	0.21
283.362	0.21
283.576	0.25
283.79	0.27
284.004	0.21
284.218	0.4
284.432	0.26
284.646	0.26
284.859	0.25
285.073	0.28
285.287	0.37
285.501	0.24
285.714	0.25
285.928	0.33
286.142	0.33
286.356	0.22
286.569	0.25
286.783	0.42
286.997	0.36
287.21	0.34
287.424	0.2
287.637	0.32
287.851	0.24
288.065	0.38
288.278	0.25
288.492	0.3
288.705	0.25
288.919	0.3
289.132	0.22
289.346	0.36
289.559	0.26
289.773	0.21
289.986	0.25
290.2	0.28
290.413	0.34
290.626	0.19
290.84	0.23
291.053	0.29
291.267	0.38
291.48	0.26
291.693	0.31
291.906	0.22
292.12	0.29
292.333	0.21
292.546	0.25
292.76	0.37
292.973	0.29
293.186	0.28
293.399	0.18
293.612	0.3
293.826	0.27
294.039	0.29
294.252	0.24
294.465	0.37
294.678	0.26
294.891	0.25
295.104	0.17
295.317	0.24
295.53	0.34
295.743	0.3
295.956	0.18
296.169	0.37
296.382	0.27
296.595	0.23
296.808	0.17
297.021	0.39
297.234	0.32
297.447	0.26
297.66	0.27
297.873	0.33
298.086	0.3
298.299	0.18
298.511	0.16
298.724	0.23
298.937	0.23
299.15	0.2
299.363	0.23
299.575	0.32
299.788	0.31
300.001	0.25
300.213	0.2
300.426	0.26
300.639	0.24
300.852	0.18
301.064	0.31
301.277	0.37
301.489	0.3
301.702	0.29
301.915	0.25
302.127	0.29
302.34	0.28
302.552	0.3
302.765	0.23
302.977	0.27
303.19	0.17
303.402	0.23
303.615	0.24
303.827	0.24
304.04	0.24
304.252	0.33
304.464	0.2
304.677	0.38
304.889	0.31
305.102	0.26
305.314	0.21
305.526	0.28
305.739	0.28
305.951	0.21
306.163	0.21
306.375	0.34
306.588	0.25
306.8	0.18
307.012	0.2
307.224	0.29
307.436	0.34
307.649	0.13
307.861	0.27
308.073	0.28
308.285	0.24
308.497	0.16
308.709	0.21
308.921	0.29
309.133	0.32
309.346	0.24
309.558	0.25
309.77	0.29
309.982	0.31
310.194	0.25
310.406	0.17
310.617	0.37
310.829	0.27
311.041	0.31
311.253	0.19
311.465	0.26
311.677	0.29
311.889	0.3
312.101	0.15
312.313	0.31
312.524	0.31
312.736	0.22
312.948	0.21
313.16	0.34
313.372	0.31
313.583	0.29
313.795	0.21
314.007	0.19
314.218	0.32
314.43	0.25
314.642	0.22
314.853	0.2
315.065	0.3
315.277	0.24
315.488	0.26
315.7	0.34
315.912	0.35
316.123	0.26
316.335	0.21
316.546	0.38
316.758	0.22
316.969	0.19
317.181	0.23
317.392	0.23
317.604	0.32
317.815	0.21
318.026	0.2
318.238	0.24
318.449	0.32
318.661	0.2
318.872	0.21
319.083	0.22
319.295	0.32
319.506	0.25
319.717	0.25
319.929	0.28
320.14	0.28
320.351	0.28
320.562	0.17
320.774	0.29
320.985	0.27
321.196	0.19
321.407	0.14
321.618	0.37
321.829	0.28
322.041	0.28
322.252	0.2
322.463	0.29
322.674	0.27
322.885	0.2
323.096	0.22
323.307	0.29
323.518	0.24
323.729	0.23
323.94	0.19
324.151	0.22
324.362	0.26
324.573	0.25
324.784	0.24
324.995	0.32
325.206	0.28
325.417	0.22
325.628	0.21
325.838	0.24
326.049	0.25
326.26	0.29
326.471	0.18
326.682	0.29
326.892	0.25
327.103	0.16
327.314	0.23
327.525	0.32
327.735	0.27
327.946	0.23
328.157	0.22
328.368	0.28
328.578	0.21
328.789	0.3
328.999	0.24
329.21	0.24
329.421	0.32
329.631	0.2
329.842	0.16
330.052	0.28
330.263	0.31
330.473	0.23
330.684	0.2
330.894	0.25
331.105	0.27
331.315	0.26
331.526	0.18
331.736	0.35
331.947	0.29
332.157	0.25
332.367	0.18
332.578	0.29
332.788	0.38
332.999	0.29
333.209	0.25
333.419	0.15
333.629	0.25
333.84	0.26
334.05	0.26
334.26	0.32
334.47	0.24
334.681	0.28
334.891	0.23
335.101	0.29
335.311	0.41
335.521	0.23
335.732	0.22
335.942	0.33
336.152	0.25
336.362	0.29
336.572	0.27
336.782	0.31
336.992	0.22
337.202	0.21
337.412	0.25
337.622	0.26
337.832	0.22
338.042	0.25
338.252	0.19
338.462	0.25
338.672	0.3
338.882	0.22
339.092	0.24
339.302	0.36
339.511	0.24
339.721	0.24
339.931	0.16
340.141	0.32
340.351	0.29
340.561	0.28
340.77	0.27
340.98	0.25
341.19	0.27
341.4	0.25
341.609	0.21
341.819	0.22
342.029	0.17
342.238	0.31
342.448	0.19
342.658	0.31
342.867	0.24
343.077	0.27
343.286	0.24
343.496	0.27
343.706	0.31
343.915	0.21
344.125	0.25
344.334	0.27
344.544	0.2
344.753	0.21
344.963	0.21
345.172	0.21
345.381	0.2
345.591	0.16
345.8	0.27
346.01	0.31
346.219	0.3
346.428	0.14
346.638	0.23
346.847	0.24
347.056	0.35
347.266	0.22
347.475	0.23
347.684	0.28
347.893	0.27
348.103	0.31
348.312	0.25
348.521	0.29
348.73	0.28
348.94	0.23
349.149	0.21
349.358	0.26
349.567	0.22
349.776	0.17
349.985	0.18
350.194	0.28
350.403	0.24
350.612	0.14
350.821	0.22
351.03	0.26
351.239	0.22
351.448	0.28
351.657	0.2
351.866	0.34
352.075	0.26
352.284	0.24
352.493	0.19
352.702	0.3
352.911	0.28
353.12	0.22
353.329	0.22
353.538	0.26
353.746	0.26
353.955	0.19
354.164	0.25
354.373	0.21
354.582	0.27
354.79	0.2
354.999	0.28
355.208	0.24
355.416	0.34
355.625	0.18
355.834	0.19
356.042	0.26
356.251	0.23
356.46	0.21
356.668	0.25
356.877	0.38
357.085	0.3
357.294	0.15
357.503	0.3
357.711	0.22
357.92	0.4
358.128	0.28
358.337	0.21
358.545	0.26
358.754	0.22
358.962	0.27
359.17	0.19
359.379	0.22
359.587	0.28
359.796	0.24
360.004	0.3
360.212	0.28
360.421	0.3
360.629	0.25
360.837	0.23
361.046	0.32
361.254	0.4
361.462	0.24
361.67	0.2
361.879	0.28
362.087	0.3
362.295	0.24
362.503	0.24
362.711	0.19
362.92	0.19
363.128	0.19
363.336	0.18
363.544	0.16
363.752	0.24
363.96	0.21
364.168	0.19
364.376	0.28
364.584	0.25
364.792	0.31
365	0.24
365.208	0.25
365.416	0.29
365.624	0.27
365.832	0.21
366.04	0.33
366.248	0.3
366.456	0.28
366.664	0.23
366.872	0.23
367.079	0.27
367.287	0.27
367.495	0.27
367.703	0.24
367.911	0.21
368.118	0.27
368.326	0.24
368.534	0.21
368.742	0.32
368.949	0.22
369.157	0.2
369.365	0.28
369.572	0.19
369.78	0.19
369.988	0.3
370.195	0.27
370.403	0.33
370.61	0.22
370.818	0.26
371.026	0.35
371.233	0.2
371.441	0.26
371.648	0.2
371.856	0.23
372.063	0.25
372.271	0.24
372.478	0.24
372.685	0.21
372.893	0.3
373.1	0.24
373.308	0.24
373.515	0.38
373.722	0.33
373.93	0.21
374.137	0.27
374.344	0.35
374.552	0.31
374.759	0.27
374.966	0.23
375.173	0.21
375.381	0.32
375.588	0.23
375.795	0.16
376.002	0.25
376.209	0.23
376.417	0.23
376.624	0.25
376.831	0.29
377.038	0.24
377.245	0.17
377.452	0.21
377.659	0.25
377.866	0.25
378.073	0.26
378.28	0.26
378.487	0.33
378.694	0.33
378.901	0.24
379.108	0.26
379.315	0.3
379.522	0.38
379.729	0.3
379.936	0.22
380.143	0.22
380.35	0.26
380.557	0.28
380.763	0.24
380.97	0.26
381.177	0.26
381.384	0.29
381.591	0.22
381.797	0.28
382.004	0.31
382.211	0.33
382.418	0.22
382.624	0.32
382.831	0.34
383.038	0.27
383.244	0.31
383.451	0.26
383.658	0.27
383.864	0.25
384.071	0.23
384.277	0.31
384.484	0.24
384.69	0.36
384.897	0.23
385.103	0.25
385.31	0.21
385.516	0.23
385.723	0.22
385.929	0.28
386.136	0.26
386.342	0.3
386.549	0.25
386.755	0.34
386.961	0.29
387.168	0.28
387.374	0.27
387.58	0.3
387.787	0.26
387.993	0.27
388.199	0.31
388.406	0.24
388.612	0.27
388.818	0.25
389.024	0.18
389.231	0.26
389.437	0.35
389.643	0.26
389.849	0.29
390.055	0.31
390.261	0.31
390.467	0.34
390.674	0.24
390.88	0.29
391.086	0.37
391.292	0.25
391.498	0.3
391.704	0.36
391.91	0.28
392.116	0.28
392.322	0.22
392.528	0.3
392.734	0.27
392.94	0.29
393.146	0.29
393.352	0.31
393.557	0.28
393.763	0.29
393.969	0.33
394.175	0.28
394.381	0.3
394.587	0.24
394.792	0.29
394.998	0.35
395.204	0.36
395.41	0.28
395.615	0.3
395.821	0.35
396.027	0.38
396.233	0.28
396.438	0.32
396.644	0.38
396.85	0.34
397.055	0.32
397.261	0.35
397.466	0.43
397.672	0.36
397.878	0.37
398.083	0.35
398.289	0.29
398.494	0.38
398.7	0.36
398.905	0.21
399.111	0.44
399.316	0.29
399.522	0.35
399.727	0.35
399.932	0.32
400.138	0.28
400.343	0.36
400.549	0.3
400.754	0.33
400.959	0.37
401.165	0.35
401.37	0.37
401.575	0.45
401.78	0.36
401.986	0.29
402.191	0.34
402.396	0.36
402.601	0.38
402.807	0.39
403.012	0.37
403.217	0.46
403.422	0.44
403.627	0.45
403.832	0.4
404.037	0.48
404.243	0.43
404.448	0.41
404.653	0.37
404.858	0.39
405.063	0.44
405.268	0.33
405.473	0.41
405.678	0.41
405.883	0.66
406.088	0.51
406.293	0.41
406.498	0.43
406.703	0.53
406.907	0.48
407.112	0.39
407.317	0.55
407.522	0.58
407.727	0.48
407.932	0.52
408.136	0.65
408.341	0.49
408.546	0.62
408.751	0.57
408.956	0.52
409.16	0.66
409.365	0.62
409.57	0.6
409.774	0.63
409.979	0.65
410.184	0.67
410.388	0.62
410.593	0.71
410.798	0.73
411.002	0.7
411.207	0.84
411.411	0.78
411.616	0.75
411.82	0.83
412.025	0.82
412.229	0.82
412.434	0.97
412.638	0.87
412.843	0.88
413.047	0.97
413.252	0.96
413.456	0.95
413.66	0.99
413.865	1.01
414.069	1.16
414.273	1.03
414.478	1.06
414.682	1.16
414.886	1.19
415.091	1.14
415.295	1.15
415.499	1.33
415.703	1.37
415.908	1.44
416.112	1.35
416.316	1.54
416.52	1.5
416.724	1.52
416.929	1.56
417.133	1.82
417.337	1.66
417.541	1.72
417.745	1.8
417.949	1.96
418.153	1.96
418.357	1.97
418.561	2.19
418.765	2.13
418.969	2.36
419.173	2.3
419.377	2.35
419.581	2.64
419.785	2.59
419.989	2.51
420.193	2.76
420.397	2.85
420.601	2.95
420.804	3.03
421.008	2.95
421.212	3.19
421.416	3.13
421.62	3.17
421.823	3.25
422.027	3.46
422.231	3.4
422.435	3.42
422.638	3.53
422.842	3.59
423.046	3.63
423.249	3.86
423.453	3.89
423.657	3.98
423.86	4.06
424.064	4.19
424.268	4.33
424.471	4.37
424.675	4.6
424.878	4.64
425.082	4.73
425.285	5.05
425.489	4.94
425.692	5.14
425.896	5.04
426.099	5.27
426.303	5.42
426.506	5.5
426.71	5.88
426.913	6.07
427.116	6.12
427.32	6.14
427.523	6.24
427.726	6.5
427.93	6.63
428.133	6.97
428.336	7.06
428.54	7.26
428.743	7.44
428.946	7.63
429.149	7.75
429.353	7.75
429.556	7.86
429.759	8.02
429.962	7.86
430.165	8.23
430.368	7.78
430.571	7.8
430.775	7.96
430.978	7.88
431.181	7.99
431.384	8.12
431.587	8.18
431.79	8.55
431.993	8.53
432.196	8.74
432.399	9.15
432.602	9.28
432.805	9.4
433.008	9.94
433.211	9.74
433.414	10.03
433.616	10.15
433.819	10.13
434.022	10.31
434.225	10.39
434.428	10.54
434.631	10.91
434.833	10.67
435.036	10.95
435.239	11.2
435.442	11.09
435.645	11.29
435.847	11.45
436.05	11.71
436.253	11.91
436.455	12
436.658	11.95
436.861	12.12
437.063	12.32
437.266	12.32
437.468	12.56
437.671	12.92
437.874	13.03
438.076	12.76
438.279	13.21
438.481	13.33
438.684	13.97
438.886	13.64
439.089	13.9
439.291	13.95
439.494	14.38
439.696	14.49
439.899	15.11
440.101	15.3
440.303	15.61
440.506	16.39
440.708	15.9
440.91	16.28
441.113	16.48
441.315	16.78
441.517	16.64
441.72	17.01
441.922	16.59
442.124	16.5
442.326	16.92
442.529	17.23
442.731	17.21
442.933	17.6
443.135	17.24
443.337	17.19
443.539	17.77
443.742	17.58
443.944	18.11
444.146	17.78
444.348	17.75
444.55	17.67
444.752	17.95
444.954	17.81
445.156	17.85
445.358	18.26
445.56	18.54
445.762	18.38
445.964	18.65
446.166	18.41
446.368	18.43
446.57	18.53
446.772	18.1
446.974	17.87
447.175	18.05
447.377	17.88
447.579	18.25
447.781	17.91
447.983	17.66
448.184	17.22
448.386	17.7
448.588	17.12
448.79	17.1
448.991	17.29
449.193	17.5
449.395	16.76
449.597	16.48
449.798	16.46
450	16.02
450.202	15.74
450.403	15.74
450.605	15.64
450.806	15.33
451.008	15.24
451.21	15.03
451.411	14.56
451.613	13.73
451.814	14.17
452.016	14.02
452.217	13.4
452.419	13.39
452.62	12.92
452.821	12.7
453.023	12.64
453.224	12.24
453.426	12.02
453.627	11.06
453.828	11.32
454.03	11.44
454.231	11.37
454.432	11.12
454.634	10.94
454.835	10.56
455.036	10.51
455.238	10.18
455.439	9.91
455.64	9.55
455.841	9.45
456.042	9.61
456.244	9.3
456.445	9.05
456.646	8.69
456.847	8.62
457.048	8.47
457.249	8.53
457.45	8.26
457.651	7.78
457.852	7.63
458.054	7.3
458.255	7.27
458.456	7.34
458.657	7.3
458.858	6.79
459.058	6.74
459.259	6.85
459.46	6.49
459.661	6.44
459.862	6.47
460.063	6.43
460.264	6.36
460.465	6
460.666	6.16
460.866	5.84
461.067	5.63
461.268	5.61
461.469	5.53
461.67	5.44
461.87	5.28
462.071	5.23
462.272	5.22
462.473	5.12
462.673	5.29
462.874	5.16
463.075	5.08
463.275	5.16
463.476	5.2
463.676	5.18
463.877	4.99
464.078	4.98
464.278	5.03
464.479	4.93
464.679	4.8
464.88	4.75
465.08	4.78
465.281	4.52
465.481	4.3
465.682	4.21
465.882	4.24
466.083	4.17
466.283	4.1
466.483	3.95
466.684	3.73
466.884	3.65
467.085	3.67
467.285	3.76
467.485	3.61
467.686	3.51
467.886	3.48
468.086	3.42
468.286	3.33
468.487	3.45
468.687	3.26
468.887	3.27
469.087	3.35
469.287	3.19
469.488	3.11
469.688	3.29
469.888	3.28
470.088	3.18
470.288	3.1
470.488	3.14
470.688	2.9
470.888	2.91
471.088	2.74
471.288	2.88
471.488	2.85
471.688	2.75
471.888	2.65
472.088	2.88
472.288	2.74
472.488	2.69
472.688	2.62
472.888	2.65
473.088	2.63
473.288	2.54
473.488	2.47
473.688	2.66
473.887	2.45
474.087	2.45
474.287	2.45
474.487	2.39
474.687	2.41
474.886	2.37
475.086	2.33
475.286	2.35
475.486	2.29
475.685	2.3
475.885	2.23
476.085	2.28
476.284	2.31
476.484	2.27
476.684	2.23
476.883	2.35
477.083	2.17
477.282	2.14
477.482	2.17
477.681	2.18
477.881	2.08
478.08	2.09
478.28	2.04
478.479	2.15
478.679	2.15
478.878	2.08
479.078	2.04
479.277	2.14
479.477	2.06
479.676	2.04
479.875	2.04
480.075	1.94
480.274	2.03
480.473	2.08
480.673	2.04
480.872	2.11
481.071	2.09
481.271	2.03
481.47	2.01
481.669	2
481.868	1.96
482.067	2.01
482.267	1.9
482.466	1.97
482.665	1.96
482.864	1.99
483.063	1.89
483.262	2.04
483.461	2.08
483.661	2.07
483.86	1.99
484.059	2.11
484.258	2.08
484.457	2.01
484.656	2.04
484.855	2.14
485.054	1.92
485.253	1.99
485.452	1.96
485.651	2.04
485.849	2.01
486.048	2.01
486.247	2.02
486.446	2.13
486.645	2.01
486.844	2.08
487.043	2.04
487.241	2.12
487.44	2.07
487.639	2.12
487.838	2.12
488.037	2.15
488.235	2.25
488.434	2.16
488.633	2.07
488.831	2.21
489.03	2.19
489.229	2.18
489.427	2.16
489.626	2.33
489.825	2.29
490.023	2.29
490.222	2.24
490.42	2.32
490.619	2.38
490.817	2.39
491.016	2.32
491.214	2.42
491.413	2.42
491.611	2.39
491.81	2.4
492.008	2.46
492.207	2.55
492.405	2.52
492.604	2.47
492.802	2.55
493	2.59
493.199	2.6
493.397	2.63
493.595	2.7
493.794	2.65
493.992	2.78
494.19	2.7
494.388	2.79
494.587	2.73
494.785	2.79
494.983	2.71
495.181	2.87
495.379	2.88
495.578	2.97
495.776	2.97
495.974	2.91
496.172	3
496.37	3.09
496.568	3.12
496.766	3.05
496.964	3.19
497.162	3.18
497.36	3.22
497.558	3.22
497.756	3.29
497.954	3.27
498.152	3.38
498.35	3.44
498.548	3.34
498.746	3.37
498.944	3.37
499.142	3.45
499.34	3.48
499.538	3.62
499.736	3.53
499.933	3.61
500.131	3.64
500.329	3.81
500.527	3.73
500.725	3.9
500.922	3.84
501.12	3.89
501.318	3.92
501.516	3.92
501.713	4.04
501.911	3.96
502.109	3.96
502.306	4.07
502.504	3.95
