Data from Apollo_Calib_20240827__AbsoluteIrradiance__19__23-28-02-626.txt Node

Date: Tue Aug 27 23:28:02 BST 2024
User: biology
Spectrometer: FLMT08252
Trigger mode: 0
Integration Time (sec): 5.000000E-1
Scans to average: 5
Electric dark correction enabled: true
Nonlinearity correction enabled: false
Boxcar width: 0
XAxis mode: Wavelengths
Number of Pixels in Spectrum: 3648
>>>>>Begin Spectral Data<<<<<
179.588	-0
179.809	-0
180.03	-0
180.251	-0
180.473	-0
180.694	0
180.915	0
181.136	-0
181.357	-0
181.578	-0
181.799	0
182.02	-0
182.241	0
182.462	-0
182.683	0
182.904	0
183.125	-0
183.346	0
183.567	0
183.788	0
184.009	0
184.23	0
184.451	0
184.672	0
184.892	0
185.113	0
185.334	0
185.555	0
185.776	0
185.996	0
186.217	0
186.438	0
186.659	0
186.879	0
187.1	0
187.321	0
187.541	0
187.762	0
187.983	0
188.203	0
188.424	0
188.644	0
188.865	0
189.086	0
189.306	0
189.527	0
189.747	0
189.968	0
190.188	0
190.409	0
190.629	0
190.849	0
191.07	0
191.29	0
191.511	0
191.731	0
191.951	0
192.172	0
192.392	0
192.612	0
192.833	0
193.053	0
193.273	0
193.493	0
193.714	0
193.934	0
194.154	0
194.374	0
194.594	0
194.815	0
195.035	0
195.255	0
195.475	0
195.695	0
195.915	0
196.135	0
196.355	0
196.575	0
196.795	0
197.015	0
197.235	0
197.455	0
197.675	0
197.895	0
198.115	0
198.335	0
198.555	0
198.775	0
198.995	0
199.214	0
199.434	0
199.654	0
199.874	0
200.094	3.65
200.313	2.87
200.533	2.56
200.753	1.86
200.973	3.28
201.192	2.8
201.412	1.5
201.632	2.06
201.851	3.23
202.071	2.08
202.291	1.92
202.51	1.67
202.73	2.88
202.95	2.03
203.169	1.63
203.389	1.98
203.608	2.18
203.828	1.46
204.047	1.97
204.267	2.41
204.486	1.64
204.706	2.2
204.925	2.11
205.145	1.75
205.364	1.9
205.583	2.47
205.803	1.55
206.022	1.41
206.242	1.81
206.461	1.59
206.68	1.34
206.9	2.05
207.119	2.14
207.338	1.92
207.557	1.41
207.777	1.56
207.996	1.22
208.215	2.06
208.434	1.11
208.654	1.26
208.873	1.43
209.092	1.87
209.311	1.59
209.53	1.31
209.749	1.05
209.968	1.08
210.187	1.19
210.407	0.77
210.626	1.13
210.845	1.26
211.064	1.31
211.283	1.06
211.502	1.47
211.721	1.46
211.94	1.16
212.159	1.12
212.377	1.31
212.596	1.51
212.815	1.12
213.034	1.02
213.253	1.32
213.472	1.57
213.691	0.94
213.91	0.85
214.128	0.85
214.347	1.39
214.566	0.67
214.785	0.99
215.003	1.23
215.222	1.12
215.441	0.88
215.66	0.76
215.878	1.23
216.097	1.34
216.316	0.57
216.534	0.95
216.753	0.93
216.972	1.07
217.19	0.9
217.409	0.68
217.627	0.75
217.846	0.79
218.064	0.99
218.283	0.69
218.501	1.23
218.72	1.06
218.938	0.7
219.157	0.75
219.375	1.19
219.594	1.06
219.812	0.64
220.031	0.72
220.249	1.02
220.467	1.02
220.686	0.66
220.904	0.52
221.122	0.7
221.341	1.17
221.559	0.86
221.777	0.67
221.995	0.8
222.214	0.97
222.432	0.71
222.65	0.83
222.868	0.9
223.086	0.83
223.305	1.12
223.523	0.77
223.741	0.94
223.959	0.57
224.177	0.66
224.395	0.51
224.613	0.79
224.831	0.79
225.049	0.45
225.267	0.72
225.485	0.82
225.703	0.6
225.921	0.81
226.139	0.6
226.357	0.75
226.575	0.63
226.793	0.64
227.011	1.2
227.229	0.72
227.447	0.76
227.665	0.64
227.883	0.45
228.1	0.63
228.318	0.71
228.536	0.37
228.754	0.55
228.972	0.76
229.189	0.76
229.407	0.56
229.625	0.65
229.843	0.7
230.06	0.66
230.278	0.44
230.496	0.56
230.713	0.63
230.931	0.77
231.149	0.64
231.366	0.4
231.584	0.63
231.801	0.97
232.019	0.5
232.236	0.47
232.454	0.58
232.671	0.49
232.889	0.62
233.106	0.41
233.324	0.63
233.541	0.65
233.759	0.6
233.976	0.51
234.194	0.63
234.411	0.6
234.628	0.44
234.846	0.5
235.063	0.53
235.28	0.52
235.498	0.57
235.715	0.52
235.932	0.62
236.149	0.54
236.367	0.47
236.584	0.55
236.801	0.44
237.018	0.63
237.236	0.6
237.453	0.48
237.67	0.71
237.887	0.52
238.104	0.46
238.321	0.35
238.538	0.49
238.755	0.55
238.973	0.34
239.19	0.58
239.407	0.56
239.624	0.56
239.841	0.37
240.058	0.42
240.275	0.64
240.492	0.54
240.709	0.55
240.925	0.46
241.142	0.48
241.359	0.41
241.576	0.44
241.793	0.48
242.01	0.55
242.227	0.57
242.444	0.59
242.66	0.58
242.877	0.41
243.094	0.52
243.311	0.56
243.527	0.4
243.744	0.43
243.961	0.56
244.178	0.48
244.394	0.42
244.611	0.58
244.828	0.69
245.044	0.36
245.261	0.47
245.477	0.51
245.694	0.56
245.911	0.45
246.127	0.56
246.344	0.58
246.56	0.55
246.777	0.37
246.993	0.46
247.21	0.46
247.426	0.5
247.643	0.5
247.859	0.3
248.076	0.46
248.292	0.62
248.508	0.36
248.725	0.54
248.941	0.57
249.157	0.56
249.374	0.36
249.59	0.4
249.806	0.47
250.023	0.49
250.239	0.43
250.455	0.3
250.671	0.35
250.888	0.52
251.104	0.44
251.32	0.34
251.536	0.35
251.752	0.44
251.969	0.4
252.185	0.45
252.401	0.56
252.617	0.47
252.833	0.35
253.049	0.41
253.265	0.35
253.481	0.48
253.697	0.34
253.913	0.32
254.129	0.44
254.345	0.42
254.561	0.42
254.777	0.47
254.993	0.43
255.209	0.45
255.425	0.35
255.641	0.41
255.857	0.49
256.073	0.4
256.288	0.27
256.504	0.42
256.72	0.4
256.936	0.57
257.152	0.37
257.367	0.34
257.583	0.41
257.799	0.45
258.015	0.36
258.23	0.37
258.446	0.55
258.662	0.4
258.877	0.36
259.093	0.29
259.309	0.39
259.524	0.36
259.74	0.45
259.955	0.35
260.171	0.41
260.387	0.35
260.602	0.51
260.818	0.49
261.033	0.3
261.249	0.38
261.464	0.41
261.68	0.32
261.895	0.38
262.11	0.39
262.326	0.39
262.541	0.25
262.757	0.41
262.972	0.38
263.187	0.38
263.403	0.34
263.618	0.47
263.833	0.3
264.049	0.4
264.264	0.38
264.479	0.39
264.694	0.42
264.91	0.31
265.125	0.34
265.34	0.41
265.555	0.53
265.77	0.35
265.986	0.33
266.201	0.44
266.416	0.41
266.631	0.36
266.846	0.32
267.061	0.4
267.276	0.47
267.491	0.3
267.706	0.39
267.921	0.41
268.136	0.34
268.351	0.37
268.566	0.27
268.781	0.4
268.996	0.41
269.211	0.36
269.426	0.25
269.641	0.36
269.856	0.4
270.071	0.35
270.285	0.33
270.5	0.44
270.715	0.39
270.93	0.35
271.145	0.41
271.359	0.44
271.574	0.34
271.789	0.36
272.004	0.41
272.218	0.33
272.433	0.41
272.648	0.3
272.862	0.41
273.077	0.36
273.292	0.36
273.506	0.32
273.721	0.29
273.936	0.37
274.15	0.42
274.365	0.26
274.579	0.43
274.794	0.41
275.008	0.34
275.223	0.23
275.437	0.34
275.652	0.47
275.866	0.39
276.081	0.35
276.295	0.41
276.509	0.33
276.724	0.37
276.938	0.38
277.153	0.36
277.367	0.41
277.581	0.26
277.796	0.34
278.01	0.28
278.224	0.41
278.438	0.41
278.653	0.24
278.867	0.3
279.081	0.14
279.295	0.36
279.51	0.32
279.724	0.24
279.938	0.39
280.152	0.39
280.366	0.26
280.58	0.26
280.794	0.43
281.008	0.38
281.222	0.38
281.437	0.4
281.651	0.34
281.865	0.41
282.079	0.31
282.293	0.2
282.507	0.29
282.721	0.28
282.935	0.31
283.148	0.24
283.362	0.21
283.576	0.24
283.79	0.31
284.004	0.24
284.218	0.36
284.432	0.27
284.646	0.33
284.859	0.29
285.073	0.29
285.287	0.31
285.501	0.31
285.714	0.29
285.928	0.34
286.142	0.31
286.356	0.27
286.569	0.3
286.783	0.34
286.997	0.37
287.21	0.34
287.424	0.29
287.637	0.31
287.851	0.3
288.065	0.33
288.278	0.26
288.492	0.31
288.705	0.31
288.919	0.36
289.132	0.18
289.346	0.37
289.559	0.2
289.773	0.24
289.986	0.28
290.2	0.3
290.413	0.42
290.626	0.25
290.84	0.27
291.053	0.29
291.267	0.37
291.48	0.31
291.693	0.3
291.906	0.27
292.12	0.25
292.333	0.25
292.546	0.26
292.76	0.34
292.973	0.3
293.186	0.3
293.399	0.27
293.612	0.36
293.826	0.3
294.039	0.28
294.252	0.28
294.465	0.26
294.678	0.29
294.891	0.26
295.104	0.24
295.317	0.26
295.53	0.28
295.743	0.24
295.956	0.29
296.169	0.33
296.382	0.29
296.595	0.28
296.808	0.2
297.021	0.36
297.234	0.31
297.447	0.24
297.66	0.3
297.873	0.32
298.086	0.32
298.299	0.27
298.511	0.19
298.724	0.23
298.937	0.25
299.15	0.21
299.363	0.25
299.575	0.26
299.788	0.29
300.001	0.22
300.213	0.19
300.426	0.24
300.639	0.24
300.852	0.22
301.064	0.29
301.277	0.31
301.489	0.33
301.702	0.26
301.915	0.29
302.127	0.27
302.34	0.26
302.552	0.28
302.765	0.2
302.977	0.28
303.19	0.25
303.402	0.25
303.615	0.29
303.827	0.23
304.04	0.25
304.252	0.31
304.464	0.28
304.677	0.34
304.889	0.28
305.102	0.27
305.314	0.25
305.526	0.33
305.739	0.29
305.951	0.25
306.163	0.25
306.375	0.34
306.588	0.21
306.8	0.25
307.012	0.17
307.224	0.31
307.436	0.31
307.649	0.19
307.861	0.29
308.073	0.3
308.285	0.27
308.497	0.28
308.709	0.22
308.921	0.23
309.133	0.31
309.346	0.27
309.558	0.25
309.77	0.29
309.982	0.32
310.194	0.31
310.406	0.24
310.617	0.3
310.829	0.24
311.041	0.32
311.253	0.25
311.465	0.28
311.677	0.21
311.889	0.26
312.101	0.2
312.313	0.28
312.524	0.34
312.736	0.22
312.948	0.27
313.16	0.35
313.372	0.3
313.583	0.27
313.795	0.22
314.007	0.23
314.218	0.28
314.43	0.25
314.642	0.25
314.853	0.22
315.065	0.29
315.277	0.2
315.488	0.3
315.7	0.31
315.912	0.25
316.123	0.27
316.335	0.27
316.546	0.34
316.758	0.26
316.969	0.22
317.181	0.29
317.392	0.26
317.604	0.27
317.815	0.19
318.026	0.24
318.238	0.22
318.449	0.28
318.661	0.21
318.872	0.24
319.083	0.22
319.295	0.29
319.506	0.24
319.717	0.26
319.929	0.28
320.14	0.26
320.351	0.28
320.562	0.25
320.774	0.28
320.985	0.29
321.196	0.22
321.407	0.19
321.618	0.28
321.829	0.3
322.041	0.29
322.252	0.24
322.463	0.32
322.674	0.29
322.885	0.23
323.096	0.24
323.307	0.29
323.518	0.29
323.729	0.22
323.94	0.28
324.151	0.25
324.362	0.25
324.573	0.25
324.784	0.25
324.995	0.3
325.206	0.23
325.417	0.22
325.628	0.23
325.838	0.27
326.049	0.3
326.26	0.31
326.471	0.25
326.682	0.28
326.892	0.24
327.103	0.19
327.314	0.24
327.525	0.29
327.735	0.27
327.946	0.25
328.157	0.27
328.368	0.26
328.578	0.23
328.789	0.29
328.999	0.3
329.21	0.28
329.421	0.28
329.631	0.18
329.842	0.3
330.052	0.28
330.263	0.26
330.473	0.26
330.684	0.29
330.894	0.27
331.105	0.26
331.315	0.27
331.526	0.2
331.736	0.34
331.947	0.26
332.157	0.28
332.367	0.2
332.578	0.28
332.788	0.33
332.999	0.29
333.209	0.26
333.419	0.2
333.629	0.29
333.84	0.3
334.05	0.29
334.26	0.34
334.47	0.34
334.681	0.29
334.891	0.25
335.101	0.26
335.311	0.32
335.521	0.25
335.732	0.23
335.942	0.32
336.152	0.29
336.362	0.24
336.572	0.27
336.782	0.32
336.992	0.27
337.202	0.25
337.412	0.23
337.622	0.29
337.832	0.24
338.042	0.26
338.252	0.23
338.462	0.23
338.672	0.25
338.882	0.25
339.092	0.24
339.302	0.33
339.511	0.29
339.721	0.22
339.931	0.23
340.141	0.3
340.351	0.3
340.561	0.23
340.77	0.27
340.98	0.25
341.19	0.31
341.4	0.23
341.609	0.21
341.819	0.22
342.029	0.24
342.238	0.26
342.448	0.18
342.658	0.32
342.867	0.3
343.077	0.28
343.286	0.23
343.496	0.27
343.706	0.3
343.915	0.24
344.125	0.24
344.334	0.26
344.544	0.18
344.753	0.22
344.963	0.22
345.172	0.24
345.381	0.25
345.591	0.2
345.8	0.3
346.01	0.33
346.219	0.3
346.428	0.11
346.638	0.23
346.847	0.27
347.056	0.32
347.266	0.22
347.475	0.24
347.684	0.27
347.893	0.28
348.103	0.25
348.312	0.22
348.521	0.26
348.73	0.26
348.94	0.29
349.149	0.23
349.358	0.26
349.567	0.23
349.776	0.2
349.985	0.24
350.194	0.27
350.403	0.32
350.612	0.2
350.821	0.21
351.03	0.23
351.239	0.19
351.448	0.25
351.657	0.22
351.866	0.31
352.075	0.26
352.284	0.3
352.493	0.19
352.702	0.31
352.911	0.27
353.12	0.28
353.329	0.25
353.538	0.29
353.746	0.21
353.955	0.18
354.164	0.27
354.373	0.3
354.582	0.27
354.79	0.26
354.999	0.27
355.208	0.26
355.416	0.33
355.625	0.21
355.834	0.24
356.042	0.25
356.251	0.23
356.46	0.22
356.668	0.19
356.877	0.34
357.085	0.3
357.294	0.22
357.503	0.28
357.711	0.23
357.92	0.37
358.128	0.27
358.337	0.25
358.545	0.24
358.754	0.24
358.962	0.32
359.17	0.22
359.379	0.25
359.587	0.27
359.796	0.2
360.004	0.3
360.212	0.3
360.421	0.29
360.629	0.23
360.837	0.26
361.046	0.24
361.254	0.4
361.462	0.26
361.67	0.24
361.879	0.27
362.087	0.33
362.295	0.27
362.503	0.22
362.711	0.23
362.92	0.26
363.128	0.24
363.336	0.22
363.544	0.23
363.752	0.21
363.96	0.24
364.168	0.24
364.376	0.23
364.584	0.27
364.792	0.3
365	0.3
365.208	0.31
365.416	0.33
365.624	0.3
365.832	0.27
366.04	0.34
366.248	0.24
366.456	0.27
366.664	0.28
366.872	0.23
367.079	0.22
367.287	0.26
367.495	0.28
367.703	0.23
367.911	0.21
368.118	0.25
368.326	0.26
368.534	0.19
368.742	0.3
368.949	0.16
369.157	0.21
369.365	0.31
369.572	0.24
369.78	0.22
369.988	0.28
370.195	0.3
370.403	0.27
370.61	0.25
370.818	0.22
371.026	0.31
371.233	0.23
371.441	0.26
371.648	0.23
371.856	0.26
372.063	0.26
372.271	0.23
372.478	0.21
372.685	0.23
372.893	0.26
373.1	0.2
373.308	0.26
373.515	0.34
373.722	0.26
373.93	0.25
374.137	0.31
374.344	0.29
374.552	0.33
374.759	0.33
374.966	0.27
375.173	0.26
375.381	0.33
375.588	0.24
375.795	0.21
376.002	0.25
376.209	0.24
376.417	0.26
376.624	0.28
376.831	0.3
377.038	0.25
377.245	0.23
377.452	0.26
377.659	0.29
377.866	0.28
378.073	0.26
378.28	0.25
378.487	0.33
378.694	0.31
378.901	0.26
379.108	0.25
379.315	0.3
379.522	0.36
379.729	0.27
379.936	0.23
380.143	0.33
380.35	0.28
380.557	0.24
380.763	0.29
380.97	0.29
381.177	0.29
381.384	0.3
381.591	0.27
381.797	0.31
382.004	0.32
382.211	0.29
382.418	0.29
382.624	0.31
382.831	0.3
383.038	0.28
383.244	0.24
383.451	0.25
383.658	0.26
383.864	0.28
384.071	0.22
384.277	0.34
384.484	0.27
384.69	0.37
384.897	0.27
385.103	0.26
385.31	0.23
385.516	0.26
385.723	0.29
385.929	0.28
386.136	0.24
386.342	0.33
386.549	0.27
386.755	0.33
386.961	0.31
387.168	0.28
387.374	0.3
387.58	0.31
387.787	0.27
387.993	0.34
388.199	0.28
388.406	0.27
388.612	0.29
388.818	0.26
389.024	0.28
389.231	0.32
389.437	0.34
389.643	0.29
389.849	0.31
390.055	0.27
390.261	0.25
390.467	0.32
390.674	0.29
390.88	0.32
391.086	0.35
391.292	0.24
391.498	0.35
391.704	0.32
391.91	0.3
392.116	0.25
392.322	0.21
392.528	0.32
392.734	0.25
392.94	0.31
393.146	0.3
393.352	0.25
393.557	0.33
393.763	0.31
393.969	0.33
394.175	0.33
394.381	0.31
394.587	0.29
394.792	0.32
394.998	0.33
395.204	0.34
395.41	0.31
395.615	0.33
395.821	0.32
396.027	0.37
396.233	0.33
396.438	0.37
396.644	0.42
396.85	0.35
397.055	0.3
397.261	0.36
397.466	0.43
397.672	0.33
397.878	0.36
398.083	0.32
398.289	0.32
398.494	0.39
398.7	0.4
398.905	0.29
399.111	0.44
399.316	0.27
399.522	0.38
399.727	0.35
399.932	0.34
400.138	0.34
400.343	0.41
400.549	0.34
400.754	0.34
400.959	0.34
401.165	0.37
401.37	0.34
401.575	0.43
401.78	0.37
401.986	0.33
402.191	0.39
402.396	0.38
402.601	0.41
402.807	0.45
403.012	0.43
403.217	0.45
403.422	0.37
403.627	0.41
403.832	0.4
404.037	0.46
404.243	0.41
404.448	0.37
404.653	0.38
404.858	0.45
405.063	0.46
405.268	0.42
405.473	0.38
405.678	0.44
405.883	0.62
406.088	0.53
406.293	0.45
406.498	0.51
406.703	0.53
406.907	0.49
407.112	0.46
407.317	0.5
407.522	0.6
407.727	0.48
407.932	0.54
408.136	0.64
408.341	0.54
408.546	0.58
408.751	0.58
408.956	0.55
409.16	0.58
409.365	0.59
409.57	0.6
409.774	0.62
409.979	0.69
410.184	0.72
410.388	0.66
410.593	0.74
410.798	0.69
411.002	0.71
411.207	0.81
411.411	0.78
411.616	0.82
411.82	0.84
412.025	0.9
412.229	0.83
412.434	0.91
412.638	0.95
412.843	0.91
413.047	0.98
413.252	0.93
413.456	1.04
413.66	1.03
413.865	1.06
414.069	1.15
414.273	1.11
414.478	1.15
414.682	1.19
414.886	1.16
415.091	1.17
415.295	1.27
415.499	1.32
415.703	1.35
415.908	1.44
416.112	1.38
416.316	1.55
416.52	1.5
416.724	1.57
416.929	1.62
417.133	1.83
417.337	1.75
417.541	1.77
417.745	1.82
417.949	1.92
418.153	2.01
418.357	2.04
418.561	2.13
418.765	2.19
418.969	2.27
419.173	2.39
419.377	2.42
419.581	2.57
419.785	2.56
419.989	2.56
420.193	2.75
420.397	2.79
420.601	3.02
420.804	2.98
421.008	3
421.212	3.18
421.416	3.19
421.62	3.21
421.823	3.31
422.027	3.48
422.231	3.47
422.435	3.46
422.638	3.61
422.842	3.64
423.046	3.7
423.249	3.82
423.453	3.91
423.657	4.13
423.86	4.14
424.064	4.22
424.268	4.41
424.471	4.38
424.675	4.64
424.878	4.65
425.082	4.81
425.285	5.15
425.489	5.1
425.692	5.06
425.896	5.15
426.099	5.39
426.303	5.42
426.506	5.78
426.71	5.92
426.913	6.1
427.116	6.25
427.32	6.26
427.523	6.34
427.726	6.59
427.93	6.73
428.133	7.08
428.336	7.17
428.54	7.31
428.743	7.55
428.946	7.81
429.149	7.9
429.353	7.79
429.556	7.91
429.759	7.89
429.962	8.15
430.165	8.27
430.368	7.92
430.571	7.99
430.775	8.11
430.978	8.11
431.181	8.04
431.384	8.13
431.587	8.21
431.79	8.57
431.993	8.65
432.196	8.88
432.399	9.22
432.602	9.31
432.805	9.34
433.008	10.03
433.211	9.84
433.414	10.13
433.616	10.12
433.819	10.2
434.022	10.36
434.225	10.5
434.428	10.57
434.631	11.09
434.833	10.7
435.036	11.02
435.239	11.19
435.442	11.32
435.645	11.39
435.847	11.54
436.05	11.75
436.253	11.96
436.455	12.01
436.658	11.93
436.861	12.21
437.063	12.35
437.266	12.33
437.468	12.77
437.671	12.93
437.874	13.05
438.076	12.85
438.279	13.31
438.481	13.3
438.684	14.16
438.886	13.66
439.089	14.14
439.291	14.04
439.494	14.41
439.696	14.64
439.899	15.21
440.101	15.51
440.303	15.75
440.506	16.39
440.708	16.11
440.91	16.42
441.113	16.54
441.315	16.91
441.517	16.7
441.72	17.15
441.922	16.88
442.124	16.69
442.326	17.18
442.529	17.3
442.731	17.44
442.933	17.61
443.135	17.37
443.337	17.29
443.539	17.95
443.742	17.44
443.944	18.26
444.146	18.08
444.348	18.05
444.55	18.07
444.752	18.16
444.954	18.24
445.156	18.01
445.358	18.42
445.56	18.65
445.762	18.53
445.964	18.82
446.166	18.54
446.368	18.69
446.57	18.59
446.772	18.14
446.974	18.01
447.175	18.33
447.377	17.95
447.579	18.43
447.781	18.09
447.983	17.7
448.184	17.55
448.386	17.8
448.588	17.36
448.79	17.18
448.991	17.62
449.193	17.61
449.395	17.02
449.597	16.51
449.798	16.49
450	16.02
450.202	16.01
450.403	16.02
450.605	15.89
450.806	15.53
451.008	15.23
451.21	15.11
451.411	14.63
451.613	14.01
451.814	14.29
452.016	14.22
452.217	13.41
452.419	13.45
452.62	13.17
452.821	12.95
453.023	12.74
453.224	12.41
453.426	12.05
453.627	11.35
453.828	11.33
454.03	11.4
454.231	11.39
454.432	11.34
454.634	10.95
454.835	10.71
455.036	10.62
455.238	10.14
455.439	9.97
455.64	9.62
455.841	9.36
456.042	9.59
456.244	9.3
456.445	9.06
456.646	8.76
456.847	8.69
457.048	8.44
457.249	8.61
457.45	8.23
457.651	7.82
457.852	7.73
458.054	7.34
458.255	7.31
458.456	7.43
458.657	7.18
458.858	6.82
459.058	6.76
459.259	6.85
459.46	6.52
459.661	6.56
459.862	6.53
460.063	6.39
460.264	6.36
460.465	6.08
460.666	6.14
460.866	5.8
461.067	5.59
461.268	5.61
461.469	5.55
461.67	5.45
461.87	5.26
462.071	5.29
462.272	5.24
462.473	5.16
462.673	5.4
462.874	5.25
463.075	5.16
463.275	5.18
463.476	5.17
463.676	5.11
463.877	5.06
464.078	4.95
464.278	5.01
464.479	4.84
464.679	4.84
464.88	4.81
465.08	4.67
465.281	4.56
465.481	4.32
465.682	4.11
465.882	4.23
466.083	4.11
466.283	4.08
466.483	4
466.684	3.77
466.884	3.74
467.085	3.76
467.285	3.77
467.485	3.66
467.686	3.56
467.886	3.47
468.086	3.43
468.286	3.38
468.487	3.49
468.687	3.34
468.887	3.31
469.087	3.45
469.287	3.29
469.488	3.1
469.688	3.18
469.888	3.23
470.088	3.19
470.288	3.16
470.488	3.02
470.688	2.84
470.888	2.81
471.088	2.79
471.288	2.84
471.488	2.75
471.688	2.79
471.888	2.68
472.088	2.8
472.288	2.77
472.488	2.59
472.688	2.56
472.888	2.59
473.088	2.62
473.288	2.52
473.488	2.54
473.688	2.56
473.887	2.49
474.087	2.48
474.287	2.48
474.487	2.37
474.687	2.46
474.886	2.36
475.086	2.32
475.286	2.34
475.486	2.31
475.685	2.26
475.885	2.32
476.085	2.31
476.284	2.29
476.484	2.28
476.684	2.25
476.883	2.31
477.083	2.19
477.282	2.17
477.482	2.23
477.681	2.15
477.881	2.1
478.08	2.14
478.28	2.08
478.479	2.12
478.679	2.12
478.878	2.04
479.078	2.1
479.277	2.12
479.477	2.08
479.676	2.02
479.875	2.01
480.075	2.04
480.274	2.01
480.473	2.1
480.673	2.01
480.872	2.09
481.071	2.03
481.271	2.08
481.47	1.99
481.669	2.04
481.868	1.99
482.067	2.02
482.267	1.96
482.466	1.95
482.665	1.92
482.864	1.95
483.063	1.99
483.262	2
483.461	2.01
483.661	2.03
483.86	2
484.059	2.05
484.258	2.03
484.457	2.01
484.656	2.03
484.855	2.07
485.054	1.95
485.253	1.99
485.452	1.97
485.651	2.02
485.849	2.01
486.048	2
486.247	2.02
486.446	2.07
486.645	2.02
486.844	2.03
487.043	2.07
487.241	2.1
487.44	2.08
487.639	2.13
487.838	2.12
488.037	2.16
488.235	2.19
488.434	2.21
488.633	2.05
488.831	2.25
489.03	2.25
489.229	2.21
489.427	2.19
489.626	2.26
489.825	2.29
490.023	2.32
490.222	2.27
490.42	2.32
490.619	2.34
490.817	2.38
491.016	2.33
491.214	2.38
491.413	2.42
491.611	2.39
491.81	2.38
492.008	2.43
492.207	2.51
492.405	2.53
492.604	2.44
492.802	2.53
493	2.58
493.199	2.63
493.397	2.66
493.595	2.66
493.794	2.68
493.992	2.76
494.19	2.72
494.388	2.86
494.587	2.73
494.785	2.75
494.983	2.72
495.181	2.85
495.379	2.88
495.578	2.98
495.776	2.96
495.974	2.92
496.172	2.9
496.37	3.08
496.568	3.1
496.766	3.05
496.964	3.16
497.162	3.16
497.36	3.2
497.558	3.23
497.756	3.32
497.954	3.28
498.152	3.39
498.35	3.45
498.548	3.35
498.746	3.36
498.944	3.42
499.142	3.43
499.34	3.52
499.538	3.63
499.736	3.48
499.933	3.62
500.131	3.61
500.329	3.79
500.527	3.74
500.725	3.84
500.922	3.84
501.12	3.9
501.318	3.95
501.516	3.9
501.713	3.99
501.911	3.99
502.109	3.98
502.306	4.09
502.504	4.01
