Data from Apollo_Calib_20240827__AbsoluteIrradiance__795__12-24-01-351.txt Node

Date: Wed Aug 28 12:24:01 BST 2024
User: biology
Spectrometer: FLMT08252
Trigger mode: 0
Integration Time (sec): 5.000000E-1
Scans to average: 5
Electric dark correction enabled: true
Nonlinearity correction enabled: false
Boxcar width: 0
XAxis mode: Wavelengths
Number of Pixels in Spectrum: 3648
>>>>>Begin Spectral Data<<<<<
179.588	-0
179.809	-0
180.03	-0
180.251	-0
180.473	-0
180.694	0
180.915	0
181.136	-0
181.357	0
181.578	-0
181.799	-0
182.02	-0
182.241	0
182.462	0
182.683	0
182.904	-0
183.125	-0
183.346	0
183.567	0
183.788	0
184.009	0
184.23	0
184.451	0
184.672	0
184.892	0
185.113	0
185.334	0
185.555	0
185.776	0
185.996	0
186.217	0
186.438	0
186.659	0
186.879	0
187.1	0
187.321	0
187.541	0
187.762	0
187.983	0
188.203	0
188.424	0
188.644	0
188.865	0
189.086	0
189.306	0
189.527	0
189.747	0
189.968	0
190.188	0
190.409	0
190.629	0
190.849	0
191.07	0
191.29	0
191.511	0
191.731	0
191.951	0
192.172	0
192.392	0
192.612	0
192.833	0
193.053	0
193.273	0
193.493	0
193.714	0
193.934	0
194.154	0
194.374	0
194.594	0
194.815	0
195.035	0
195.255	0
195.475	0
195.695	0
195.915	0
196.135	0
196.355	0
196.575	0
196.795	0
197.015	0
197.235	0
197.455	0
197.675	0
197.895	0
198.115	0
198.335	0
198.555	0
198.775	0
198.995	0
199.214	0
199.434	0
199.654	0
199.874	0
200.094	3.59
200.313	2.16
200.533	1.47
200.753	0.85
200.973	3.81
201.192	2.77
201.412	1.64
201.632	1.58
201.851	3.49
202.071	1.69
202.291	1.65
202.51	0.86
202.73	2.53
202.95	2.12
203.169	1.19
203.389	1.72
203.608	1.99
203.828	1.72
204.047	1.8
204.267	2.22
204.486	2.05
204.706	2.13
204.925	1.38
205.145	1.17
205.364	2.34
205.583	2.47
205.803	1.21
206.022	0.71
206.242	1.52
206.461	1.39
206.68	1.61
206.9	1.59
207.119	2.31
207.338	2.09
207.557	1.23
207.777	0.94
207.996	1.47
208.215	2.32
208.434	0.87
208.654	0.85
208.873	1.31
209.092	2.12
209.311	1.03
209.53	0.98
209.749	1.1
209.968	0.91
210.187	0.91
210.407	0.73
210.626	1.19
210.845	1.44
211.064	0.99
211.283	0.72
211.502	1.67
211.721	1.17
211.94	0.72
212.159	1.52
212.377	1.25
212.596	1.31
212.815	0.93
213.034	0.95
213.253	1.53
213.472	1.39
213.691	0.93
213.91	0.74
214.128	0.69
214.347	1.21
214.566	0.59
214.785	0.41
215.003	1.19
215.222	1.11
215.441	0.85
215.66	0.53
215.878	0.89
216.097	1.33
216.316	0.62
216.534	0.84
216.753	0.88
216.972	0.62
217.19	0.83
217.409	0.63
217.627	0.76
217.846	0.64
218.064	0.87
218.283	0.57
218.501	1.3
218.72	1.01
218.938	0.57
219.157	0.68
219.375	1.21
219.594	1
219.812	0.31
220.031	0.51
220.249	1.14
220.467	1.16
220.686	0.55
220.904	0.43
221.122	0.7
221.341	1.15
221.559	0.64
221.777	0.5
221.995	0.76
222.214	0.93
222.432	0.53
222.65	1.01
222.868	0.79
223.086	0.78
223.305	0.94
223.523	0.55
223.741	1.13
223.959	0.56
224.177	0.38
224.395	0.61
224.613	0.82
224.831	0.9
225.049	0.45
225.267	0.58
225.485	0.78
225.703	0.68
225.921	0.51
226.139	0.44
226.357	0.79
226.575	0.73
226.793	0.49
227.011	1.54
227.229	0.64
227.447	0.89
227.665	0.43
227.883	0.39
228.1	0.56
228.318	0.55
228.536	0.23
228.754	0.39
228.972	0.77
229.189	0.68
229.407	0.51
229.625	0.52
229.843	0.82
230.06	0.72
230.278	0.49
230.496	0.58
230.713	0.65
230.931	0.71
231.149	0.45
231.366	0.3
231.584	0.7
231.801	1.01
232.019	0.42
232.236	0.4
232.454	0.41
232.671	0.7
232.889	0.52
233.106	0.36
233.324	0.46
233.541	0.47
233.759	0.44
233.976	0.34
234.194	0.5
234.411	0.52
234.628	0.2
234.846	0.43
235.063	0.52
235.28	0.57
235.498	0.49
235.715	0.35
235.932	0.71
236.149	0.62
236.367	0.38
236.584	0.46
236.801	0.39
237.018	0.59
237.236	0.53
237.453	0.23
237.67	0.68
237.887	0.42
238.104	0.46
238.321	0.36
238.538	0.38
238.755	0.67
238.973	0.28
239.19	0.43
239.407	0.54
239.624	0.54
239.841	0.36
240.058	0.3
240.275	0.42
240.492	0.42
240.709	0.32
240.925	0.41
241.142	0.46
241.359	0.31
241.576	0.31
241.793	0.34
242.01	0.52
242.227	0.65
242.444	0.49
242.66	0.52
242.877	0.4
243.094	0.4
243.311	0.48
243.527	0.45
243.744	0.58
243.961	0.62
244.178	0.32
244.394	0.39
244.611	0.62
244.828	0.54
245.044	0.22
245.261	0.42
245.477	0.41
245.694	0.58
245.911	0.28
246.127	0.45
246.344	0.64
246.56	0.54
246.777	0.35
246.993	0.41
247.21	0.45
247.426	0.65
247.643	0.33
247.859	0.28
248.076	0.36
248.292	0.69
248.508	0.24
248.725	0.36
248.941	0.49
249.157	0.59
249.374	0.42
249.59	0.34
249.806	0.39
250.023	0.52
250.239	0.31
250.455	0.34
250.671	0.44
250.888	0.48
251.104	0.46
251.32	0.36
251.536	0.35
251.752	0.36
251.969	0.42
252.185	0.41
252.401	0.62
252.617	0.44
252.833	0.36
253.049	0.33
253.265	0.4
253.481	0.4
253.697	0.31
253.913	0.29
254.129	0.42
254.345	0.44
254.561	0.41
254.777	0.34
254.993	0.45
255.209	0.39
255.425	0.3
255.641	0.28
255.857	0.52
256.073	0.38
256.288	0.26
256.504	0.36
256.72	0.39
256.936	0.52
257.152	0.32
257.367	0.3
257.583	0.35
257.799	0.52
258.015	0.31
258.23	0.26
258.446	0.57
258.662	0.34
258.877	0.33
259.093	0.28
259.309	0.4
259.524	0.42
259.74	0.3
259.955	0.27
260.171	0.36
260.387	0.35
260.602	0.41
260.818	0.35
261.033	0.24
261.249	0.35
261.464	0.28
261.68	0.17
261.895	0.4
262.11	0.38
262.326	0.32
262.541	0.23
262.757	0.47
262.972	0.45
263.187	0.39
263.403	0.32
263.618	0.48
263.833	0.39
264.049	0.26
264.264	0.28
264.479	0.37
264.694	0.45
264.91	0.26
265.125	0.3
265.34	0.44
265.555	0.51
265.77	0.37
265.986	0.27
266.201	0.37
266.416	0.47
266.631	0.25
266.846	0.27
267.061	0.43
267.276	0.4
267.491	0.21
267.706	0.4
267.921	0.38
268.136	0.32
268.351	0.31
268.566	0.19
268.781	0.48
268.996	0.39
269.211	0.34
269.426	0.27
269.641	0.32
269.856	0.45
270.071	0.23
270.285	0.18
270.5	0.42
270.715	0.44
270.93	0.3
271.145	0.38
271.359	0.43
271.574	0.34
271.789	0.34
272.004	0.24
272.218	0.3
272.433	0.38
272.648	0.22
272.862	0.38
273.077	0.37
273.292	0.36
273.506	0.21
273.721	0.35
273.936	0.34
274.15	0.42
274.365	0.21
274.579	0.35
274.794	0.37
275.008	0.41
275.223	0.2
275.437	0.35
275.652	0.38
275.866	0.34
276.081	0.32
276.295	0.45
276.509	0.34
276.724	0.34
276.938	0.33
277.153	0.31
277.367	0.38
277.581	0.28
277.796	0.29
278.01	0.26
278.224	0.39
278.438	0.42
278.653	0.3
278.867	0.28
279.081	0.37
279.295	0.28
279.51	0.32
279.724	0.19
279.938	0.35
280.152	0.37
280.366	0.27
280.58	0.26
280.794	0.48
281.008	0.34
281.222	0.37
281.437	0.41
281.651	0.32
281.865	0.36
282.079	0.25
282.293	0.13
282.507	0.26
282.721	0.27
282.935	0.26
283.148	0.21
283.362	0.25
283.576	0.25
283.79	0.26
284.004	0.25
284.218	0.44
284.432	0.26
284.646	0.31
284.859	0.21
285.073	0.22
285.287	0.3
285.501	0.24
285.714	0.28
285.928	0.3
286.142	0.35
286.356	0.26
286.569	0.23
286.783	0.42
286.997	0.36
287.21	0.33
287.424	0.26
287.637	0.25
287.851	0.24
288.065	0.36
288.278	0.23
288.492	0.28
288.705	0.24
288.919	0.27
289.132	0.13
289.346	0.33
289.559	0.19
289.773	0.18
289.986	0.22
290.2	0.25
290.413	0.35
290.626	0.22
290.84	0.21
291.053	0.31
291.267	0.36
291.48	0.25
291.693	0.19
291.906	0.26
292.12	0.26
292.333	0.24
292.546	0.25
292.76	0.39
292.973	0.29
293.186	0.29
293.399	0.23
293.612	0.36
293.826	0.25
294.039	0.25
294.252	0.24
294.465	0.32
294.678	0.28
294.891	0.29
295.104	0.18
295.317	0.24
295.53	0.3
295.743	0.26
295.956	0.2
296.169	0.36
296.382	0.34
296.595	0.2
296.808	0.22
297.021	0.37
297.234	0.32
297.447	0.23
297.66	0.3
297.873	0.28
298.086	0.31
298.299	0.18
298.511	0.17
298.724	0.25
298.937	0.18
299.15	0.22
299.363	0.27
299.575	0.34
299.788	0.29
300.001	0.2
300.213	0.19
300.426	0.27
300.639	0.2
300.852	0.21
301.064	0.27
301.277	0.33
301.489	0.29
301.702	0.32
301.915	0.26
302.127	0.25
302.34	0.24
302.552	0.26
302.765	0.18
302.977	0.28
303.19	0.19
303.402	0.25
303.615	0.24
303.827	0.29
304.04	0.23
304.252	0.27
304.464	0.21
304.677	0.38
304.889	0.33
305.102	0.22
305.314	0.2
305.526	0.29
305.739	0.27
305.951	0.21
306.163	0.21
306.375	0.34
306.588	0.23
306.8	0.22
307.012	0.19
307.224	0.27
307.436	0.32
307.649	0.17
307.861	0.26
308.073	0.32
308.285	0.23
308.497	0.16
308.709	0.18
308.921	0.28
309.133	0.33
309.346	0.21
309.558	0.19
309.77	0.28
309.982	0.33
310.194	0.29
310.406	0.2
310.617	0.34
310.829	0.22
311.041	0.31
311.253	0.19
311.465	0.23
311.677	0.24
311.889	0.19
312.101	0.21
312.313	0.31
312.524	0.29
312.736	0.18
312.948	0.17
313.16	0.35
313.372	0.35
313.583	0.28
313.795	0.2
314.007	0.22
314.218	0.31
314.43	0.23
314.642	0.21
314.853	0.17
315.065	0.29
315.277	0.2
315.488	0.25
315.7	0.34
315.912	0.25
316.123	0.22
316.335	0.22
316.546	0.34
316.758	0.21
316.969	0.24
317.181	0.27
317.392	0.26
317.604	0.3
317.815	0.19
318.026	0.21
318.238	0.23
318.449	0.3
318.661	0.18
318.872	0.21
319.083	0.21
319.295	0.29
319.506	0.2
319.717	0.21
319.929	0.3
320.14	0.24
320.351	0.21
320.562	0.19
320.774	0.27
320.985	0.23
321.196	0.19
321.407	0.16
321.618	0.33
321.829	0.28
322.041	0.23
322.252	0.21
322.463	0.26
322.674	0.3
322.885	0.16
323.096	0.25
323.307	0.25
323.518	0.26
323.729	0.23
323.94	0.2
324.151	0.25
324.362	0.28
324.573	0.25
324.784	0.24
324.995	0.33
325.206	0.26
325.417	0.2
325.628	0.18
325.838	0.25
326.049	0.29
326.26	0.27
326.471	0.25
326.682	0.28
326.892	0.28
327.103	0.17
327.314	0.18
327.525	0.32
327.735	0.3
327.946	0.15
328.157	0.21
328.368	0.27
328.578	0.26
328.789	0.28
328.999	0.23
329.21	0.2
329.421	0.28
329.631	0.22
329.842	0.15
330.052	0.27
330.263	0.3
330.473	0.28
330.684	0.19
330.894	0.24
331.105	0.23
331.315	0.23
331.526	0.16
331.736	0.35
331.947	0.27
332.157	0.27
332.367	0.17
332.578	0.3
332.788	0.28
332.999	0.27
333.209	0.2
333.419	0.2
333.629	0.29
333.84	0.29
334.05	0.2
334.26	0.32
334.47	0.24
334.681	0.28
334.891	0.19
335.101	0.27
335.311	0.35
335.521	0.23
335.732	0.16
335.942	0.29
336.152	0.27
336.362	0.3
336.572	0.28
336.782	0.25
336.992	0.26
337.202	0.24
337.412	0.22
337.622	0.25
337.832	0.29
338.042	0.25
338.252	0.19
338.462	0.23
338.672	0.26
338.882	0.2
339.092	0.22
339.302	0.34
339.511	0.27
339.721	0.21
339.931	0.16
340.141	0.36
340.351	0.33
340.561	0.24
340.77	0.27
340.98	0.29
341.19	0.29
341.4	0.26
341.609	0.17
341.819	0.22
342.029	0.19
342.238	0.26
342.448	0.2
342.658	0.29
342.867	0.24
343.077	0.2
343.286	0.25
343.496	0.28
343.706	0.37
343.915	0.16
344.125	0.2
344.334	0.27
344.544	0.18
344.753	0.18
344.963	0.21
345.172	0.23
345.381	0.24
345.591	0.19
345.8	0.2
346.01	0.3
346.219	0.28
346.428	0.13
346.638	0.21
346.847	0.24
347.056	0.29
347.266	0.18
347.475	0.18
347.684	0.28
347.893	0.3
348.103	0.25
348.312	0.19
348.521	0.24
348.73	0.26
348.94	0.26
349.149	0.22
349.358	0.24
349.567	0.23
349.776	0.13
349.985	0.17
350.194	0.31
350.403	0.29
350.612	0.2
350.821	0.2
351.03	0.26
351.239	0.17
351.448	0.23
351.657	0.21
351.866	0.3
352.075	0.25
352.284	0.2
352.493	0.17
352.702	0.29
352.911	0.24
353.12	0.26
353.329	0.19
353.538	0.27
353.746	0.21
353.955	0.17
354.164	0.27
354.373	0.22
354.582	0.33
354.79	0.2
354.999	0.28
355.208	0.23
355.416	0.32
355.625	0.15
355.834	0.23
356.042	0.3
356.251	0.21
356.46	0.2
356.668	0.28
356.877	0.36
357.085	0.27
357.294	0.16
357.503	0.26
357.711	0.26
357.92	0.46
358.128	0.24
358.337	0.24
358.545	0.25
358.754	0.19
358.962	0.34
359.17	0.24
359.379	0.24
359.587	0.23
359.796	0.24
360.004	0.25
360.212	0.31
360.421	0.31
360.629	0.23
360.837	0.21
361.046	0.3
361.254	0.37
361.462	0.24
361.67	0.18
361.879	0.25
362.087	0.28
362.295	0.27
362.503	0.19
362.711	0.19
362.92	0.23
363.128	0.21
363.336	0.18
363.544	0.2
363.752	0.26
363.96	0.22
364.168	0.19
364.376	0.24
364.584	0.31
364.792	0.29
365	0.29
365.208	0.27
365.416	0.27
365.624	0.31
365.832	0.2
366.04	0.3
366.248	0.25
366.456	0.24
366.664	0.28
366.872	0.25
367.079	0.29
367.287	0.24
367.495	0.25
367.703	0.23
367.911	0.22
368.118	0.25
368.326	0.23
368.534	0.18
368.742	0.31
368.949	0.19
369.157	0.2
369.365	0.28
369.572	0.25
369.78	0.16
369.988	0.29
370.195	0.26
370.403	0.26
370.61	0.24
370.818	0.23
371.026	0.35
371.233	0.22
371.441	0.22
371.648	0.22
371.856	0.24
372.063	0.28
372.271	0.22
372.478	0.19
372.685	0.21
372.893	0.28
373.1	0.23
373.308	0.19
373.515	0.39
373.722	0.3
373.93	0.23
374.137	0.26
374.344	0.33
374.552	0.29
374.759	0.27
374.966	0.27
375.173	0.24
375.381	0.33
375.588	0.22
375.795	0.16
376.002	0.25
376.209	0.23
376.417	0.27
376.624	0.24
376.831	0.33
377.038	0.19
377.245	0.11
377.452	0.18
377.659	0.27
377.866	0.23
378.073	0.23
378.28	0.28
378.487	0.31
378.694	0.29
378.901	0.24
379.108	0.24
379.315	0.31
379.522	0.41
379.729	0.25
379.936	0.27
380.143	0.29
380.35	0.23
380.557	0.23
380.763	0.25
380.97	0.24
381.177	0.25
381.384	0.25
381.591	0.22
381.797	0.26
382.004	0.33
382.211	0.29
382.418	0.23
382.624	0.28
382.831	0.31
383.038	0.25
383.244	0.27
383.451	0.26
383.658	0.32
383.864	0.23
384.071	0.19
384.277	0.34
384.484	0.27
384.69	0.37
384.897	0.3
385.103	0.25
385.31	0.26
385.516	0.24
385.723	0.2
385.929	0.26
386.136	0.22
386.342	0.32
386.549	0.21
386.755	0.3
386.961	0.34
387.168	0.27
387.374	0.25
387.58	0.35
387.787	0.34
387.993	0.27
388.199	0.26
388.406	0.22
388.612	0.26
388.818	0.25
389.024	0.25
389.231	0.28
389.437	0.38
389.643	0.35
389.849	0.26
390.055	0.32
390.261	0.24
390.467	0.35
390.674	0.23
390.88	0.25
391.086	0.31
391.292	0.22
391.498	0.31
391.704	0.34
391.91	0.27
392.116	0.26
392.322	0.19
392.528	0.27
392.734	0.28
392.94	0.28
393.146	0.28
393.352	0.28
393.557	0.26
393.763	0.29
393.969	0.37
394.175	0.29
394.381	0.31
394.587	0.23
394.792	0.26
394.998	0.37
395.204	0.3
395.41	0.28
395.615	0.33
395.821	0.36
396.027	0.34
396.233	0.28
396.438	0.33
396.644	0.37
396.85	0.3
397.055	0.3
397.261	0.33
397.466	0.32
397.672	0.32
397.878	0.38
398.083	0.34
398.289	0.26
398.494	0.38
398.7	0.35
398.905	0.24
399.111	0.46
399.316	0.27
399.522	0.31
399.727	0.35
399.932	0.33
400.138	0.3
400.343	0.34
400.549	0.32
400.754	0.35
400.959	0.37
401.165	0.31
401.37	0.33
401.575	0.48
401.78	0.36
401.986	0.33
402.191	0.34
402.396	0.39
402.601	0.45
402.807	0.41
403.012	0.37
403.217	0.46
403.422	0.42
403.627	0.43
403.832	0.37
404.037	0.48
404.243	0.44
404.448	0.33
404.653	0.44
404.858	0.4
405.063	0.48
405.268	0.39
405.473	0.35
405.678	0.39
405.883	0.61
406.088	0.51
406.293	0.35
406.498	0.39
406.703	0.52
406.907	0.48
407.112	0.42
407.317	0.51
407.522	0.57
407.727	0.48
407.932	0.49
408.136	0.69
408.341	0.53
408.546	0.52
408.751	0.55
408.956	0.56
409.16	0.67
409.365	0.58
409.57	0.6
409.774	0.59
409.979	0.65
410.184	0.64
410.388	0.61
410.593	0.74
410.798	0.71
411.002	0.73
411.207	0.72
411.411	0.75
411.616	0.69
411.82	0.77
412.025	0.8
412.229	0.79
412.434	0.93
412.638	0.8
412.843	0.82
413.047	0.94
413.252	0.91
413.456	0.94
413.66	0.98
413.865	0.93
414.069	1.13
414.273	1.06
414.478	1.06
414.682	1.1
414.886	1.17
415.091	1.12
415.295	1.13
415.499	1.32
415.703	1.3
415.908	1.31
416.112	1.23
416.316	1.45
416.52	1.42
416.724	1.42
416.929	1.48
417.133	1.72
417.337	1.54
417.541	1.68
417.745	1.72
417.949	1.86
418.153	1.86
418.357	1.89
418.561	2.1
418.765	2.08
418.969	2.2
419.173	2.23
419.377	2.22
419.581	2.42
419.785	2.43
419.989	2.42
420.193	2.59
420.397	2.64
420.601	2.81
420.804	2.87
421.008	2.84
421.212	3.01
421.416	3
421.62	2.94
421.823	3.03
422.027	3.23
422.231	3.17
422.435	3.13
422.638	3.33
422.842	3.36
423.046	3.49
423.249	3.63
423.453	3.67
423.657	3.76
423.86	3.81
424.064	3.96
424.268	4.16
424.471	4.11
424.675	4.34
424.878	4.34
425.082	4.44
425.285	4.72
425.489	4.66
425.692	4.72
425.896	4.83
426.099	4.99
426.303	5.09
426.506	5.24
426.71	5.53
426.913	5.66
427.116	5.86
427.32	5.84
427.523	6
427.726	6.28
427.93	6.38
428.133	6.62
428.336	6.79
428.54	6.83
428.743	7.15
428.946	7.38
429.149	7.4
429.353	7.37
429.556	7.49
429.759	7.54
429.962	7.67
430.165	7.81
430.368	7.54
430.571	7.54
430.775	7.63
430.978	7.54
431.181	7.7
431.384	7.66
431.587	7.81
431.79	8.2
431.993	8.23
432.196	8.47
432.399	8.87
432.602	8.93
432.805	9.09
433.008	9.56
433.211	9.42
433.414	9.83
433.616	9.83
433.819	9.79
434.022	9.9
434.225	10.12
434.428	10.17
434.631	10.65
434.833	10.36
435.036	10.65
435.239	10.83
435.442	10.81
435.645	11
435.847	11.04
436.05	11.42
436.253	11.58
436.455	11.69
436.658	11.52
436.861	11.93
437.063	11.95
437.266	11.81
437.468	12.39
437.671	12.58
437.874	12.54
438.076	12.5
438.279	12.93
438.481	13.02
438.684	13.61
438.886	13.18
439.089	13.56
439.291	13.57
439.494	13.92
439.696	14.07
439.899	14.64
440.101	15.03
440.303	15.12
440.506	15.9
440.708	15.62
440.91	15.75
441.113	16.09
441.315	16.25
441.517	16.11
441.72	16.59
441.922	16.37
442.124	16.13
442.326	16.55
442.529	16.86
442.731	16.78
442.933	16.95
443.135	16.97
443.337	16.87
443.539	17.39
443.742	17.02
443.944	17.75
444.146	17.49
444.348	17.38
444.55	17.41
444.752	17.59
444.954	17.71
445.156	17.65
445.358	17.94
445.56	18.23
445.762	18.05
445.964	18.43
446.166	18.03
446.368	18.22
446.57	18.07
446.772	17.76
446.974	17.56
447.175	17.99
447.377	17.69
447.579	18.2
447.781	17.7
447.983	17.56
448.184	17.06
448.386	17.56
448.588	17.09
448.79	17.1
448.991	17.57
449.193	17.52
449.395	16.89
449.597	16.44
449.798	16.45
450	15.99
450.202	15.94
450.403	16.05
450.605	15.9
450.806	15.52
451.008	15.44
451.21	15.2
451.411	14.8
451.613	14.19
451.814	14.31
452.016	14.27
452.217	13.62
452.419	13.65
452.62	13.41
452.821	13.1
453.023	12.98
453.224	12.68
453.426	12.26
453.627	11.54
453.828	11.63
454.03	11.61
454.231	11.73
454.432	11.52
454.634	11.3
454.835	10.95
455.036	10.84
455.238	10.45
455.439	10.18
455.64	10.01
455.841	9.82
456.042	10.02
456.244	9.66
456.445	9.4
456.646	9.01
456.847	9.01
457.048	8.88
457.249	8.87
457.45	8.74
457.651	8.06
457.852	7.99
458.054	7.6
458.255	7.49
458.456	7.69
458.657	7.61
458.858	6.95
459.058	7.04
459.259	7.12
459.46	6.8
459.661	6.76
459.862	6.78
460.063	6.65
460.264	6.6
460.465	6.28
460.666	6.39
460.866	6.09
461.067	5.68
461.268	5.85
461.469	5.71
461.67	5.61
461.87	5.39
462.071	5.47
462.272	5.44
462.473	5.33
462.673	5.48
462.874	5.36
463.075	5.33
463.275	5.31
463.476	5.42
463.676	5.28
463.877	5.15
464.078	5.17
464.278	5.21
464.479	5.07
464.679	5.03
464.88	4.93
465.08	4.92
465.281	4.68
465.481	4.52
465.682	4.35
465.882	4.37
466.083	4.24
466.283	4.23
466.483	4.1
466.684	3.89
466.884	3.86
467.085	3.84
467.285	3.89
467.485	3.77
467.686	3.73
467.886	3.62
468.086	3.57
468.286	3.51
468.487	3.6
468.687	3.45
468.887	3.4
469.087	3.56
469.287	3.45
469.488	3.24
469.688	3.38
469.888	3.43
470.088	3.26
470.288	3.21
470.488	3.23
470.688	3
470.888	3.09
471.088	2.79
471.288	2.97
471.488	2.96
471.688	2.83
471.888	2.8
472.088	3.05
472.288	2.84
472.488	2.76
472.688	2.67
472.888	2.77
473.088	2.76
473.288	2.67
473.488	2.67
473.688	2.74
473.887	2.57
474.087	2.57
474.287	2.56
474.487	2.52
474.687	2.55
474.886	2.47
475.086	2.47
475.286	2.45
475.486	2.41
475.685	2.37
475.885	2.32
476.085	2.34
476.284	2.41
476.484	2.37
476.684	2.32
476.883	2.37
477.083	2.27
477.282	2.22
477.482	2.31
477.681	2.24
477.881	2.13
478.08	2.16
478.28	2.11
478.479	2.21
478.679	2.24
478.878	2.16
479.078	2.09
479.277	2.17
479.477	2.15
479.676	2.12
479.875	2.08
480.075	2.06
480.274	2.12
480.473	2.13
480.673	2.1
480.872	2.17
481.071	2.09
481.271	2.12
481.47	2.05
481.669	2.07
481.868	2.02
482.067	2.07
482.267	1.99
482.466	2.03
482.665	2
482.864	2.01
483.063	1.98
483.262	2.05
483.461	2.12
483.661	2.13
483.86	2.04
484.059	2.15
484.258	2.12
484.457	2.11
484.656	2.06
484.855	2.13
485.054	2.01
485.253	2.03
485.452	2.05
485.651	2.12
485.849	2.09
486.048	2.08
486.247	2.07
486.446	2.16
486.645	2.05
486.844	2.12
487.043	2.07
487.241	2.1
487.44	2.13
487.639	2.19
487.838	2.18
488.037	2.16
488.235	2.3
488.434	2.21
488.633	2.08
488.831	2.29
489.03	2.26
489.229	2.26
489.427	2.22
489.626	2.29
489.825	2.33
490.023	2.33
490.222	2.31
490.42	2.35
490.619	2.41
490.817	2.39
491.016	2.34
491.214	2.44
491.413	2.48
491.611	2.37
491.81	2.42
492.008	2.5
492.207	2.51
492.405	2.57
492.604	2.51
492.802	2.53
493	2.62
493.199	2.63
493.397	2.65
493.595	2.73
493.794	2.68
493.992	2.76
494.19	2.78
494.388	2.86
494.587	2.75
494.785	2.78
494.983	2.71
495.181	2.86
495.379	2.93
495.578	2.96
495.776	2.98
495.974	2.91
496.172	2.97
496.37	3.1
496.568	3.08
496.766	3.1
496.964	3.19
497.162	3.17
497.36	3.24
497.558	3.25
497.756	3.29
497.954	3.28
498.152	3.31
498.35	3.45
498.548	3.39
498.746	3.37
498.944	3.39
499.142	3.41
499.34	3.52
499.538	3.58
499.736	3.48
499.933	3.61
500.131	3.6
500.329	3.77
500.527	3.71
500.725	3.82
500.922	3.81
501.12	3.8
501.318	3.91
501.516	3.94
501.713	3.97
501.911	4
502.109	3.92
502.306	4.06
502.504	3.99
