Data from Apollo_Calib_20240827__AbsoluteIrradiance__785__12-14-02-971.txt Node

Date: Wed Aug 28 12:14:02 BST 2024
User: biology
Spectrometer: FLMT08252
Trigger mode: 0
Integration Time (sec): 5.000000E-1
Scans to average: 5
Electric dark correction enabled: true
Nonlinearity correction enabled: false
Boxcar width: 0
XAxis mode: Wavelengths
Number of Pixels in Spectrum: 3648
>>>>>Begin Spectral Data<<<<<
179.588	-0
179.809	-0
180.03	-0
180.251	-0
180.473	-0
180.694	0
180.915	0
181.136	-0
181.357	-0
181.578	-0
181.799	-0
182.02	-0
182.241	0
182.462	-0
182.683	0
182.904	-0
183.125	-0
183.346	0
183.567	0
183.788	0
184.009	0
184.23	0
184.451	0
184.672	0
184.892	0
185.113	0
185.334	0
185.555	0
185.776	0
185.996	0
186.217	0
186.438	0
186.659	0
186.879	0
187.1	0
187.321	0
187.541	0
187.762	0
187.983	0
188.203	0
188.424	0
188.644	0
188.865	0
189.086	0
189.306	0
189.527	0
189.747	0
189.968	0
190.188	0
190.409	0
190.629	0
190.849	0
191.07	0
191.29	0
191.511	0
191.731	0
191.951	0
192.172	0
192.392	0
192.612	0
192.833	0
193.053	0
193.273	0
193.493	0
193.714	0
193.934	0
194.154	0
194.374	0
194.594	0
194.815	0
195.035	0
195.255	0
195.475	0
195.695	0
195.915	0
196.135	0
196.355	0
196.575	0
196.795	0
197.015	0
197.235	0
197.455	0
197.675	0
197.895	0
198.115	0
198.335	0
198.555	0
198.775	0
198.995	0
199.214	0
199.434	0
199.654	0
199.874	0
200.094	4.11
200.313	2.33
200.533	2.18
200.753	2
200.973	3.88
201.192	3.53
201.412	1.11
201.632	2.1
201.851	3.63
202.071	1.87
202.291	1.61
202.51	1.51
202.73	2.56
202.95	1.71
203.169	1.67
203.389	2.25
203.608	2.34
203.828	1.56
204.047	1.65
204.267	2.34
204.486	2
204.706	1.89
204.925	1.57
205.145	1.32
205.364	2.37
205.583	2.86
205.803	1.51
206.022	0.88
206.242	1.71
206.461	1.75
206.68	1.24
206.9	1.81
207.119	2.56
207.338	2.47
207.557	1.02
207.777	1.44
207.996	1.19
208.215	2.17
208.434	0.99
208.654	1.06
208.873	1.57
209.092	2.2
209.311	1.22
209.53	1.05
209.749	1.55
209.968	1.11
210.187	1.18
210.407	1.03
210.626	1.1
210.845	1.61
211.064	0.99
211.283	0.98
211.502	1.74
211.721	1.17
211.94	1.07
212.159	1.28
212.377	1.45
212.596	1.62
212.815	1.04
213.034	1.29
213.253	1.44
213.472	1.37
213.691	0.88
213.91	0.73
214.128	0.53
214.347	1.4
214.566	0.55
214.785	0.58
215.003	1.28
215.222	1.23
215.441	0.95
215.66	0.67
215.878	0.94
216.097	1.16
216.316	0.69
216.534	0.95
216.753	0.93
216.972	0.89
217.19	0.98
217.409	0.65
217.627	0.79
217.846	0.77
218.064	0.82
218.283	0.7
218.501	1.34
218.72	1.13
218.938	0.4
219.157	0.81
219.375	1.02
219.594	1.05
219.812	0.53
220.031	0.66
220.249	1.3
220.467	1.15
220.686	0.67
220.904	0.56
221.122	0.68
221.341	1.19
221.559	0.86
221.777	0.46
221.995	0.99
222.214	0.96
222.432	0.54
222.65	0.75
222.868	0.67
223.086	0.74
223.305	0.95
223.523	0.55
223.741	1.24
223.959	0.67
224.177	0.44
224.395	0.54
224.613	0.87
224.831	0.81
225.049	0.42
225.267	0.52
225.485	0.78
225.703	0.69
225.921	0.64
226.139	0.44
226.357	0.65
226.575	0.95
226.793	0.62
227.011	1.47
227.229	0.85
227.447	0.82
227.665	0.48
227.883	0.36
228.1	0.57
228.318	0.81
228.536	0.29
228.754	0.42
228.972	0.91
229.189	0.74
229.407	0.57
229.625	0.5
229.843	0.82
230.06	0.81
230.278	0.52
230.496	0.68
230.713	0.57
230.931	0.8
231.149	0.51
231.366	0.32
231.584	0.6
231.801	1.05
232.019	0.5
232.236	0.44
232.454	0.55
232.671	0.68
232.889	0.54
233.106	0.34
233.324	0.54
233.541	0.66
233.759	0.62
233.976	0.41
234.194	0.52
234.411	0.53
234.628	0.41
234.846	0.49
235.063	0.53
235.28	0.54
235.498	0.47
235.715	0.42
235.932	0.84
236.149	0.53
236.367	0.39
236.584	0.6
236.801	0.46
237.018	0.64
237.236	0.6
237.453	0.29
237.67	0.78
237.887	0.54
238.104	0.4
238.321	0.3
238.538	0.33
238.755	0.65
238.973	0.35
239.19	0.57
239.407	0.52
239.624	0.53
239.841	0.39
240.058	0.41
240.275	0.53
240.492	0.56
240.709	0.47
240.925	0.51
241.142	0.53
241.359	0.38
241.576	0.19
241.793	0.44
242.01	0.5
242.227	0.65
242.444	0.59
242.66	0.56
242.877	0.55
243.094	0.38
243.311	0.52
243.527	0.44
243.744	0.5
243.961	0.53
244.178	0.44
244.394	0.46
244.611	0.58
244.828	0.65
245.044	0.27
245.261	0.4
245.477	0.52
245.694	0.57
245.911	0.4
246.127	0.52
246.344	0.69
246.56	0.56
246.777	0.33
246.993	0.42
247.21	0.39
247.426	0.55
247.643	0.31
247.859	0.33
248.076	0.32
248.292	0.69
248.508	0.36
248.725	0.55
248.941	0.56
249.157	0.63
249.374	0.31
249.59	0.48
249.806	0.48
250.023	0.5
250.239	0.31
250.455	0.35
250.671	0.41
250.888	0.51
251.104	0.48
251.32	0.37
251.536	0.36
251.752	0.44
251.969	0.46
252.185	0.39
252.401	0.67
252.617	0.51
252.833	0.39
253.049	0.39
253.265	0.38
253.481	0.43
253.697	0.35
253.913	0.32
254.129	0.45
254.345	0.44
254.561	0.39
254.777	0.4
254.993	0.46
255.209	0.45
255.425	0.37
255.641	0.34
255.857	0.46
256.073	0.42
256.288	0.28
256.504	0.3
256.72	0.35
256.936	0.57
257.152	0.37
257.367	0.32
257.583	0.48
257.799	0.44
258.015	0.35
258.23	0.37
258.446	0.57
258.662	0.43
258.877	0.31
259.093	0.37
259.309	0.41
259.524	0.44
259.74	0.29
259.955	0.17
260.171	0.4
260.387	0.5
260.602	0.43
260.818	0.42
261.033	0.31
261.249	0.37
261.464	0.31
261.68	0.24
261.895	0.48
262.11	0.43
262.326	0.31
262.541	0.23
262.757	0.45
262.972	0.48
263.187	0.38
263.403	0.41
263.618	0.5
263.833	0.41
264.049	0.28
264.264	0.28
264.479	0.47
264.694	0.58
264.91	0.28
265.125	0.33
265.34	0.44
265.555	0.54
265.77	0.33
265.986	0.33
266.201	0.47
266.416	0.49
266.631	0.32
266.846	0.28
267.061	0.43
267.276	0.51
267.491	0.16
267.706	0.35
267.921	0.37
268.136	0.36
268.351	0.37
268.566	0.25
268.781	0.38
268.996	0.44
269.211	0.31
269.426	0.34
269.641	0.31
269.856	0.38
270.071	0.29
270.285	0.21
270.5	0.43
270.715	0.46
270.93	0.29
271.145	0.39
271.359	0.44
271.574	0.27
271.789	0.29
272.004	0.3
272.218	0.32
272.433	0.39
272.648	0.32
272.862	0.41
273.077	0.33
273.292	0.36
273.506	0.24
273.721	0.26
273.936	0.37
274.15	0.43
274.365	0.23
274.579	0.36
274.794	0.43
275.008	0.45
275.223	0.24
275.437	0.27
275.652	0.46
275.866	0.42
276.081	0.39
276.295	0.41
276.509	0.39
276.724	0.34
276.938	0.31
277.153	0.38
277.367	0.36
277.581	0.27
277.796	0.26
278.01	0.22
278.224	0.43
278.438	0.41
278.653	0.28
278.867	0.27
279.081	0.45
279.295	0.3
279.51	0.31
279.724	0.25
279.938	0.42
280.152	0.33
280.366	0.25
280.58	0.33
280.794	0.39
281.008	0.38
281.222	0.41
281.437	0.46
281.651	0.4
281.865	0.41
282.079	0.33
282.293	0.16
282.507	0.23
282.721	0.31
282.935	0.24
283.148	0.22
283.362	0.32
283.576	0.23
283.79	0.25
284.004	0.26
284.218	0.4
284.432	0.27
284.646	0.29
284.859	0.23
285.073	0.27
285.287	0.3
285.501	0.29
285.714	0.24
285.928	0.31
286.142	0.38
286.356	0.27
286.569	0.32
286.783	0.4
286.997	0.39
287.21	0.32
287.424	0.26
287.637	0.3
287.851	0.31
288.065	0.36
288.278	0.21
288.492	0.32
288.705	0.28
288.919	0.32
289.132	0.18
289.346	0.34
289.559	0.22
289.773	0.21
289.986	0.26
290.2	0.28
290.413	0.37
290.626	0.21
290.84	0.27
291.053	0.26
291.267	0.42
291.48	0.27
291.693	0.26
291.906	0.25
292.12	0.3
292.333	0.3
292.546	0.26
292.76	0.36
292.973	0.3
293.186	0.33
293.399	0.24
293.612	0.28
293.826	0.3
294.039	0.24
294.252	0.3
294.465	0.3
294.678	0.28
294.891	0.32
295.104	0.22
295.317	0.26
295.53	0.27
295.743	0.29
295.956	0.25
296.169	0.4
296.382	0.35
296.595	0.28
296.808	0.23
297.021	0.39
297.234	0.32
297.447	0.29
297.66	0.29
297.873	0.4
298.086	0.34
298.299	0.23
298.511	0.17
298.724	0.3
298.937	0.24
299.15	0.19
299.363	0.28
299.575	0.32
299.788	0.29
300.001	0.26
300.213	0.2
300.426	0.27
300.639	0.24
300.852	0.26
301.064	0.33
301.277	0.36
301.489	0.27
301.702	0.3
301.915	0.28
302.127	0.29
302.34	0.28
302.552	0.23
302.765	0.24
302.977	0.35
303.19	0.24
303.402	0.21
303.615	0.24
303.827	0.22
304.04	0.26
304.252	0.28
304.464	0.26
304.677	0.4
304.889	0.33
305.102	0.21
305.314	0.21
305.526	0.33
305.739	0.32
305.951	0.2
306.163	0.25
306.375	0.35
306.588	0.27
306.8	0.21
307.012	0.19
307.224	0.28
307.436	0.37
307.649	0.14
307.861	0.25
308.073	0.31
308.285	0.25
308.497	0.17
308.709	0.23
308.921	0.3
309.133	0.36
309.346	0.25
309.558	0.19
309.77	0.33
309.982	0.38
310.194	0.29
310.406	0.27
310.617	0.36
310.829	0.31
311.041	0.26
311.253	0.21
311.465	0.24
311.677	0.3
311.889	0.27
312.101	0.18
312.313	0.35
312.524	0.35
312.736	0.25
312.948	0.22
313.16	0.33
313.372	0.3
313.583	0.28
313.795	0.26
314.007	0.29
314.218	0.3
314.43	0.25
314.642	0.22
314.853	0.18
315.065	0.31
315.277	0.27
315.488	0.29
315.7	0.35
315.912	0.32
316.123	0.22
316.335	0.26
316.546	0.36
316.758	0.25
316.969	0.23
317.181	0.28
317.392	0.24
317.604	0.34
317.815	0.22
318.026	0.23
318.238	0.24
318.449	0.27
318.661	0.19
318.872	0.18
319.083	0.23
319.295	0.27
319.506	0.23
319.717	0.29
319.929	0.3
320.14	0.28
320.351	0.26
320.562	0.2
320.774	0.33
320.985	0.29
321.196	0.19
321.407	0.19
321.618	0.34
321.829	0.29
322.041	0.29
322.252	0.23
322.463	0.29
322.674	0.32
322.885	0.2
323.096	0.23
323.307	0.24
323.518	0.29
323.729	0.25
323.94	0.24
324.151	0.24
324.362	0.28
324.573	0.27
324.784	0.23
324.995	0.31
325.206	0.3
325.417	0.25
325.628	0.22
325.838	0.26
326.049	0.28
326.26	0.27
326.471	0.18
326.682	0.29
326.892	0.28
327.103	0.17
327.314	0.24
327.525	0.3
327.735	0.23
327.946	0.24
328.157	0.18
328.368	0.32
328.578	0.28
328.789	0.3
328.999	0.26
329.21	0.23
329.421	0.3
329.631	0.21
329.842	0.22
330.052	0.3
330.263	0.31
330.473	0.31
330.684	0.24
330.894	0.25
331.105	0.2
331.315	0.24
331.526	0.2
331.736	0.39
331.947	0.28
332.157	0.27
332.367	0.18
332.578	0.27
332.788	0.36
332.999	0.3
333.209	0.26
333.419	0.25
333.629	0.31
333.84	0.28
334.05	0.25
334.26	0.35
334.47	0.26
334.681	0.3
334.891	0.24
335.101	0.33
335.311	0.38
335.521	0.25
335.732	0.23
335.942	0.32
336.152	0.31
336.362	0.27
336.572	0.27
336.782	0.31
336.992	0.27
337.202	0.21
337.412	0.21
337.622	0.3
337.832	0.26
338.042	0.23
338.252	0.22
338.462	0.23
338.672	0.26
338.882	0.26
339.092	0.23
339.302	0.33
339.511	0.29
339.721	0.25
339.931	0.16
340.141	0.33
340.351	0.32
340.561	0.23
340.77	0.31
340.98	0.27
341.19	0.29
341.4	0.24
341.609	0.23
341.819	0.25
342.029	0.18
342.238	0.28
342.448	0.24
342.658	0.3
342.867	0.25
343.077	0.25
343.286	0.27
343.496	0.3
343.706	0.34
343.915	0.21
344.125	0.25
344.334	0.28
344.544	0.19
344.753	0.22
344.963	0.24
345.172	0.22
345.381	0.22
345.591	0.18
345.8	0.23
346.01	0.37
346.219	0.31
346.428	0.14
346.638	0.27
346.847	0.28
347.056	0.37
347.266	0.19
347.475	0.27
347.684	0.32
347.893	0.3
348.103	0.3
348.312	0.21
348.521	0.27
348.73	0.28
348.94	0.26
349.149	0.21
349.358	0.25
349.567	0.19
349.776	0.2
349.985	0.22
350.194	0.34
350.403	0.33
350.612	0.16
350.821	0.25
351.03	0.24
351.239	0.19
351.448	0.24
351.657	0.22
351.866	0.38
352.075	0.3
352.284	0.22
352.493	0.24
352.702	0.35
352.911	0.23
353.12	0.26
353.329	0.2
353.538	0.25
353.746	0.31
353.955	0.2
354.164	0.22
354.373	0.2
354.582	0.28
354.79	0.3
354.999	0.28
355.208	0.21
355.416	0.35
355.625	0.2
355.834	0.2
356.042	0.25
356.251	0.22
356.46	0.17
356.668	0.23
356.877	0.34
357.085	0.26
357.294	0.13
357.503	0.29
357.711	0.26
357.92	0.42
358.128	0.25
358.337	0.24
358.545	0.27
358.754	0.22
358.962	0.33
359.17	0.21
359.379	0.27
359.587	0.25
359.796	0.25
360.004	0.35
360.212	0.27
360.421	0.33
360.629	0.25
360.837	0.2
361.046	0.31
361.254	0.37
361.462	0.25
361.67	0.21
361.879	0.3
362.087	0.29
362.295	0.24
362.503	0.22
362.711	0.2
362.92	0.22
363.128	0.2
363.336	0.21
363.544	0.16
363.752	0.24
363.96	0.22
364.168	0.21
364.376	0.27
364.584	0.28
364.792	0.28
365	0.27
365.208	0.28
365.416	0.31
365.624	0.28
365.832	0.22
366.04	0.34
366.248	0.27
366.456	0.22
366.664	0.28
366.872	0.26
367.079	0.23
367.287	0.24
367.495	0.27
367.703	0.21
367.911	0.23
368.118	0.25
368.326	0.21
368.534	0.23
368.742	0.32
368.949	0.23
369.157	0.19
369.365	0.28
369.572	0.25
369.78	0.21
369.988	0.27
370.195	0.25
370.403	0.3
370.61	0.25
370.818	0.2
371.026	0.35
371.233	0.23
371.441	0.24
371.648	0.22
371.856	0.26
372.063	0.29
372.271	0.21
372.478	0.25
372.685	0.21
372.893	0.3
373.1	0.28
373.308	0.24
373.515	0.4
373.722	0.35
373.93	0.25
374.137	0.31
374.344	0.29
374.552	0.34
374.759	0.28
374.966	0.23
375.173	0.22
375.381	0.33
375.588	0.3
375.795	0.24
376.002	0.26
376.209	0.22
376.417	0.31
376.624	0.29
376.831	0.3
377.038	0.24
377.245	0.17
377.452	0.26
377.659	0.26
377.866	0.25
378.073	0.25
378.28	0.23
378.487	0.31
378.694	0.32
378.901	0.23
379.108	0.25
379.315	0.32
379.522	0.4
379.729	0.25
379.936	0.27
380.143	0.32
380.35	0.29
380.557	0.25
380.763	0.25
380.97	0.27
381.177	0.32
381.384	0.25
381.591	0.23
381.797	0.31
382.004	0.32
382.211	0.31
382.418	0.22
382.624	0.32
382.831	0.36
383.038	0.28
383.244	0.24
383.451	0.3
383.658	0.33
383.864	0.24
384.071	0.22
384.277	0.38
384.484	0.24
384.69	0.36
384.897	0.2
385.103	0.26
385.31	0.25
385.516	0.27
385.723	0.21
385.929	0.28
386.136	0.33
386.342	0.32
386.549	0.24
386.755	0.37
386.961	0.3
387.168	0.28
387.374	0.29
387.58	0.33
387.787	0.27
387.993	0.27
388.199	0.24
388.406	0.23
388.612	0.24
388.818	0.26
389.024	0.23
389.231	0.27
389.437	0.39
389.643	0.33
389.849	0.27
390.055	0.3
390.261	0.29
390.467	0.3
390.674	0.29
390.88	0.31
391.086	0.36
391.292	0.29
391.498	0.39
391.704	0.32
391.91	0.27
392.116	0.29
392.322	0.22
392.528	0.35
392.734	0.33
392.94	0.32
393.146	0.27
393.352	0.34
393.557	0.28
393.763	0.3
393.969	0.39
394.175	0.34
394.381	0.37
394.587	0.28
394.792	0.31
394.998	0.39
395.204	0.36
395.41	0.25
395.615	0.35
395.821	0.38
396.027	0.37
396.233	0.27
396.438	0.33
396.644	0.37
396.85	0.4
397.055	0.32
397.261	0.38
397.466	0.35
397.672	0.36
397.878	0.37
398.083	0.38
398.289	0.29
398.494	0.39
398.7	0.38
398.905	0.28
399.111	0.43
399.316	0.28
399.522	0.37
399.727	0.36
399.932	0.36
400.138	0.32
400.343	0.43
400.549	0.35
400.754	0.34
400.959	0.37
401.165	0.34
401.37	0.39
401.575	0.46
401.78	0.38
401.986	0.36
402.191	0.37
402.396	0.4
402.601	0.46
402.807	0.39
403.012	0.36
403.217	0.46
403.422	0.39
403.627	0.45
403.832	0.38
404.037	0.48
404.243	0.49
404.448	0.41
404.653	0.4
404.858	0.44
405.063	0.51
405.268	0.38
405.473	0.39
405.678	0.39
405.883	0.64
406.088	0.49
406.293	0.42
406.498	0.45
406.703	0.54
406.907	0.45
407.112	0.44
407.317	0.5
407.522	0.59
407.727	0.47
407.932	0.5
408.136	0.64
408.341	0.58
408.546	0.56
408.751	0.59
408.956	0.61
409.16	0.69
409.365	0.6
409.57	0.63
409.774	0.61
409.979	0.7
410.184	0.66
410.388	0.66
410.593	0.79
410.798	0.7
411.002	0.74
411.207	0.82
411.411	0.78
411.616	0.71
411.82	0.8
412.025	0.83
412.229	0.92
412.434	0.94
412.638	0.9
412.843	0.93
413.047	0.98
413.252	0.96
413.456	1.06
413.66	1.12
413.865	1.03
414.069	1.13
414.273	1.08
414.478	1.15
414.682	1.22
414.886	1.21
415.091	1.19
415.295	1.23
415.499	1.41
415.703	1.3
415.908	1.45
416.112	1.36
416.316	1.56
416.52	1.6
416.724	1.56
416.929	1.58
417.133	1.9
417.337	1.78
417.541	1.79
417.745	1.8
417.949	1.95
418.153	2.01
418.357	2
418.561	2.27
418.765	2.21
418.969	2.35
419.173	2.34
419.377	2.43
419.581	2.65
419.785	2.57
419.989	2.63
420.193	2.78
420.397	2.88
420.601	3.04
420.804	3.17
421.008	3.1
421.212	3.25
421.416	3.25
421.62	3.26
421.823	3.34
422.027	3.52
422.231	3.47
422.435	3.46
422.638	3.58
422.842	3.63
423.046	3.71
423.249	3.93
423.453	3.9
423.657	4.1
423.86	4.16
424.064	4.26
424.268	4.51
424.471	4.48
424.675	4.71
424.878	4.72
425.082	4.84
425.285	5.23
425.489	5.06
425.692	5.16
425.896	5.29
426.099	5.48
426.303	5.58
426.506	5.71
426.71	5.91
426.913	6.15
427.116	6.31
427.32	6.27
427.523	6.4
427.726	6.73
427.93	6.72
428.133	7.12
428.336	7.17
428.54	7.37
428.743	7.54
428.946	7.91
429.149	7.78
429.353	7.82
429.556	7.95
429.759	7.97
429.962	8.19
430.165	8.34
430.368	7.99
430.571	8.06
430.775	8.08
430.978	7.94
431.181	8.13
431.384	8.14
431.587	8.27
431.79	8.65
431.993	8.64
432.196	8.94
432.399	9.21
432.602	9.39
432.805	9.45
433.008	10.02
433.211	9.96
433.414	10.3
433.616	10.32
433.819	10.3
434.022	10.38
434.225	10.68
434.428	10.58
434.631	11.07
434.833	10.73
435.036	11.06
435.239	11.27
435.442	11.39
435.645	11.47
435.847	11.6
436.05	11.89
436.253	12.11
436.455	12.16
436.658	11.96
436.861	12.31
437.063	12.43
437.266	12.39
437.468	12.82
437.671	12.99
437.874	13.06
438.076	12.9
438.279	13.43
438.481	13.32
438.684	14.21
438.886	13.78
439.089	14.11
439.291	14.07
439.494	14.51
439.696	14.72
439.899	15.18
440.101	15.63
440.303	15.86
440.506	16.54
440.708	16.22
440.91	16.45
441.113	16.55
441.315	16.94
441.517	16.82
441.72	17.24
441.922	16.77
442.124	16.57
442.326	17.27
442.529	17.36
442.731	17.29
442.933	17.84
443.135	17.51
443.337	17.44
443.539	17.96
443.742	17.69
443.944	18.37
444.146	18.01
444.348	18.04
444.55	17.88
444.752	18.05
444.954	17.98
445.156	17.93
445.358	18.29
445.56	18.64
445.762	18.35
445.964	18.79
446.166	18.37
446.368	18.58
446.57	18.56
446.772	18.07
446.974	17.93
447.175	18.31
447.377	17.9
447.579	18.17
447.781	17.93
447.983	17.8
448.184	17.25
448.386	17.69
448.588	17.18
448.79	17.23
448.991	17.33
449.193	17.47
449.395	16.86
449.597	16.31
449.798	16.37
450	15.93
450.202	15.84
450.403	15.88
450.605	15.69
450.806	15.29
451.008	15.24
451.21	14.98
451.411	14.53
451.613	13.7
451.814	14.08
452.016	14.1
452.217	13.32
452.419	13.23
452.62	12.84
452.821	12.7
453.023	12.53
453.224	12.25
453.426	11.8
453.627	11.04
453.828	11.28
454.03	11.31
454.231	11.25
454.432	11.02
454.634	10.8
454.835	10.41
455.036	10.36
455.238	9.94
455.439	9.71
455.64	9.54
455.841	9.32
456.042	9.45
456.244	9.12
456.445	8.93
456.646	8.65
456.847	8.47
457.048	8.47
457.249	8.46
457.45	8.31
457.651	7.72
457.852	7.57
458.054	7.23
458.255	7.23
458.456	7.36
458.657	7.06
458.858	6.71
459.058	6.64
459.259	6.78
459.46	6.47
459.661	6.41
459.862	6.47
460.063	6.27
460.264	6.19
460.465	6.01
460.666	6.07
460.866	5.75
461.067	5.52
461.268	5.55
461.469	5.46
461.67	5.44
461.87	5.3
462.071	5.25
462.272	5.1
462.473	5.08
462.673	5.3
462.874	5.14
463.075	5.01
463.275	5.11
463.476	5.13
463.676	5.11
463.877	4.86
464.078	4.92
464.278	4.92
464.479	4.83
464.679	4.73
464.88	4.63
465.08	4.63
465.281	4.5
465.481	4.35
465.682	4.12
465.882	4.13
466.083	4.1
466.283	4.04
466.483	3.91
466.684	3.73
466.884	3.6
467.085	3.69
467.285	3.7
467.485	3.6
467.686	3.57
467.886	3.4
468.086	3.38
468.286	3.43
468.487	3.48
468.687	3.27
468.887	3.21
469.087	3.4
469.287	3.27
469.488	3.03
469.688	3.2
469.888	3.27
470.088	3.17
470.288	3.01
470.488	3.05
470.688	2.89
470.888	2.84
471.088	2.65
471.288	2.77
471.488	2.78
471.688	2.73
471.888	2.64
472.088	2.8
472.288	2.73
472.488	2.63
472.688	2.61
472.888	2.62
473.088	2.61
473.288	2.5
473.488	2.47
473.688	2.56
473.887	2.53
474.087	2.44
474.287	2.49
474.487	2.38
474.687	2.4
474.886	2.34
475.086	2.29
475.286	2.34
475.486	2.32
475.685	2.22
475.885	2.21
476.085	2.33
476.284	2.26
476.484	2.29
476.684	2.21
476.883	2.31
477.083	2.23
477.282	2.13
477.482	2.22
477.681	2.14
477.881	2.07
478.08	2.08
478.28	2.02
478.479	2.1
478.679	2.11
478.878	2.1
479.078	1.99
479.277	2.03
479.477	2.03
479.676	2.03
479.875	2.03
480.075	1.94
480.274	2.03
480.473	2.09
480.673	2.07
480.872	2.11
481.071	2.02
481.271	2.01
481.47	2
481.669	1.99
481.868	2
482.067	1.98
482.267	1.91
482.466	1.92
482.665	1.96
482.864	1.99
483.063	1.93
483.262	2
483.461	2.05
483.661	2.01
483.86	1.99
484.059	2.06
484.258	2.03
484.457	2.06
484.656	2.05
484.855	2.07
485.054	1.93
485.253	1.96
485.452	1.99
485.651	2.03
485.849	2.04
486.048	2.01
486.247	2.02
486.446	2.12
486.645	2.02
486.844	2.05
487.043	2.04
487.241	2.05
487.44	2.05
487.639	2.13
487.838	2.09
488.037	2.11
488.235	2.21
488.434	2.17
488.633	2.04
488.831	2.24
489.03	2.2
489.229	2.19
489.427	2.2
489.626	2.28
489.825	2.3
490.023	2.3
490.222	2.26
490.42	2.32
490.619	2.33
490.817	2.36
491.016	2.32
491.214	2.44
491.413	2.4
491.611	2.33
491.81	2.42
492.008	2.44
492.207	2.56
492.405	2.52
492.604	2.52
492.802	2.58
493	2.62
493.199	2.62
493.397	2.65
493.595	2.68
493.794	2.68
493.992	2.78
494.19	2.73
494.388	2.85
494.587	2.72
494.785	2.79
494.983	2.75
495.181	2.81
495.379	2.89
495.578	2.97
495.776	2.97
495.974	2.91
496.172	3
496.37	3.06
496.568	3.1
496.766	3.07
496.964	3.2
497.162	3.16
497.36	3.19
497.558	3.26
497.756	3.3
497.954	3.28
498.152	3.36
498.35	3.45
498.548	3.33
498.746	3.38
498.944	3.39
499.142	3.44
499.34	3.57
499.538	3.63
499.736	3.51
499.933	3.63
500.131	3.6
500.329	3.77
500.527	3.74
500.725	3.87
500.922	3.85
501.12	3.84
501.318	3.95
501.516	3.96
501.713	4.03
501.911	3.95
502.109	3.94
502.306	4.12
502.504	4
502.701	4.11
502.899	4.13
