Data from Apollo_Calib_20240827__AbsoluteIrradiance__886__13-55-00-344.txt Node

Date: Wed Aug 28 13:55:00 BST 2024
User: biology
Spectrometer: FLMT08252
Trigger mode: 0
Integration Time (sec): 5.000000E-1
Scans to average: 5
Electric dark correction enabled: true
Nonlinearity correction enabled: false
Boxcar width: 0
XAxis mode: Wavelengths
Number of Pixels in Spectrum: 3648
>>>>>Begin Spectral Data<<<<<
179.588	-0
179.809	-0
180.03	-0
180.251	-0
180.473	-0
180.694	0
180.915	0
181.136	-0
181.357	0
181.578	-0
181.799	-0
182.02	-0
182.241	-0
182.462	-0
182.683	0
182.904	-0
183.125	-0
183.346	0
183.567	0
183.788	0
184.009	0
184.23	0
184.451	0
184.672	0
184.892	0
185.113	0
185.334	0
185.555	0
185.776	0
185.996	0
186.217	0
186.438	0
186.659	0
186.879	0
187.1	0
187.321	0
187.541	0
187.762	0
187.983	0
188.203	0
188.424	0
188.644	0
188.865	0
189.086	0
189.306	0
189.527	0
189.747	0
189.968	0
190.188	0
190.409	0
190.629	0
190.849	0
191.07	0
191.29	0
191.511	0
191.731	0
191.951	0
192.172	0
192.392	0
192.612	0
192.833	0
193.053	0
193.273	0
193.493	0
193.714	0
193.934	0
194.154	0
194.374	0
194.594	0
194.815	0
195.035	0
195.255	0
195.475	0
195.695	0
195.915	0
196.135	0
196.355	0
196.575	0
196.795	0
197.015	0
197.235	0
197.455	0
197.675	0
197.895	0
198.115	0
198.335	0
198.555	0
198.775	0
198.995	0
199.214	0
199.434	0
199.654	0
199.874	0
200.094	4.95
200.313	1.69
200.533	1.67
200.753	1.01
200.973	3.99
201.192	3.66
201.412	1.25
201.632	1.55
201.851	3.43
202.071	1.78
202.291	1.56
202.51	1.23
202.73	2.54
202.95	1.85
203.169	1.04
203.389	1.72
203.608	2.24
203.828	1.32
204.047	1.31
204.267	2.11
204.486	2.31
204.706	1.98
204.925	1.47
205.145	1.29
205.364	2.35
205.583	2.6
205.803	1.08
206.022	0.95
206.242	1.9
206.461	1.59
206.68	1.16
206.9	1.86
207.119	2.33
207.338	2.13
207.557	1.11
207.777	0.89
207.996	1.28
208.215	2.2
208.434	0.89
208.654	0.54
208.873	1.33
209.092	2.18
209.311	0.97
209.53	1.05
209.749	1.3
209.968	1.09
210.187	0.73
210.407	0.46
210.626	1.27
210.845	1.78
211.064	1.15
211.283	0.84
211.502	1.65
211.721	0.95
211.94	0.87
212.159	1.33
212.377	1.52
212.596	1.45
212.815	0.92
213.034	1.29
213.253	1.41
213.472	1.24
213.691	1.1
213.91	0.73
214.128	0.54
214.347	1.32
214.566	0.46
214.785	0.49
215.003	1.18
215.222	1.23
215.441	1.04
215.66	0.58
215.878	0.93
216.097	1.28
216.316	0.61
216.534	0.88
216.753	1.27
216.972	0.9
217.19	0.77
217.409	0.55
217.627	0.65
217.846	0.72
218.064	0.97
218.283	0.6
218.501	1.47
218.72	1.07
218.938	0.58
219.157	0.54
219.375	1.15
219.594	1.05
219.812	0.33
220.031	0.55
220.249	1.46
220.467	1.16
220.686	0.62
220.904	0.41
221.122	0.79
221.341	1.22
221.559	0.77
221.777	0.52
221.995	0.77
222.214	0.79
222.432	0.67
222.65	0.83
222.868	0.75
223.086	0.77
223.305	0.82
223.523	0.6
223.741	1.2
223.959	0.63
224.177	0.29
224.395	0.38
224.613	0.73
224.831	0.9
225.049	0.49
225.267	0.52
225.485	0.63
225.703	0.55
225.921	0.55
226.139	0.39
226.357	0.9
226.575	0.78
226.793	0.37
227.011	1.57
227.229	0.68
227.447	0.91
227.665	0.46
227.883	0.19
228.1	0.66
228.318	0.77
228.536	0.37
228.754	0.52
228.972	0.76
229.189	0.76
229.407	0.52
229.625	0.57
229.843	0.83
230.06	0.78
230.278	0.55
230.496	0.56
230.713	0.63
230.931	0.94
231.149	0.42
231.366	0.3
231.584	0.53
231.801	1.11
232.019	0.56
232.236	0.35
232.454	0.36
232.671	0.56
232.889	0.44
233.106	0.41
233.324	0.55
233.541	0.53
233.759	0.57
233.976	0.33
234.194	0.55
234.411	0.52
234.628	0.42
234.846	0.49
235.063	0.49
235.28	0.5
235.498	0.49
235.715	0.31
235.932	0.7
236.149	0.51
236.367	0.4
236.584	0.59
236.801	0.35
237.018	0.56
237.236	0.35
237.453	0.31
237.67	0.58
237.887	0.43
238.104	0.42
238.321	0.36
238.538	0.44
238.755	0.68
238.973	0.22
239.19	0.36
239.407	0.62
239.624	0.49
239.841	0.35
240.058	0.34
240.275	0.48
240.492	0.44
240.709	0.43
240.925	0.36
241.142	0.5
241.359	0.23
241.576	0.33
241.793	0.3
242.01	0.44
242.227	0.68
242.444	0.46
242.66	0.64
242.877	0.51
243.094	0.34
243.311	0.32
243.527	0.39
243.744	0.57
243.961	0.5
244.178	0.26
244.394	0.43
244.611	0.59
244.828	0.7
245.044	0.28
245.261	0.39
245.477	0.46
245.694	0.53
245.911	0.36
246.127	0.43
246.344	0.59
246.56	0.63
246.777	0.3
246.993	0.42
247.21	0.56
247.426	0.45
247.643	0.24
247.859	0.28
248.076	0.33
248.292	0.61
248.508	0.27
248.725	0.45
248.941	0.41
249.157	0.65
249.374	0.24
249.59	0.39
249.806	0.39
250.023	0.57
250.239	0.26
250.455	0.25
250.671	0.41
250.888	0.48
251.104	0.38
251.32	0.32
251.536	0.39
251.752	0.39
251.969	0.4
252.185	0.32
252.401	0.66
252.617	0.39
252.833	0.28
253.049	0.35
253.265	0.44
253.481	0.43
253.697	0.33
253.913	0.24
254.129	0.48
254.345	0.48
254.561	0.34
254.777	0.36
254.993	0.46
255.209	0.4
255.425	0.37
255.641	0.29
255.857	0.44
256.073	0.44
256.288	0.16
256.504	0.27
256.72	0.41
256.936	0.59
257.152	0.34
257.367	0.27
257.583	0.36
257.799	0.5
258.015	0.32
258.23	0.25
258.446	0.61
258.662	0.38
258.877	0.29
259.093	0.27
259.309	0.4
259.524	0.42
259.74	0.29
259.955	0.22
260.171	0.39
260.387	0.32
260.602	0.43
260.818	0.37
261.033	0.24
261.249	0.38
261.464	0.28
261.68	0.15
261.895	0.42
262.11	0.48
262.326	0.34
262.541	0.21
262.757	0.5
262.972	0.37
263.187	0.37
263.403	0.39
263.618	0.48
263.833	0.39
264.049	0.24
264.264	0.24
264.479	0.32
264.694	0.52
264.91	0.25
265.125	0.23
265.34	0.44
265.555	0.57
265.77	0.31
265.986	0.24
266.201	0.36
266.416	0.45
266.631	0.29
266.846	0.3
267.061	0.47
267.276	0.38
267.491	0.15
267.706	0.33
267.921	0.41
268.136	0.42
268.351	0.29
268.566	0.23
268.781	0.45
268.996	0.39
269.211	0.38
269.426	0.24
269.641	0.26
269.856	0.45
270.071	0.2
270.285	0.21
270.5	0.47
270.715	0.46
270.93	0.32
271.145	0.35
271.359	0.41
271.574	0.3
271.789	0.39
272.004	0.27
272.218	0.35
272.433	0.37
272.648	0.26
272.862	0.4
273.077	0.4
273.292	0.33
273.506	0.25
273.721	0.28
273.936	0.37
274.15	0.37
274.365	0.22
274.579	0.36
274.794	0.41
275.008	0.45
275.223	0.2
275.437	0.32
275.652	0.37
275.866	0.42
276.081	0.33
276.295	0.32
276.509	0.29
276.724	0.34
276.938	0.3
277.153	0.29
277.367	0.42
277.581	0.24
277.796	0.3
278.01	0.21
278.224	0.42
278.438	0.42
278.653	0.25
278.867	0.17
279.081	0.36
279.295	0.33
279.51	0.3
279.724	0.19
279.938	0.4
280.152	0.35
280.366	0.21
280.58	0.32
280.794	0.44
281.008	0.33
281.222	0.35
281.437	0.48
281.651	0.37
281.865	0.46
282.079	0.3
282.293	0.15
282.507	0.27
282.721	0.26
282.935	0.25
283.148	0.19
283.362	0.27
283.576	0.23
283.79	0.27
284.004	0.27
284.218	0.41
284.432	0.31
284.646	0.29
284.859	0.25
285.073	0.24
285.287	0.29
285.501	0.27
285.714	0.25
285.928	0.26
286.142	0.33
286.356	0.22
286.569	0.23
286.783	0.42
286.997	0.36
287.21	0.27
287.424	0.33
287.637	0.3
287.851	0.27
288.065	0.34
288.278	0.21
288.492	0.3
288.705	0.28
288.919	0.31
289.132	0.13
289.346	0.37
289.559	0.2
289.773	0.19
289.986	0.24
290.2	0.27
290.413	0.37
290.626	0.23
290.84	0.23
291.053	0.31
291.267	0.31
291.48	0.26
291.693	0.23
291.906	0.19
292.12	0.29
292.333	0.21
292.546	0.27
292.76	0.37
292.973	0.37
293.186	0.31
293.399	0.22
293.612	0.32
293.826	0.26
294.039	0.21
294.252	0.27
294.465	0.35
294.678	0.28
294.891	0.26
295.104	0.2
295.317	0.29
295.53	0.27
295.743	0.26
295.956	0.22
296.169	0.39
296.382	0.32
296.595	0.23
296.808	0.25
297.021	0.36
297.234	0.36
297.447	0.21
297.66	0.26
297.873	0.33
298.086	0.35
298.299	0.2
298.511	0.17
298.724	0.26
298.937	0.21
299.15	0.24
299.363	0.23
299.575	0.33
299.788	0.26
300.001	0.25
300.213	0.2
300.426	0.28
300.639	0.21
300.852	0.18
301.064	0.3
301.277	0.36
301.489	0.29
301.702	0.24
301.915	0.28
302.127	0.28
302.34	0.23
302.552	0.29
302.765	0.18
302.977	0.32
303.19	0.24
303.402	0.25
303.615	0.22
303.827	0.24
304.04	0.23
304.252	0.27
304.464	0.21
304.677	0.44
304.889	0.31
305.102	0.22
305.314	0.22
305.526	0.26
305.739	0.34
305.951	0.23
306.163	0.23
306.375	0.38
306.588	0.25
306.8	0.21
307.012	0.17
307.224	0.26
307.436	0.32
307.649	0.15
307.861	0.23
308.073	0.34
308.285	0.21
308.497	0.23
308.709	0.17
308.921	0.27
309.133	0.32
309.346	0.24
309.558	0.25
309.77	0.32
309.982	0.34
310.194	0.3
310.406	0.23
310.617	0.35
310.829	0.29
311.041	0.28
311.253	0.18
311.465	0.25
311.677	0.26
311.889	0.22
312.101	0.18
312.313	0.34
312.524	0.33
312.736	0.15
312.948	0.19
313.16	0.33
313.372	0.3
313.583	0.26
313.795	0.23
314.007	0.18
314.218	0.29
314.43	0.21
314.642	0.21
314.853	0.18
315.065	0.29
315.277	0.21
315.488	0.26
315.7	0.27
315.912	0.29
316.123	0.19
316.335	0.26
316.546	0.37
316.758	0.27
316.969	0.22
317.181	0.24
317.392	0.24
317.604	0.38
317.815	0.17
318.026	0.19
318.238	0.22
318.449	0.31
318.661	0.19
318.872	0.21
319.083	0.2
319.295	0.28
319.506	0.17
319.717	0.2
319.929	0.3
320.14	0.27
320.351	0.28
320.562	0.21
320.774	0.25
320.985	0.24
321.196	0.23
321.407	0.13
321.618	0.29
321.829	0.23
322.041	0.26
322.252	0.25
322.463	0.29
322.674	0.3
322.885	0.17
323.096	0.22
323.307	0.25
323.518	0.29
323.729	0.2
323.94	0.22
324.151	0.2
324.362	0.29
324.573	0.24
324.784	0.19
324.995	0.28
325.206	0.26
325.417	0.21
325.628	0.17
325.838	0.3
326.049	0.27
326.26	0.3
326.471	0.2
326.682	0.26
326.892	0.25
327.103	0.15
327.314	0.19
327.525	0.33
327.735	0.31
327.946	0.22
328.157	0.15
328.368	0.34
328.578	0.26
328.789	0.32
328.999	0.24
329.21	0.26
329.421	0.35
329.631	0.18
329.842	0.19
330.052	0.25
330.263	0.29
330.473	0.31
330.684	0.24
330.894	0.23
331.105	0.25
331.315	0.28
331.526	0.18
331.736	0.37
331.947	0.29
332.157	0.25
332.367	0.14
332.578	0.32
332.788	0.32
332.999	0.28
333.209	0.24
333.419	0.17
333.629	0.29
333.84	0.28
334.05	0.26
334.26	0.33
334.47	0.29
334.681	0.28
334.891	0.19
335.101	0.25
335.311	0.34
335.521	0.25
335.732	0.17
335.942	0.33
336.152	0.27
336.362	0.24
336.572	0.25
336.782	0.29
336.992	0.27
337.202	0.24
337.412	0.23
337.622	0.28
337.832	0.23
338.042	0.24
338.252	0.22
338.462	0.24
338.672	0.29
338.882	0.19
339.092	0.21
339.302	0.32
339.511	0.32
339.721	0.3
339.931	0.18
340.141	0.35
340.351	0.34
340.561	0.25
340.77	0.27
340.98	0.26
341.19	0.29
341.4	0.23
341.609	0.2
341.819	0.23
342.029	0.17
342.238	0.23
342.448	0.21
342.658	0.31
342.867	0.27
343.077	0.26
343.286	0.24
343.496	0.29
343.706	0.33
343.915	0.19
344.125	0.24
344.334	0.27
344.544	0.21
344.753	0.21
344.963	0.23
345.172	0.22
345.381	0.18
345.591	0.14
345.8	0.25
346.01	0.34
346.219	0.3
346.428	0.1
346.638	0.21
346.847	0.27
347.056	0.33
347.266	0.22
347.475	0.22
347.684	0.33
347.893	0.27
348.103	0.25
348.312	0.22
348.521	0.26
348.73	0.26
348.94	0.22
349.149	0.21
349.358	0.28
349.567	0.2
349.776	0.2
349.985	0.18
350.194	0.32
350.403	0.35
350.612	0.17
350.821	0.17
351.03	0.25
351.239	0.19
351.448	0.2
351.657	0.22
351.866	0.37
352.075	0.26
352.284	0.27
352.493	0.16
352.702	0.36
352.911	0.26
353.12	0.25
353.329	0.24
353.538	0.25
353.746	0.21
353.955	0.23
354.164	0.29
354.373	0.23
354.582	0.32
354.79	0.25
354.999	0.29
355.208	0.23
355.416	0.32
355.625	0.23
355.834	0.2
356.042	0.3
356.251	0.25
356.46	0.17
356.668	0.28
356.877	0.39
357.085	0.3
357.294	0.13
357.503	0.23
357.711	0.27
357.92	0.42
358.128	0.29
358.337	0.22
358.545	0.25
358.754	0.23
358.962	0.28
359.17	0.2
359.379	0.27
359.587	0.24
359.796	0.21
360.004	0.29
360.212	0.31
360.421	0.34
360.629	0.2
360.837	0.21
361.046	0.28
361.254	0.42
361.462	0.26
361.67	0.24
361.879	0.31
362.087	0.28
362.295	0.23
362.503	0.19
362.711	0.19
362.92	0.22
363.128	0.21
363.336	0.17
363.544	0.19
363.752	0.22
363.96	0.2
364.168	0.22
364.376	0.27
364.584	0.28
364.792	0.32
365	0.28
365.208	0.27
365.416	0.26
365.624	0.31
365.832	0.21
366.04	0.34
366.248	0.24
366.456	0.24
366.664	0.23
366.872	0.24
367.079	0.32
367.287	0.22
367.495	0.22
367.703	0.21
367.911	0.2
368.118	0.23
368.326	0.24
368.534	0.2
368.742	0.28
368.949	0.17
369.157	0.23
369.365	0.29
369.572	0.21
369.78	0.23
369.988	0.29
370.195	0.25
370.403	0.32
370.61	0.2
370.818	0.23
371.026	0.35
371.233	0.23
371.441	0.22
371.648	0.22
371.856	0.27
372.063	0.29
372.271	0.23
372.478	0.19
372.685	0.18
372.893	0.32
373.1	0.24
373.308	0.24
373.515	0.35
373.722	0.3
373.93	0.25
374.137	0.23
374.344	0.36
374.552	0.32
374.759	0.33
374.966	0.29
375.173	0.24
375.381	0.33
375.588	0.26
375.795	0.18
376.002	0.27
376.209	0.22
376.417	0.24
376.624	0.23
376.831	0.25
377.038	0.25
377.245	0.16
377.452	0.27
377.659	0.27
377.866	0.23
378.073	0.21
378.28	0.22
378.487	0.32
378.694	0.29
378.901	0.26
379.108	0.21
379.315	0.32
379.522	0.41
379.729	0.3
379.936	0.24
380.143	0.26
380.35	0.28
380.557	0.22
380.763	0.27
380.97	0.24
381.177	0.32
381.384	0.25
381.591	0.26
381.797	0.3
382.004	0.29
382.211	0.25
382.418	0.2
382.624	0.28
382.831	0.32
383.038	0.25
383.244	0.26
383.451	0.3
383.658	0.26
383.864	0.22
384.071	0.19
384.277	0.37
384.484	0.25
384.69	0.33
384.897	0.22
385.103	0.25
385.31	0.21
385.516	0.21
385.723	0.24
385.929	0.28
386.136	0.26
386.342	0.29
386.549	0.24
386.755	0.34
386.961	0.36
387.168	0.27
387.374	0.29
387.58	0.31
387.787	0.3
387.993	0.3
388.199	0.25
388.406	0.2
388.612	0.28
388.818	0.24
389.024	0.27
389.231	0.3
389.437	0.35
389.643	0.29
389.849	0.27
390.055	0.32
390.261	0.26
390.467	0.33
390.674	0.26
390.88	0.27
391.086	0.29
391.292	0.19
391.498	0.32
391.704	0.28
391.91	0.29
392.116	0.25
392.322	0.19
392.528	0.34
392.734	0.3
392.94	0.29
393.146	0.24
393.352	0.32
393.557	0.26
393.763	0.3
393.969	0.34
394.175	0.3
394.381	0.33
394.587	0.29
394.792	0.29
394.998	0.36
395.204	0.32
395.41	0.27
395.615	0.27
395.821	0.37
396.027	0.37
396.233	0.3
396.438	0.33
396.644	0.34
396.85	0.33
397.055	0.29
397.261	0.34
397.466	0.34
397.672	0.35
397.878	0.36
398.083	0.38
398.289	0.28
398.494	0.33
398.7	0.38
398.905	0.21
399.111	0.46
399.316	0.28
399.522	0.38
399.727	0.33
399.932	0.34
400.138	0.32
400.343	0.34
400.549	0.32
400.754	0.32
400.959	0.37
401.165	0.31
401.37	0.32
401.575	0.47
401.78	0.38
401.986	0.34
402.191	0.33
402.396	0.36
402.601	0.4
402.807	0.36
403.012	0.4
403.217	0.44
403.422	0.38
403.627	0.44
403.832	0.42
404.037	0.48
404.243	0.38
404.448	0.39
404.653	0.38
404.858	0.47
405.063	0.43
405.268	0.48
405.473	0.4
405.678	0.38
405.883	0.62
406.088	0.51
406.293	0.38
406.498	0.46
406.703	0.49
406.907	0.47
407.112	0.39
407.317	0.52
407.522	0.54
407.727	0.5
407.932	0.53
408.136	0.62
408.341	0.53
408.546	0.55
408.751	0.49
408.956	0.57
409.16	0.67
409.365	0.57
409.57	0.54
409.774	0.62
409.979	0.64
410.184	0.61
410.388	0.58
410.593	0.73
410.798	0.66
411.002	0.69
411.207	0.77
411.411	0.79
411.616	0.65
411.82	0.76
412.025	0.81
412.229	0.81
412.434	0.91
412.638	0.86
412.843	0.87
413.047	0.88
413.252	0.9
413.456	0.88
413.66	0.98
413.865	1.04
414.069	1.1
414.273	1.05
414.478	1.02
414.682	1.11
414.886	1.2
415.091	1.09
415.295	1.12
415.499	1.38
415.703	1.26
415.908	1.41
416.112	1.23
416.316	1.52
416.52	1.45
416.724	1.47
416.929	1.49
417.133	1.75
417.337	1.58
417.541	1.67
417.745	1.76
417.949	1.83
418.153	1.92
418.357	1.85
418.561	2.18
418.765	2.09
418.969	2.19
419.173	2.23
419.377	2.22
419.581	2.54
419.785	2.49
419.989	2.5
420.193	2.59
420.397	2.68
420.601	2.83
420.804	2.9
421.008	2.78
421.212	2.99
421.416	2.97
421.62	3.06
421.823	3.08
422.027	3.28
422.231	3.2
422.435	3.25
422.638	3.33
422.842	3.38
423.046	3.53
423.249	3.64
423.453	3.68
423.657	3.81
423.86	3.9
424.064	4.04
424.268	4.2
424.471	4.18
424.675	4.4
424.878	4.39
425.082	4.52
425.285	4.84
425.489	4.69
425.692	4.77
425.896	4.91
426.099	5.09
426.303	5.24
426.506	5.32
426.71	5.53
426.913	5.88
427.116	6.02
427.32	6
427.523	5.96
427.726	6.28
427.93	6.42
428.133	6.61
428.336	6.74
428.54	6.92
428.743	7.23
428.946	7.34
429.149	7.33
429.353	7.42
429.556	7.46
429.759	7.49
429.962	7.72
430.165	7.92
430.368	7.56
430.571	7.6
430.775	7.69
430.978	7.69
431.181	7.67
431.384	7.83
431.587	7.92
431.79	8.24
431.993	8.21
432.196	8.58
432.399	8.94
432.602	9.01
432.805	9.12
433.008	9.6
433.211	9.46
433.414	9.88
433.616	9.96
433.819	9.79
434.022	10.1
434.225	10.23
434.428	10.2
434.631	10.68
434.833	10.44
435.036	10.7
435.239	10.98
435.442	10.92
435.645	11.12
435.847	11.2
436.05	11.53
436.253	11.68
436.455	11.75
436.658	11.53
436.861	11.88
437.063	12
437.266	12.05
437.468	12.47
437.671	12.76
437.874	12.73
438.076	12.51
438.279	12.93
438.481	13.05
438.684	13.71
438.886	13.31
439.089	13.71
439.291	13.71
439.494	14.05
439.696	14.17
439.899	14.8
440.101	15.09
440.303	15.26
440.506	16.02
440.708	15.72
440.91	16
441.113	16.13
441.315	16.49
441.517	16.13
441.72	16.72
441.922	16.34
442.124	16.29
442.326	16.68
442.529	16.88
442.731	16.83
442.933	17.12
443.135	16.75
443.337	17.07
443.539	17.46
443.742	17.03
443.944	17.85
444.146	17.53
444.348	17.46
444.55	17.48
444.752	17.65
444.954	17.58
445.156	17.52
445.358	17.93
445.56	18.1
445.762	18
445.964	18.44
446.166	18.18
446.368	18.24
446.57	18.23
446.772	17.78
446.974	17.66
447.175	17.9
447.377	17.55
447.579	18.21
447.781	17.79
447.983	17.54
448.184	17.08
448.386	17.63
448.588	17.02
448.79	17.08
448.991	17.36
449.193	17.33
449.395	16.76
449.597	16.41
449.798	16.26
450	15.94
450.202	15.92
450.403	16.03
450.605	15.84
450.806	15.45
451.008	15.43
451.21	15.14
451.411	14.9
451.613	14.02
451.814	14.25
452.016	14.33
452.217	13.64
452.419	13.69
452.62	13.32
452.821	13.01
453.023	12.94
453.224	12.58
453.426	12.2
453.627	11.34
453.828	11.64
454.03	11.72
454.231	11.56
454.432	11.5
454.634	11.2
454.835	10.86
455.036	10.9
455.238	10.37
455.439	10.18
455.64	9.93
455.841	9.85
456.042	9.94
456.244	9.51
456.445	9.3
456.646	9
456.847	8.93
457.048	8.85
457.249	8.8
457.45	8.69
457.651	8.03
457.852	7.96
458.054	7.67
458.255	7.46
458.456	7.67
458.657	7.47
458.858	7.03
459.058	6.93
459.259	7.01
459.46	6.7
459.661	6.71
459.862	6.76
460.063	6.56
460.264	6.5
460.465	6.24
460.666	6.25
460.866	5.97
461.067	5.74
461.268	5.8
461.469	5.68
461.67	5.63
461.87	5.46
462.071	5.38
462.272	5.36
462.473	5.28
462.673	5.52
462.874	5.4
463.075	5.43
463.275	5.29
463.476	5.37
463.676	5.28
463.877	5.12
464.078	5.18
464.278	5.2
464.479	5.05
464.679	4.97
464.88	4.94
465.08	4.94
465.281	4.75
465.481	4.44
465.682	4.37
465.882	4.35
466.083	4.27
466.283	4.18
466.483	4.05
466.684	3.9
466.884	3.75
467.085	3.87
467.285	3.87
467.485	3.83
467.686	3.7
467.886	3.58
468.086	3.54
468.286	3.57
468.487	3.6
468.687	3.38
468.887	3.33
469.087	3.51
469.287	3.5
469.488	3.21
469.688	3.34
469.888	3.4
470.088	3.23
470.288	3.22
470.488	3.21
470.688	3.01
470.888	2.96
471.088	2.82
471.288	3.01
471.488	2.93
471.688	2.88
471.888	2.75
472.088	3
472.288	2.82
472.488	2.76
472.688	2.72
472.888	2.75
473.088	2.72
473.288	2.59
473.488	2.56
473.688	2.73
473.887	2.61
474.087	2.5
474.287	2.54
474.487	2.52
474.687	2.5
474.886	2.48
475.086	2.39
475.286	2.38
475.486	2.38
475.685	2.33
475.885	2.27
476.085	2.4
476.284	2.37
476.484	2.33
476.684	2.32
476.883	2.38
477.083	2.3
477.282	2.25
477.482	2.29
477.681	2.26
477.881	2.17
478.08	2.14
478.28	2.17
478.479	2.19
478.679	2.25
478.878	2.13
479.078	2.08
479.277	2.14
479.477	2.11
479.676	2.08
479.875	2.06
480.075	2.03
480.274	2.08
480.473	2.14
480.673	2.08
480.872	2.13
481.071	2.12
481.271	2.11
481.47	2.07
481.669	2.09
481.868	2.05
482.067	2.07
482.267	1.97
482.466	1.97
482.665	1.99
482.864	2.02
483.063	1.99
483.262	2.09
483.461	2.11
483.661	2.11
483.86	2.01
484.059	2.08
484.258	2.09
484.457	2.07
484.656	2.09
484.855	2.16
485.054	1.98
485.253	2.05
485.452	2.01
485.651	2.11
485.849	2.09
486.048	2.06
486.247	2.09
486.446	2.12
486.645	2.07
486.844	2.13
487.043	2.08
487.241	2.16
487.44	2.11
487.639	2.15
487.838	2.18
488.037	2.16
488.235	2.27
488.434	2.18
488.633	2.09
488.831	2.26
489.03	2.28
489.229	2.27
489.427	2.23
489.626	2.29
489.825	2.36
490.023	2.34
490.222	2.3
490.42	2.37
490.619	2.39
490.817	2.37
491.016	2.4
491.214	2.43
491.413	2.44
491.611	2.38
491.81	2.4
492.008	2.52
492.207	2.58
492.405	2.59
492.604	2.52
492.802	2.54
493	2.62
493.199	2.6
493.397	2.65
493.595	2.72
493.794	2.67
493.992	2.82
494.19	2.8
494.388	2.83
494.587	2.79
494.785	2.79
494.983	2.73
495.181	2.89
495.379	2.93
495.578	2.98
495.776	2.98
495.974	2.93
496.172	2.99
496.37	3.07
496.568	3.08
496.766	3.09
496.964	3.16
497.162	3.19
497.36	3.23
497.558	3.25
497.756	3.3
497.954	3.27
498.152	3.35
498.35	3.45
498.548	3.33
498.746	3.42
498.944	3.4
499.142	3.48
499.34	3.51
499.538	3.63
499.736	3.51
499.933	3.66
500.131	3.61
500.329	3.8
500.527	3.74
500.725	3.82
500.922	3.92
501.12	3.86
501.318	3.94
501.516	3.9
501.713	3.98
501.911	3.98
502.109	3.92
502.306	4.04
502.504	4.01
502.701	4.05
