Data from Apollo_Calib_20240827__AbsoluteIrradiance__879__13-48-01-158.txt Node

Date: Wed Aug 28 13:48:01 BST 2024
User: biology
Spectrometer: FLMT08252
Trigger mode: 0
Integration Time (sec): 5.000000E-1
Scans to average: 5
Electric dark correction enabled: true
Nonlinearity correction enabled: false
Boxcar width: 0
XAxis mode: Wavelengths
Number of Pixels in Spectrum: 3648
>>>>>Begin Spectral Data<<<<<
179.588	-0
179.809	-0
180.03	-0
180.251	-0
180.473	-0
180.694	0
180.915	0
181.136	-0
181.357	0
181.578	-0
181.799	-0
182.02	-0
182.241	0
182.462	-0
182.683	0
182.904	-0
183.125	-0
183.346	0
183.567	0
183.788	0
184.009	0
184.23	0
184.451	0
184.672	0
184.892	0
185.113	0
185.334	0
185.555	0
185.776	0
185.996	0
186.217	0
186.438	0
186.659	0
186.879	0
187.1	0
187.321	0
187.541	0
187.762	0
187.983	0
188.203	0
188.424	0
188.644	0
188.865	0
189.086	0
189.306	0
189.527	0
189.747	0
189.968	0
190.188	0
190.409	0
190.629	0
190.849	0
191.07	0
191.29	0
191.511	0
191.731	0
191.951	0
192.172	0
192.392	0
192.612	0
192.833	0
193.053	0
193.273	0
193.493	0
193.714	0
193.934	0
194.154	0
194.374	0
194.594	0
194.815	0
195.035	0
195.255	0
195.475	0
195.695	0
195.915	0
196.135	0
196.355	0
196.575	0
196.795	0
197.015	0
197.235	0
197.455	0
197.675	0
197.895	0
198.115	0
198.335	0
198.555	0
198.775	0
198.995	0
199.214	0
199.434	0
199.654	0
199.874	0
200.094	4.75
200.313	2.38
200.533	2.12
200.753	1.69
200.973	3.57
201.192	3.7
201.412	1.25
201.632	1.85
201.851	3.47
202.071	1.9
202.291	1.36
202.51	1.06
202.73	2.76
202.95	2
203.169	1.16
203.389	1.93
203.608	2.13
203.828	1.93
204.047	1.14
204.267	2.26
204.486	2.3
204.706	2.32
204.925	1.83
205.145	1.29
205.364	2.03
205.583	2.83
205.803	1.02
206.022	1.08
206.242	1.76
206.461	2.04
206.68	1.29
206.9	1.45
207.119	2.47
207.338	2.27
207.557	1.13
207.777	1.11
207.996	1.35
208.215	2.14
208.434	1.23
208.654	1
208.873	1.31
209.092	2.07
209.311	1.08
209.53	1.13
209.749	1.41
209.968	1.24
210.187	0.79
210.407	0.62
210.626	1.02
210.845	1.48
211.064	1.12
211.283	0.79
211.502	1.76
211.721	1.23
211.94	0.86
212.159	1.29
212.377	1.27
212.596	1.51
212.815	1.24
213.034	1.07
213.253	1.26
213.472	1.38
213.691	0.83
213.91	0.61
214.128	0.66
214.347	1.48
214.566	0.46
214.785	0.63
215.003	1.3
215.222	1.18
215.441	0.8
215.66	0.5
215.878	0.81
216.097	1.18
216.316	0.66
216.534	0.95
216.753	1.16
216.972	0.92
217.19	0.77
217.409	0.67
217.627	0.89
217.846	0.81
218.064	0.75
218.283	0.68
218.501	1.34
218.72	1.13
218.938	0.68
219.157	0.56
219.375	0.91
219.594	1.26
219.812	0.53
220.031	0.53
220.249	1.38
220.467	1.15
220.686	0.51
220.904	0.43
221.122	0.69
221.341	1.32
221.559	0.57
221.777	0.49
221.995	0.85
222.214	1.06
222.432	0.51
222.65	0.87
222.868	0.78
223.086	0.85
223.305	0.74
223.523	0.51
223.741	1.21
223.959	0.68
224.177	0.38
224.395	0.56
224.613	0.83
224.831	1.01
225.049	0.48
225.267	0.65
225.485	0.78
225.703	0.66
225.921	0.62
226.139	0.47
226.357	0.68
226.575	0.79
226.793	0.42
227.011	1.56
227.229	0.78
227.447	0.9
227.665	0.51
227.883	0.33
228.1	0.69
228.318	0.75
228.536	0.27
228.754	0.46
228.972	0.69
229.189	0.71
229.407	0.59
229.625	0.6
229.843	0.94
230.06	0.73
230.278	0.61
230.496	0.56
230.713	0.71
230.931	0.78
231.149	0.46
231.366	0.28
231.584	0.48
231.801	1.09
232.019	0.49
232.236	0.22
232.454	0.43
232.671	0.52
232.889	0.47
233.106	0.37
233.324	0.61
233.541	0.54
233.759	0.56
233.976	0.41
234.194	0.55
234.411	0.59
234.628	0.36
234.846	0.41
235.063	0.59
235.28	0.51
235.498	0.51
235.715	0.28
235.932	0.76
236.149	0.5
236.367	0.35
236.584	0.58
236.801	0.57
237.018	0.61
237.236	0.53
237.453	0.29
237.67	0.69
237.887	0.52
238.104	0.5
238.321	0.31
238.538	0.46
238.755	0.64
238.973	0.25
239.19	0.51
239.407	0.62
239.624	0.51
239.841	0.35
240.058	0.37
240.275	0.58
240.492	0.52
240.709	0.47
240.925	0.44
241.142	0.47
241.359	0.28
241.576	0.32
241.793	0.41
242.01	0.42
242.227	0.67
242.444	0.58
242.66	0.65
242.877	0.54
243.094	0.38
243.311	0.43
243.527	0.33
243.744	0.47
243.961	0.61
244.178	0.4
244.394	0.35
244.611	0.59
244.828	0.83
245.044	0.3
245.261	0.38
245.477	0.5
245.694	0.59
245.911	0.42
246.127	0.45
246.344	0.77
246.56	0.48
246.777	0.39
246.993	0.44
247.21	0.51
247.426	0.47
247.643	0.31
247.859	0.3
248.076	0.31
248.292	0.65
248.508	0.25
248.725	0.41
248.941	0.45
249.157	0.54
249.374	0.34
249.59	0.33
249.806	0.41
250.023	0.44
250.239	0.29
250.455	0.31
250.671	0.41
250.888	0.51
251.104	0.46
251.32	0.3
251.536	0.35
251.752	0.41
251.969	0.42
252.185	0.39
252.401	0.62
252.617	0.44
252.833	0.38
253.049	0.37
253.265	0.46
253.481	0.46
253.697	0.31
253.913	0.3
254.129	0.41
254.345	0.46
254.561	0.39
254.777	0.37
254.993	0.47
255.209	0.44
255.425	0.33
255.641	0.25
255.857	0.51
256.073	0.4
256.288	0.26
256.504	0.29
256.72	0.44
256.936	0.57
257.152	0.32
257.367	0.26
257.583	0.35
257.799	0.5
258.015	0.33
258.23	0.32
258.446	0.6
258.662	0.3
258.877	0.28
259.093	0.26
259.309	0.47
259.524	0.44
259.74	0.24
259.955	0.23
260.171	0.37
260.387	0.38
260.602	0.4
260.818	0.44
261.033	0.29
261.249	0.46
261.464	0.35
261.68	0.3
261.895	0.43
262.11	0.39
262.326	0.35
262.541	0.25
262.757	0.54
262.972	0.46
263.187	0.34
263.403	0.39
263.618	0.48
263.833	0.42
264.049	0.31
264.264	0.33
264.479	0.38
264.694	0.5
264.91	0.3
265.125	0.31
265.34	0.43
265.555	0.57
265.77	0.41
265.986	0.33
266.201	0.46
266.416	0.45
266.631	0.31
266.846	0.25
267.061	0.49
267.276	0.48
267.491	0.13
267.706	0.38
267.921	0.43
268.136	0.45
268.351	0.34
268.566	0.22
268.781	0.47
268.996	0.47
269.211	0.29
269.426	0.31
269.641	0.34
269.856	0.47
270.071	0.26
270.285	0.19
270.5	0.46
270.715	0.49
270.93	0.29
271.145	0.33
271.359	0.41
271.574	0.35
271.789	0.31
272.004	0.29
272.218	0.27
272.433	0.37
272.648	0.31
272.862	0.44
273.077	0.34
273.292	0.35
273.506	0.22
273.721	0.28
273.936	0.41
274.15	0.46
274.365	0.27
274.579	0.37
274.794	0.43
275.008	0.43
275.223	0.2
275.437	0.26
275.652	0.44
275.866	0.42
276.081	0.3
276.295	0.36
276.509	0.38
276.724	0.31
276.938	0.27
277.153	0.3
277.367	0.38
277.581	0.21
277.796	0.33
278.01	0.18
278.224	0.41
278.438	0.49
278.653	0.24
278.867	0.27
279.081	0.36
279.295	0.3
279.51	0.33
279.724	0.19
279.938	0.36
280.152	0.34
280.366	0.24
280.58	0.29
280.794	0.49
281.008	0.4
281.222	0.33
281.437	0.46
281.651	0.35
281.865	0.4
282.079	0.26
282.293	0.13
282.507	0.24
282.721	0.3
282.935	0.26
283.148	0.22
283.362	0.31
283.576	0.23
283.79	0.25
284.004	0.22
284.218	0.4
284.432	0.24
284.646	0.35
284.859	0.24
285.073	0.29
285.287	0.35
285.501	0.28
285.714	0.26
285.928	0.29
286.142	0.36
286.356	0.24
286.569	0.25
286.783	0.36
286.997	0.35
287.21	0.31
287.424	0.28
287.637	0.26
287.851	0.28
288.065	0.31
288.278	0.29
288.492	0.26
288.705	0.23
288.919	0.31
289.132	0.14
289.346	0.36
289.559	0.18
289.773	0.19
289.986	0.28
290.2	0.24
290.413	0.31
290.626	0.27
290.84	0.28
291.053	0.29
291.267	0.35
291.48	0.26
291.693	0.27
291.906	0.23
292.12	0.26
292.333	0.22
292.546	0.25
292.76	0.37
292.973	0.26
293.186	0.31
293.399	0.21
293.612	0.38
293.826	0.32
294.039	0.23
294.252	0.21
294.465	0.37
294.678	0.33
294.891	0.27
295.104	0.2
295.317	0.23
295.53	0.29
295.743	0.21
295.956	0.24
296.169	0.42
296.382	0.35
296.595	0.24
296.808	0.22
297.021	0.37
297.234	0.31
297.447	0.27
297.66	0.27
297.873	0.35
298.086	0.34
298.299	0.24
298.511	0.18
298.724	0.32
298.937	0.2
299.15	0.21
299.363	0.24
299.575	0.33
299.788	0.29
300.001	0.21
300.213	0.18
300.426	0.22
300.639	0.22
300.852	0.19
301.064	0.3
301.277	0.36
301.489	0.32
301.702	0.27
301.915	0.24
302.127	0.28
302.34	0.28
302.552	0.3
302.765	0.22
302.977	0.32
303.19	0.2
303.402	0.21
303.615	0.18
303.827	0.25
304.04	0.28
304.252	0.29
304.464	0.22
304.677	0.4
304.889	0.34
305.102	0.22
305.314	0.16
305.526	0.26
305.739	0.29
305.951	0.22
306.163	0.23
306.375	0.38
306.588	0.23
306.8	0.17
307.012	0.22
307.224	0.27
307.436	0.36
307.649	0.14
307.861	0.27
308.073	0.31
308.285	0.25
308.497	0.21
308.709	0.21
308.921	0.31
309.133	0.32
309.346	0.26
309.558	0.27
309.77	0.33
309.982	0.37
310.194	0.24
310.406	0.16
310.617	0.41
310.829	0.26
311.041	0.31
311.253	0.21
311.465	0.29
311.677	0.25
311.889	0.23
312.101	0.2
312.313	0.36
312.524	0.36
312.736	0.21
312.948	0.25
313.16	0.38
313.372	0.3
313.583	0.28
313.795	0.28
314.007	0.28
314.218	0.31
314.43	0.27
314.642	0.19
314.853	0.17
315.065	0.3
315.277	0.2
315.488	0.29
315.7	0.34
315.912	0.32
316.123	0.26
316.335	0.24
316.546	0.41
316.758	0.24
316.969	0.22
317.181	0.27
317.392	0.26
317.604	0.32
317.815	0.21
318.026	0.24
318.238	0.21
318.449	0.27
318.661	0.17
318.872	0.17
319.083	0.23
319.295	0.31
319.506	0.23
319.717	0.25
319.929	0.32
320.14	0.31
320.351	0.27
320.562	0.25
320.774	0.28
320.985	0.21
321.196	0.22
321.407	0.17
321.618	0.33
321.829	0.27
322.041	0.29
322.252	0.25
322.463	0.3
322.674	0.28
322.885	0.21
323.096	0.25
323.307	0.29
323.518	0.31
323.729	0.23
323.94	0.23
324.151	0.24
324.362	0.29
324.573	0.25
324.784	0.22
324.995	0.34
325.206	0.29
325.417	0.26
325.628	0.19
325.838	0.26
326.049	0.23
326.26	0.29
326.471	0.21
326.682	0.28
326.892	0.26
327.103	0.15
327.314	0.24
327.525	0.3
327.735	0.28
327.946	0.27
328.157	0.24
328.368	0.31
328.578	0.26
328.789	0.28
328.999	0.25
329.21	0.23
329.421	0.31
329.631	0.23
329.842	0.2
330.052	0.31
330.263	0.34
330.473	0.25
330.684	0.2
330.894	0.25
331.105	0.26
331.315	0.24
331.526	0.21
331.736	0.38
331.947	0.27
332.157	0.3
332.367	0.21
332.578	0.31
332.788	0.35
332.999	0.3
333.209	0.21
333.419	0.23
333.629	0.29
333.84	0.29
334.05	0.21
334.26	0.34
334.47	0.27
334.681	0.31
334.891	0.21
335.101	0.31
335.311	0.38
335.521	0.22
335.732	0.17
335.942	0.36
336.152	0.27
336.362	0.29
336.572	0.26
336.782	0.33
336.992	0.2
337.202	0.23
337.412	0.2
337.622	0.25
337.832	0.23
338.042	0.21
338.252	0.22
338.462	0.25
338.672	0.25
338.882	0.29
339.092	0.24
339.302	0.35
339.511	0.31
339.721	0.24
339.931	0.19
340.141	0.34
340.351	0.32
340.561	0.26
340.77	0.28
340.98	0.31
341.19	0.28
341.4	0.27
341.609	0.19
341.819	0.22
342.029	0.14
342.238	0.3
342.448	0.22
342.658	0.31
342.867	0.21
343.077	0.27
343.286	0.28
343.496	0.21
343.706	0.35
343.915	0.18
344.125	0.25
344.334	0.24
344.544	0.17
344.753	0.24
344.963	0.23
345.172	0.2
345.381	0.24
345.591	0.18
345.8	0.24
346.01	0.26
346.219	0.31
346.428	0.14
346.638	0.27
346.847	0.25
347.056	0.34
347.266	0.23
347.475	0.28
347.684	0.28
347.893	0.26
348.103	0.29
348.312	0.23
348.521	0.25
348.73	0.23
348.94	0.24
349.149	0.2
349.358	0.27
349.567	0.21
349.776	0.18
349.985	0.21
350.194	0.3
350.403	0.28
350.612	0.14
350.821	0.22
351.03	0.24
351.239	0.18
351.448	0.19
351.657	0.2
351.866	0.36
352.075	0.28
352.284	0.26
352.493	0.2
352.702	0.36
352.911	0.25
353.12	0.21
353.329	0.22
353.538	0.27
353.746	0.28
353.955	0.17
354.164	0.26
354.373	0.2
354.582	0.28
354.79	0.26
354.999	0.24
355.208	0.23
355.416	0.33
355.625	0.16
355.834	0.25
356.042	0.31
356.251	0.24
356.46	0.2
356.668	0.25
356.877	0.32
357.085	0.29
357.294	0.15
357.503	0.22
357.711	0.26
357.92	0.45
358.128	0.28
358.337	0.21
358.545	0.28
358.754	0.22
358.962	0.3
359.17	0.22
359.379	0.27
359.587	0.24
359.796	0.2
360.004	0.35
360.212	0.28
360.421	0.32
360.629	0.26
360.837	0.21
361.046	0.33
361.254	0.44
361.462	0.26
361.67	0.25
361.879	0.27
362.087	0.33
362.295	0.24
362.503	0.22
362.711	0.22
362.92	0.22
363.128	0.21
363.336	0.19
363.544	0.18
363.752	0.27
363.96	0.2
364.168	0.22
364.376	0.26
364.584	0.26
364.792	0.3
365	0.26
365.208	0.28
365.416	0.3
365.624	0.3
365.832	0.25
366.04	0.37
366.248	0.27
366.456	0.28
366.664	0.26
366.872	0.26
367.079	0.25
367.287	0.26
367.495	0.27
367.703	0.23
367.911	0.24
368.118	0.24
368.326	0.21
368.534	0.19
368.742	0.34
368.949	0.14
369.157	0.21
369.365	0.28
369.572	0.26
369.78	0.2
369.988	0.27
370.195	0.28
370.403	0.31
370.61	0.19
370.818	0.25
371.026	0.34
371.233	0.21
371.441	0.27
371.648	0.21
371.856	0.25
372.063	0.27
372.271	0.24
372.478	0.19
372.685	0.25
372.893	0.3
373.1	0.28
373.308	0.23
373.515	0.38
373.722	0.29
373.93	0.24
374.137	0.25
374.344	0.34
374.552	0.33
374.759	0.29
374.966	0.27
375.173	0.22
375.381	0.33
375.588	0.23
375.795	0.16
376.002	0.24
376.209	0.25
376.417	0.19
376.624	0.24
376.831	0.27
377.038	0.24
377.245	0.18
377.452	0.23
377.659	0.26
377.866	0.28
378.073	0.26
378.28	0.28
378.487	0.36
378.694	0.32
378.901	0.27
379.108	0.23
379.315	0.32
379.522	0.36
379.729	0.29
379.936	0.24
380.143	0.29
380.35	0.31
380.557	0.28
380.763	0.29
380.97	0.29
381.177	0.26
381.384	0.29
381.591	0.26
381.797	0.33
382.004	0.29
382.211	0.31
382.418	0.23
382.624	0.32
382.831	0.34
383.038	0.24
383.244	0.27
383.451	0.32
383.658	0.35
383.864	0.24
384.071	0.17
384.277	0.39
384.484	0.26
384.69	0.38
384.897	0.24
385.103	0.25
385.31	0.23
385.516	0.23
385.723	0.22
385.929	0.24
386.136	0.26
386.342	0.25
386.549	0.24
386.755	0.36
386.961	0.31
387.168	0.27
387.374	0.26
387.58	0.37
387.787	0.32
387.993	0.28
388.199	0.29
388.406	0.22
388.612	0.28
388.818	0.23
389.024	0.21
389.231	0.33
389.437	0.44
389.643	0.32
389.849	0.28
390.055	0.3
390.261	0.29
390.467	0.33
390.674	0.23
390.88	0.33
391.086	0.38
391.292	0.24
391.498	0.33
391.704	0.33
391.91	0.29
392.116	0.31
392.322	0.19
392.528	0.35
392.734	0.27
392.94	0.3
393.146	0.33
393.352	0.32
393.557	0.27
393.763	0.32
393.969	0.32
394.175	0.32
394.381	0.32
394.587	0.26
394.792	0.31
394.998	0.4
395.204	0.34
395.41	0.29
395.615	0.31
395.821	0.34
396.027	0.37
396.233	0.3
396.438	0.3
396.644	0.41
396.85	0.36
397.055	0.33
397.261	0.33
397.466	0.41
397.672	0.35
397.878	0.41
398.083	0.37
398.289	0.29
398.494	0.38
398.7	0.34
398.905	0.25
399.111	0.46
399.316	0.27
399.522	0.4
399.727	0.32
399.932	0.31
400.138	0.35
400.343	0.38
400.549	0.31
400.754	0.38
400.959	0.38
401.165	0.33
401.37	0.37
401.575	0.5
401.78	0.38
401.986	0.35
402.191	0.36
402.396	0.34
402.601	0.42
402.807	0.43
403.012	0.41
403.217	0.46
403.422	0.44
403.627	0.45
403.832	0.42
404.037	0.49
404.243	0.39
404.448	0.34
404.653	0.43
404.858	0.47
405.063	0.44
405.268	0.44
405.473	0.38
405.678	0.4
405.883	0.66
406.088	0.51
406.293	0.4
406.498	0.45
406.703	0.53
406.907	0.44
407.112	0.42
407.317	0.51
407.522	0.58
407.727	0.44
407.932	0.54
408.136	0.69
408.341	0.54
408.546	0.59
408.751	0.53
408.956	0.57
409.16	0.65
409.365	0.57
409.57	0.6
409.774	0.63
409.979	0.67
410.184	0.7
410.388	0.62
410.593	0.8
410.798	0.75
411.002	0.68
411.207	0.8
411.411	0.82
411.616	0.72
411.82	0.81
412.025	0.84
412.229	0.81
412.434	0.99
412.638	0.87
412.843	0.92
413.047	0.97
413.252	0.92
413.456	1.01
413.66	1.04
413.865	1.02
414.069	1.2
414.273	1.09
414.478	1.09
414.682	1.22
414.886	1.16
415.091	1.14
415.295	1.18
415.499	1.44
415.703	1.29
415.908	1.41
416.112	1.27
416.316	1.6
416.52	1.55
416.724	1.49
416.929	1.54
417.133	1.83
417.337	1.7
417.541	1.69
417.745	1.8
417.949	1.92
418.153	1.92
418.357	1.93
418.561	2.2
418.765	2.12
418.969	2.27
419.173	2.32
419.377	2.32
419.581	2.49
419.785	2.53
419.989	2.56
420.193	2.75
420.397	2.82
420.601	2.96
420.804	3.08
421.008	2.92
421.212	3.12
421.416	3.09
421.62	3.15
421.823	3.25
422.027	3.41
422.231	3.36
422.435	3.29
422.638	3.45
422.842	3.56
423.046	3.63
423.249	3.76
423.453	3.83
423.657	4.06
423.86	4.03
424.064	4.16
424.268	4.28
424.471	4.34
424.675	4.53
424.878	4.59
425.082	4.67
425.285	5.04
425.489	4.9
425.692	5.06
425.896	5.03
426.099	5.28
426.303	5.48
426.506	5.41
426.71	5.71
426.913	5.93
427.116	6.17
427.32	6.03
427.523	6.22
427.726	6.48
427.93	6.68
428.133	6.89
428.336	7.04
428.54	7.15
428.743	7.44
428.946	7.64
429.149	7.73
429.353	7.67
429.556	7.8
429.759	7.88
429.962	7.96
430.165	8.13
430.368	7.7
430.571	7.91
430.775	7.83
430.978	7.86
431.181	7.88
431.384	8.04
431.587	8.15
431.79	8.51
431.993	8.3
432.196	8.66
432.399	9.16
432.602	9.37
432.805	9.28
433.008	9.88
433.211	9.68
433.414	10.09
433.616	10.06
433.819	10.08
434.022	10.25
434.225	10.43
434.428	10.41
434.631	10.88
434.833	10.6
435.036	10.97
435.239	11.08
435.442	11.18
435.645	11.3
435.847	11.35
436.05	11.71
436.253	11.91
436.455	11.85
436.658	11.68
436.861	12.08
437.063	12.21
437.266	12.17
437.468	12.53
437.671	12.79
437.874	12.79
438.076	12.62
438.279	13.24
438.481	13.33
438.684	13.95
438.886	13.58
439.089	13.73
439.291	13.89
439.494	14.2
439.696	14.38
439.899	14.95
440.101	15.4
440.303	15.48
440.506	16.28
440.708	15.96
440.91	16.17
441.113	16.38
441.315	16.76
441.517	16.4
441.72	16.98
441.922	16.55
442.124	16.55
442.326	16.88
442.529	17.2
442.731	17.08
442.933	17.36
443.135	17.17
443.337	17.11
443.539	17.6
443.742	17.25
443.944	18.05
444.146	17.89
444.348	17.76
444.55	17.64
444.752	17.88
444.954	17.86
445.156	17.84
445.358	18.12
445.56	18.4
445.762	18.11
445.964	18.58
446.166	18.36
446.368	18.27
446.57	18.39
446.772	17.96
446.974	17.85
447.175	18.14
447.377	17.72
447.579	18.06
447.781	17.96
447.983	17.6
448.184	17.26
448.386	17.6
448.588	17.14
448.79	17.11
448.991	17.52
449.193	17.43
449.395	16.72
449.597	16.34
449.798	16.33
450	15.85
450.202	15.84
450.403	15.87
450.605	15.75
450.806	15.4
451.008	15.34
451.21	15.14
451.411	14.57
451.613	13.88
451.814	14.13
452.016	14.16
452.217	13.44
452.419	13.42
452.62	13.21
452.821	12.76
453.023	12.72
453.224	12.38
453.426	11.95
453.627	11.28
453.828	11.47
454.03	11.43
454.231	11.43
454.432	11.22
454.634	10.99
454.835	10.62
455.036	10.56
455.238	10.25
455.439	10.03
455.64	9.63
455.841	9.53
456.042	9.58
456.244	9.24
456.445	9
456.646	8.79
456.847	8.72
457.048	8.6
457.249	8.6
457.45	8.44
457.651	7.91
457.852	7.69
458.054	7.47
458.255	7.28
458.456	7.46
458.657	7.36
458.858	6.79
459.058	6.78
459.259	6.86
459.46	6.57
459.661	6.52
459.862	6.62
460.063	6.34
460.264	6.36
460.465	6.07
460.666	6.2
460.866	5.89
461.067	5.67
461.268	5.6
461.469	5.6
461.67	5.49
461.87	5.4
462.071	5.32
462.272	5.25
462.473	5.17
462.673	5.4
462.874	5.22
463.075	5.13
463.275	5.25
463.476	5.27
463.676	5.18
463.877	4.99
464.078	4.93
464.278	5.14
464.479	4.92
464.679	4.84
464.88	4.7
465.08	4.75
465.281	4.57
465.481	4.36
465.682	4.26
465.882	4.31
466.083	4.18
466.283	4.07
466.483	3.98
466.684	3.77
466.884	3.68
467.085	3.72
467.285	3.76
467.485	3.68
467.686	3.63
467.886	3.61
468.086	3.43
468.286	3.43
468.487	3.48
468.687	3.3
468.887	3.29
469.087	3.42
469.287	3.3
469.488	3.08
469.688	3.21
469.888	3.27
470.088	3.2
470.288	3.11
470.488	3.07
470.688	2.93
470.888	2.94
471.088	2.72
471.288	2.83
471.488	2.82
471.688	2.82
471.888	2.69
472.088	2.91
472.288	2.82
472.488	2.68
472.688	2.58
472.888	2.71
473.088	2.62
473.288	2.57
473.488	2.43
473.688	2.66
473.887	2.53
474.087	2.42
474.287	2.49
474.487	2.39
474.687	2.5
474.886	2.36
475.086	2.36
475.286	2.31
475.486	2.39
475.685	2.27
475.885	2.24
476.085	2.32
476.284	2.32
476.484	2.3
476.684	2.25
476.883	2.35
477.083	2.21
477.282	2.16
477.482	2.16
477.681	2.17
477.881	2.12
478.08	2.16
478.28	2.09
478.479	2.13
478.679	2.19
478.878	2.09
479.078	2.06
479.277	2.11
479.477	2.09
479.676	2.05
479.875	2.02
480.075	1.99
480.274	2.06
480.473	2.09
480.673	2.08
480.872	2.09
481.071	2.09
481.271	2.07
481.47	2.03
481.669	2.04
481.868	2.01
482.067	2.03
482.267	1.95
482.466	1.98
482.665	1.96
482.864	2.02
483.063	1.96
483.262	2.03
483.461	2.08
483.661	2.08
483.86	2.05
484.059	2.08
484.258	2.05
484.457	2.04
484.656	2.09
484.855	2.11
485.054	1.97
485.253	1.98
485.452	1.98
485.651	2.04
485.849	2.05
486.048	2
486.247	2.04
486.446	2.12
486.645	2.03
486.844	2.08
487.043	2.08
487.241	2.12
487.44	2.11
487.639	2.12
487.838	2.1
488.037	2.12
488.235	2.2
488.434	2.16
488.633	2.05
488.831	2.26
489.03	2.25
489.229	2.22
489.427	2.21
489.626	2.31
489.825	2.32
490.023	2.31
490.222	2.28
490.42	2.33
490.619	2.36
490.817	2.36
491.016	2.33
491.214	2.41
491.413	2.43
491.611	2.34
491.81	2.39
492.008	2.49
492.207	2.52
492.405	2.54
492.604	2.47
492.802	2.57
493	2.62
493.199	2.61
493.397	2.65
493.595	2.72
493.794	2.66
493.992	2.79
494.19	2.79
494.388	2.81
494.587	2.78
494.785	2.78
494.983	2.74
495.181	2.86
495.379	2.95
495.578	2.99
495.776	2.97
495.974	2.9
496.172	2.92
496.37	3.07
496.568	3.1
496.766	3.05
496.964	3.16
497.162	3.16
497.36	3.2
497.558	3.2
497.756	3.34
497.954	3.29
498.152	3.31
498.35	3.4
498.548	3.34
498.746	3.4
498.944	3.39
499.142	3.43
499.34	3.49
499.538	3.59
499.736	3.56
499.933	3.63
500.131	3.68
500.329	3.76
500.527	3.71
500.725	3.84
500.922	3.9
501.12	3.89
501.318	3.92
501.516	3.91
501.713	3.96
501.911	3.95
502.109	3.92
502.306	4.06
