Data from Apollo_Calib_20240827__AbsoluteIrradiance__876__13-45-01-966.txt Node

Date: Wed Aug 28 13:45:01 BST 2024
User: biology
Spectrometer: FLMT08252
Trigger mode: 0
Integration Time (sec): 5.000000E-1
Scans to average: 5
Electric dark correction enabled: true
Nonlinearity correction enabled: false
Boxcar width: 0
XAxis mode: Wavelengths
Number of Pixels in Spectrum: 3648
>>>>>Begin Spectral Data<<<<<
179.588	-0
179.809	-0
180.03	-0
180.251	-0
180.473	-0
180.694	0
180.915	0
181.136	-0
181.357	0
181.578	-0
181.799	-0
182.02	-0
182.241	-0
182.462	-0
182.683	0
182.904	-0
183.125	-0
183.346	0
183.567	0
183.788	0
184.009	0
184.23	0
184.451	0
184.672	0
184.892	0
185.113	0
185.334	0
185.555	0
185.776	0
185.996	0
186.217	0
186.438	0
186.659	0
186.879	0
187.1	0
187.321	0
187.541	0
187.762	0
187.983	0
188.203	0
188.424	0
188.644	0
188.865	0
189.086	0
189.306	0
189.527	0
189.747	0
189.968	0
190.188	0
190.409	0
190.629	0
190.849	0
191.07	0
191.29	0
191.511	0
191.731	0
191.951	0
192.172	0
192.392	0
192.612	0
192.833	0
193.053	0
193.273	0
193.493	0
193.714	0
193.934	0
194.154	0
194.374	0
194.594	0
194.815	0
195.035	0
195.255	0
195.475	0
195.695	0
195.915	0
196.135	0
196.355	0
196.575	0
196.795	0
197.015	0
197.235	0
197.455	0
197.675	0
197.895	0
198.115	0
198.335	0
198.555	0
198.775	0
198.995	0
199.214	0
199.434	0
199.654	0
199.874	0
200.094	4.16
200.313	2.34
200.533	2.25
200.753	1.25
200.973	3.82
201.192	3.25
201.412	0.9
201.632	1.92
201.851	3.42
202.071	2.29
202.291	1.66
202.51	1.5
202.73	2.76
202.95	1.53
203.169	0.88
203.389	1.8
203.608	2.17
203.828	2.06
204.047	1.35
204.267	2.1
204.486	2.27
204.706	2.13
204.925	1.67
205.145	1.3
205.364	2.77
205.583	2.62
205.803	1.43
206.022	0.88
206.242	1.75
206.461	1.83
206.68	1.12
206.9	1.55
207.119	2.62
207.338	2.31
207.557	1.38
207.777	1.48
207.996	1.56
208.215	2.11
208.434	0.99
208.654	1
208.873	1.52
209.092	2.12
209.311	1.03
209.53	1.19
209.749	1.23
209.968	0.83
210.187	1.05
210.407	0.49
210.626	1.22
210.845	1.68
211.064	0.98
211.283	0.75
211.502	1.48
211.721	1.13
211.94	0.87
212.159	1.34
212.377	1.38
212.596	1.46
212.815	1.22
213.034	1
213.253	1.37
213.472	1.39
213.691	1.02
213.91	0.84
214.128	0.8
214.347	1.6
214.566	0.51
214.785	0.33
215.003	1.31
215.222	1.3
215.441	0.9
215.66	0.43
215.878	0.98
216.097	1.28
216.316	0.85
216.534	0.79
216.753	1.11
216.972	0.78
217.19	0.73
217.409	0.59
217.627	0.87
217.846	0.89
218.064	1.11
218.283	0.52
218.501	1.29
218.72	1.17
218.938	0.61
219.157	0.63
219.375	1.28
219.594	1.22
219.812	0.55
220.031	0.49
220.249	1.22
220.467	1.33
220.686	0.47
220.904	0.65
221.122	0.65
221.341	1.37
221.559	0.72
221.777	0.47
221.995	0.99
222.214	1.06
222.432	0.71
222.65	0.83
222.868	0.72
223.086	0.88
223.305	0.91
223.523	0.5
223.741	1.33
223.959	0.77
224.177	0.35
224.395	0.56
224.613	0.9
224.831	1.09
225.049	0.4
225.267	0.59
225.485	0.74
225.703	0.48
225.921	0.58
226.139	0.5
226.357	0.97
226.575	0.9
226.793	0.4
227.011	1.62
227.229	0.85
227.447	0.92
227.665	0.52
227.883	0.36
228.1	0.68
228.318	0.75
228.536	0.28
228.754	0.46
228.972	0.7
229.189	0.8
229.407	0.5
229.625	0.54
229.843	1.07
230.06	0.85
230.278	0.49
230.496	0.57
230.713	0.7
230.931	0.88
231.149	0.46
231.366	0.21
231.584	0.57
231.801	1.08
232.019	0.47
232.236	0.32
232.454	0.44
232.671	0.74
232.889	0.38
233.106	0.39
233.324	0.63
233.541	0.48
233.759	0.58
233.976	0.33
234.194	0.64
234.411	0.51
234.628	0.44
234.846	0.48
235.063	0.55
235.28	0.6
235.498	0.45
235.715	0.34
235.932	0.71
236.149	0.54
236.367	0.43
236.584	0.56
236.801	0.48
237.018	0.74
237.236	0.64
237.453	0.36
237.67	0.73
237.887	0.57
238.104	0.46
238.321	0.31
238.538	0.35
238.755	0.72
238.973	0.28
239.19	0.46
239.407	0.6
239.624	0.59
239.841	0.32
240.058	0.37
240.275	0.43
240.492	0.56
240.709	0.51
240.925	0.42
241.142	0.53
241.359	0.4
241.576	0.42
241.793	0.37
242.01	0.6
242.227	0.65
242.444	0.56
242.66	0.66
242.877	0.48
243.094	0.43
243.311	0.45
243.527	0.4
243.744	0.59
243.961	0.55
244.178	0.36
244.394	0.35
244.611	0.59
244.828	0.68
245.044	0.28
245.261	0.42
245.477	0.47
245.694	0.52
245.911	0.33
246.127	0.48
246.344	0.66
246.56	0.56
246.777	0.34
246.993	0.43
247.21	0.57
247.426	0.52
247.643	0.44
247.859	0.38
248.076	0.39
248.292	0.69
248.508	0.37
248.725	0.43
248.941	0.51
249.157	0.66
249.374	0.29
249.59	0.4
249.806	0.48
250.023	0.58
250.239	0.33
250.455	0.37
250.671	0.44
250.888	0.47
251.104	0.44
251.32	0.31
251.536	0.4
251.752	0.34
251.969	0.45
252.185	0.43
252.401	0.66
252.617	0.52
252.833	0.39
253.049	0.36
253.265	0.39
253.481	0.38
253.697	0.35
253.913	0.33
254.129	0.57
254.345	0.5
254.561	0.35
254.777	0.28
254.993	0.54
255.209	0.39
255.425	0.37
255.641	0.3
255.857	0.46
256.073	0.54
256.288	0.26
256.504	0.33
256.72	0.4
256.936	0.61
257.152	0.37
257.367	0.36
257.583	0.39
257.799	0.5
258.015	0.29
258.23	0.31
258.446	0.63
258.662	0.31
258.877	0.38
259.093	0.23
259.309	0.38
259.524	0.49
259.74	0.38
259.955	0.21
260.171	0.38
260.387	0.39
260.602	0.37
260.818	0.39
261.033	0.33
261.249	0.41
261.464	0.32
261.68	0.22
261.895	0.46
262.11	0.48
262.326	0.37
262.541	0.19
262.757	0.5
262.972	0.49
263.187	0.37
263.403	0.41
263.618	0.5
263.833	0.42
264.049	0.31
264.264	0.36
264.479	0.45
264.694	0.53
264.91	0.25
265.125	0.34
265.34	0.46
265.555	0.62
265.77	0.38
265.986	0.32
266.201	0.43
266.416	0.5
266.631	0.31
266.846	0.28
267.061	0.53
267.276	0.52
267.491	0.21
267.706	0.36
267.921	0.41
268.136	0.4
268.351	0.38
268.566	0.26
268.781	0.46
268.996	0.44
269.211	0.3
269.426	0.3
269.641	0.31
269.856	0.41
270.071	0.3
270.285	0.18
270.5	0.42
270.715	0.43
270.93	0.33
271.145	0.41
271.359	0.47
271.574	0.28
271.789	0.36
272.004	0.26
272.218	0.25
272.433	0.43
272.648	0.3
272.862	0.43
273.077	0.38
273.292	0.4
273.506	0.26
273.721	0.25
273.936	0.39
274.15	0.51
274.365	0.25
274.579	0.3
274.794	0.41
275.008	0.48
275.223	0.26
275.437	0.29
275.652	0.42
275.866	0.36
276.081	0.32
276.295	0.35
276.509	0.36
276.724	0.35
276.938	0.31
277.153	0.37
277.367	0.38
277.581	0.32
277.796	0.24
278.01	0.19
278.224	0.39
278.438	0.48
278.653	0.25
278.867	0.27
279.081	0.42
279.295	0.3
279.51	0.32
279.724	0.19
279.938	0.37
280.152	0.36
280.366	0.29
280.58	0.36
280.794	0.47
281.008	0.34
281.222	0.39
281.437	0.53
281.651	0.39
281.865	0.45
282.079	0.28
282.293	0.16
282.507	0.3
282.721	0.33
282.935	0.3
283.148	0.21
283.362	0.29
283.576	0.23
283.79	0.3
284.004	0.22
284.218	0.38
284.432	0.25
284.646	0.34
284.859	0.26
285.073	0.28
285.287	0.32
285.501	0.24
285.714	0.29
285.928	0.37
286.142	0.33
286.356	0.24
286.569	0.21
286.783	0.43
286.997	0.41
287.21	0.32
287.424	0.3
287.637	0.3
287.851	0.24
288.065	0.33
288.278	0.26
288.492	0.32
288.705	0.3
288.919	0.33
289.132	0.15
289.346	0.32
289.559	0.2
289.773	0.18
289.986	0.27
290.2	0.33
290.413	0.37
290.626	0.27
290.84	0.27
291.053	0.33
291.267	0.4
291.48	0.28
291.693	0.23
291.906	0.23
292.12	0.29
292.333	0.27
292.546	0.25
292.76	0.44
292.973	0.33
293.186	0.34
293.399	0.25
293.612	0.32
293.826	0.29
294.039	0.28
294.252	0.24
294.465	0.34
294.678	0.31
294.891	0.26
295.104	0.21
295.317	0.24
295.53	0.34
295.743	0.27
295.956	0.26
296.169	0.36
296.382	0.33
296.595	0.28
296.808	0.21
297.021	0.36
297.234	0.34
297.447	0.27
297.66	0.27
297.873	0.37
298.086	0.31
298.299	0.18
298.511	0.16
298.724	0.32
298.937	0.22
299.15	0.2
299.363	0.25
299.575	0.32
299.788	0.35
300.001	0.25
300.213	0.25
300.426	0.26
300.639	0.24
300.852	0.18
301.064	0.33
301.277	0.36
301.489	0.32
301.702	0.28
301.915	0.25
302.127	0.26
302.34	0.32
302.552	0.28
302.765	0.17
302.977	0.33
303.19	0.22
303.402	0.25
303.615	0.25
303.827	0.27
304.04	0.28
304.252	0.29
304.464	0.27
304.677	0.37
304.889	0.35
305.102	0.23
305.314	0.24
305.526	0.32
305.739	0.31
305.951	0.23
306.163	0.26
306.375	0.38
306.588	0.26
306.8	0.25
307.012	0.2
307.224	0.25
307.436	0.35
307.649	0.16
307.861	0.24
308.073	0.34
308.285	0.27
308.497	0.19
308.709	0.24
308.921	0.28
309.133	0.32
309.346	0.25
309.558	0.22
309.77	0.28
309.982	0.34
310.194	0.28
310.406	0.21
310.617	0.41
310.829	0.31
311.041	0.3
311.253	0.16
311.465	0.27
311.677	0.24
311.889	0.25
312.101	0.23
312.313	0.36
312.524	0.33
312.736	0.19
312.948	0.18
313.16	0.37
313.372	0.29
313.583	0.28
313.795	0.21
314.007	0.25
314.218	0.38
314.43	0.29
314.642	0.23
314.853	0.2
315.065	0.32
315.277	0.26
315.488	0.28
315.7	0.38
315.912	0.29
316.123	0.24
316.335	0.25
316.546	0.36
316.758	0.27
316.969	0.26
317.181	0.25
317.392	0.23
317.604	0.36
317.815	0.17
318.026	0.23
318.238	0.25
318.449	0.26
318.661	0.21
318.872	0.18
319.083	0.25
319.295	0.32
319.506	0.22
319.717	0.24
319.929	0.3
320.14	0.24
320.351	0.26
320.562	0.19
320.774	0.31
320.985	0.27
321.196	0.23
321.407	0.17
321.618	0.33
321.829	0.28
322.041	0.32
322.252	0.26
322.463	0.32
322.674	0.31
322.885	0.21
323.096	0.27
323.307	0.28
323.518	0.31
323.729	0.26
323.94	0.25
324.151	0.25
324.362	0.29
324.573	0.28
324.784	0.2
324.995	0.29
325.206	0.3
325.417	0.24
325.628	0.23
325.838	0.26
326.049	0.31
326.26	0.32
326.471	0.2
326.682	0.3
326.892	0.26
327.103	0.22
327.314	0.24
327.525	0.35
327.735	0.31
327.946	0.28
328.157	0.18
328.368	0.3
328.578	0.26
328.789	0.27
328.999	0.26
329.21	0.2
329.421	0.33
329.631	0.26
329.842	0.22
330.052	0.28
330.263	0.29
330.473	0.27
330.684	0.21
330.894	0.28
331.105	0.28
331.315	0.23
331.526	0.19
331.736	0.37
331.947	0.26
332.157	0.24
332.367	0.15
332.578	0.32
332.788	0.38
332.999	0.32
333.209	0.23
333.419	0.2
333.629	0.29
333.84	0.26
334.05	0.25
334.26	0.35
334.47	0.3
334.681	0.28
334.891	0.25
335.101	0.29
335.311	0.39
335.521	0.26
335.732	0.23
335.942	0.31
336.152	0.27
336.362	0.23
336.572	0.27
336.782	0.31
336.992	0.26
337.202	0.22
337.412	0.25
337.622	0.31
337.832	0.22
338.042	0.24
338.252	0.18
338.462	0.21
338.672	0.28
338.882	0.26
339.092	0.23
339.302	0.39
339.511	0.3
339.721	0.22
339.931	0.15
340.141	0.34
340.351	0.31
340.561	0.32
340.77	0.3
340.98	0.31
341.19	0.28
341.4	0.24
341.609	0.19
341.819	0.23
342.029	0.18
342.238	0.26
342.448	0.24
342.658	0.32
342.867	0.27
343.077	0.22
343.286	0.24
343.496	0.28
343.706	0.32
343.915	0.18
344.125	0.27
344.334	0.27
344.544	0.19
344.753	0.21
344.963	0.21
345.172	0.23
345.381	0.21
345.591	0.21
345.8	0.23
346.01	0.36
346.219	0.33
346.428	0.12
346.638	0.21
346.847	0.22
347.056	0.35
347.266	0.22
347.475	0.26
347.684	0.33
347.893	0.34
348.103	0.29
348.312	0.24
348.521	0.26
348.73	0.25
348.94	0.29
349.149	0.23
349.358	0.23
349.567	0.24
349.776	0.2
349.985	0.24
350.194	0.29
350.403	0.32
350.612	0.15
350.821	0.22
351.03	0.26
351.239	0.13
351.448	0.25
351.657	0.21
351.866	0.38
352.075	0.26
352.284	0.24
352.493	0.21
352.702	0.33
352.911	0.28
353.12	0.21
353.329	0.23
353.538	0.29
353.746	0.28
353.955	0.22
354.164	0.25
354.373	0.22
354.582	0.3
354.79	0.27
354.999	0.25
355.208	0.28
355.416	0.36
355.625	0.18
355.834	0.25
356.042	0.26
356.251	0.22
356.46	0.19
356.668	0.28
356.877	0.39
357.085	0.31
357.294	0.16
357.503	0.25
357.711	0.23
357.92	0.41
358.128	0.21
358.337	0.22
358.545	0.26
358.754	0.24
358.962	0.29
359.17	0.23
359.379	0.28
359.587	0.25
359.796	0.2
360.004	0.29
360.212	0.27
360.421	0.36
360.629	0.22
360.837	0.24
361.046	0.34
361.254	0.34
361.462	0.25
361.67	0.18
361.879	0.26
362.087	0.33
362.295	0.29
362.503	0.22
362.711	0.2
362.92	0.24
363.128	0.22
363.336	0.22
363.544	0.14
363.752	0.25
363.96	0.25
364.168	0.22
364.376	0.27
364.584	0.29
364.792	0.32
365	0.27
365.208	0.26
365.416	0.29
365.624	0.29
365.832	0.2
366.04	0.32
366.248	0.27
366.456	0.28
366.664	0.26
366.872	0.3
367.079	0.22
367.287	0.26
367.495	0.28
367.703	0.25
367.911	0.23
368.118	0.25
368.326	0.28
368.534	0.18
368.742	0.33
368.949	0.18
369.157	0.24
369.365	0.31
369.572	0.21
369.78	0.2
369.988	0.35
370.195	0.26
370.403	0.3
370.61	0.2
370.818	0.25
371.026	0.39
371.233	0.2
371.441	0.25
371.648	0.27
371.856	0.28
372.063	0.27
372.271	0.2
372.478	0.21
372.685	0.24
372.893	0.29
373.1	0.22
373.308	0.21
373.515	0.37
373.722	0.37
373.93	0.23
374.137	0.32
374.344	0.35
374.552	0.34
374.759	0.29
374.966	0.28
375.173	0.27
375.381	0.34
375.588	0.28
375.795	0.21
376.002	0.27
376.209	0.23
376.417	0.24
376.624	0.32
376.831	0.27
377.038	0.23
377.245	0.18
377.452	0.22
377.659	0.29
377.866	0.23
378.073	0.27
378.28	0.22
378.487	0.34
378.694	0.33
378.901	0.24
379.108	0.21
379.315	0.36
379.522	0.4
379.729	0.29
379.936	0.25
380.143	0.27
380.35	0.31
380.557	0.28
380.763	0.29
380.97	0.27
381.177	0.29
381.384	0.3
381.591	0.29
381.797	0.28
382.004	0.33
382.211	0.32
382.418	0.23
382.624	0.35
382.831	0.33
383.038	0.28
383.244	0.26
383.451	0.3
383.658	0.32
383.864	0.27
384.071	0.21
384.277	0.33
384.484	0.24
384.69	0.33
384.897	0.25
385.103	0.27
385.31	0.24
385.516	0.27
385.723	0.24
385.929	0.3
386.136	0.28
386.342	0.3
386.549	0.23
386.755	0.35
386.961	0.34
387.168	0.23
387.374	0.26
387.58	0.36
387.787	0.29
387.993	0.32
388.199	0.25
388.406	0.28
388.612	0.25
388.818	0.28
389.024	0.23
389.231	0.32
389.437	0.4
389.643	0.29
389.849	0.27
390.055	0.32
390.261	0.32
390.467	0.36
390.674	0.27
390.88	0.27
391.086	0.31
391.292	0.24
391.498	0.34
391.704	0.32
391.91	0.32
392.116	0.32
392.322	0.22
392.528	0.35
392.734	0.31
392.94	0.28
393.146	0.27
393.352	0.32
393.557	0.29
393.763	0.33
393.969	0.37
394.175	0.29
394.381	0.34
394.587	0.28
394.792	0.35
394.998	0.36
395.204	0.37
395.41	0.27
395.615	0.31
395.821	0.38
396.027	0.39
396.233	0.26
396.438	0.35
396.644	0.39
396.85	0.35
397.055	0.32
397.261	0.37
397.466	0.35
397.672	0.33
397.878	0.4
398.083	0.35
398.289	0.35
398.494	0.4
398.7	0.36
398.905	0.26
399.111	0.49
399.316	0.31
399.522	0.32
399.727	0.33
399.932	0.39
400.138	0.36
400.343	0.4
400.549	0.34
400.754	0.38
400.959	0.39
401.165	0.35
401.37	0.41
401.575	0.49
401.78	0.4
401.986	0.33
402.191	0.33
402.396	0.37
402.601	0.42
402.807	0.41
403.012	0.37
403.217	0.47
403.422	0.43
403.627	0.47
403.832	0.4
404.037	0.45
404.243	0.5
404.448	0.39
404.653	0.39
404.858	0.5
405.063	0.52
405.268	0.4
405.473	0.4
405.678	0.43
405.883	0.66
406.088	0.53
406.293	0.4
406.498	0.44
406.703	0.52
406.907	0.47
407.112	0.45
407.317	0.53
407.522	0.6
407.727	0.48
407.932	0.53
408.136	0.69
408.341	0.55
408.546	0.61
408.751	0.57
408.956	0.62
409.16	0.7
409.365	0.6
409.57	0.63
409.774	0.63
409.979	0.68
410.184	0.69
410.388	0.56
410.593	0.73
410.798	0.76
411.002	0.71
411.207	0.83
411.411	0.79
411.616	0.76
411.82	0.82
412.025	0.86
412.229	0.85
412.434	0.97
412.638	0.91
412.843	0.92
413.047	0.92
413.252	0.95
413.456	1
413.66	1.09
413.865	1.08
414.069	1.15
414.273	1.08
414.478	1.12
414.682	1.18
414.886	1.27
415.091	1.13
415.295	1.26
415.499	1.38
415.703	1.39
415.908	1.46
416.112	1.31
416.316	1.61
416.52	1.54
416.724	1.54
416.929	1.63
417.133	1.91
417.337	1.67
417.541	1.75
417.745	1.82
417.949	1.95
418.153	1.97
418.357	1.97
418.561	2.27
418.765	2.22
418.969	2.32
419.173	2.41
419.377	2.38
419.581	2.61
419.785	2.63
419.989	2.64
420.193	2.83
420.397	2.87
420.601	3.03
420.804	3.12
421.008	3.09
421.212	3.29
421.416	3.26
421.62	3.23
421.823	3.4
422.027	3.53
422.231	3.5
422.435	3.5
422.638	3.56
422.842	3.67
423.046	3.68
423.249	3.92
423.453	3.91
423.657	4.07
423.86	4.17
424.064	4.3
424.268	4.45
424.471	4.38
424.675	4.63
424.878	4.81
425.082	4.81
425.285	5.11
425.489	5.15
425.692	5.31
425.896	5.21
426.099	5.43
426.303	5.52
426.506	5.68
426.71	5.9
426.913	6.1
427.116	6.34
427.32	6.31
427.523	6.29
427.726	6.66
427.93	6.7
428.133	7.08
428.336	7.16
428.54	7.35
428.743	7.56
428.946	7.78
429.149	7.75
429.353	7.92
429.556	7.98
429.759	8
429.962	8.13
430.165	8.31
430.368	7.93
430.571	8.07
430.775	8.08
430.978	8.05
431.181	8.07
431.384	8.21
431.587	8.28
431.79	8.6
431.993	8.44
432.196	8.95
432.399	9.27
432.602	9.38
432.805	9.46
433.008	10.02
433.211	9.93
433.414	10.31
433.616	10.33
433.819	10.2
434.022	10.36
434.225	10.62
434.428	10.55
434.631	11.05
434.833	10.81
435.036	10.98
435.239	11.22
435.442	11.25
435.645	11.5
435.847	11.51
436.05	11.78
436.253	11.99
436.455	12.02
436.658	11.92
436.861	12.41
437.063	12.45
437.266	12.3
437.468	12.74
437.671	13.05
437.874	13.06
438.076	12.88
438.279	13.34
438.481	13.42
438.684	14.21
438.886	13.77
439.089	14.08
439.291	14.17
439.494	14.36
439.696	14.57
439.899	15.1
440.101	15.63
440.303	15.79
440.506	16.49
440.708	16.27
440.91	16.47
441.113	16.48
441.315	16.85
441.517	16.6
441.72	17.03
441.922	16.77
442.124	16.65
442.326	17.11
442.529	17.37
442.731	17.28
442.933	17.59
443.135	17.33
443.337	17.27
443.539	17.91
443.742	17.62
443.944	18.33
444.146	17.86
444.348	17.87
444.55	17.86
444.752	17.99
444.954	18.12
445.156	17.95
445.358	18.46
445.56	18.65
445.762	18.43
445.964	18.71
446.166	18.47
446.368	18.48
446.57	18.55
446.772	18.07
446.974	17.88
447.175	18.28
447.377	17.93
447.579	18.24
447.781	17.91
447.983	17.73
448.184	17.39
448.386	17.74
448.588	17.04
448.79	17.24
448.991	17.51
449.193	17.47
449.395	16.69
449.597	16.45
449.798	16.38
450	15.95
450.202	15.78
450.403	15.87
450.605	15.71
450.806	15.29
451.008	15.15
451.21	14.91
451.411	14.5
451.613	13.83
451.814	14.06
452.016	14.06
452.217	13.29
452.419	13.28
452.62	12.89
452.821	12.59
453.023	12.5
453.224	12.35
453.426	11.9
453.627	11.15
453.828	11.03
454.03	11.14
454.231	11.3
454.432	11.09
454.634	10.77
454.835	10.43
455.036	10.35
455.238	10.04
455.439	9.91
455.64	9.57
455.841	9.32
456.042	9.57
456.244	9.24
456.445	8.85
456.646	8.52
456.847	8.56
457.048	8.45
457.249	8.46
457.45	8.28
457.651	7.68
457.852	7.64
458.054	7.27
458.255	7.26
458.456	7.28
458.657	7.18
458.858	6.86
459.058	6.7
459.259	6.72
459.46	6.38
459.661	6.39
459.862	6.45
460.063	6.38
460.264	6.37
460.465	5.99
460.666	6.07
460.866	5.71
461.067	5.52
461.268	5.49
461.469	5.45
461.67	5.34
461.87	5.27
462.071	5.22
462.272	5.1
462.473	5.01
462.673	5.3
462.874	5.17
463.075	5.17
463.275	5.17
463.476	5.17
463.676	5.13
463.877	4.87
464.078	4.94
464.278	4.94
464.479	4.86
464.679	4.77
464.88	4.73
465.08	4.65
465.281	4.53
465.481	4.26
465.682	4.11
465.882	4.22
466.083	4.11
466.283	4
466.483	4.03
466.684	3.79
466.884	3.69
467.085	3.66
467.285	3.76
467.485	3.58
467.686	3.51
467.886	3.42
468.086	3.4
468.286	3.41
468.487	3.42
468.687	3.33
468.887	3.2
469.087	3.4
469.287	3.26
469.488	3.01
469.688	3.24
469.888	3.2
470.088	3.11
470.288	3.05
470.488	3.09
470.688	2.9
470.888	2.93
471.088	2.69
471.288	2.81
471.488	2.79
471.688	2.73
471.888	2.7
472.088	2.86
472.288	2.72
472.488	2.66
472.688	2.59
472.888	2.58
473.088	2.68
473.288	2.51
473.488	2.48
473.688	2.57
473.887	2.51
474.087	2.41
474.287	2.44
474.487	2.38
474.687	2.44
474.886	2.36
475.086	2.29
475.286	2.37
475.486	2.32
475.685	2.22
475.885	2.19
476.085	2.25
476.284	2.29
476.484	2.24
476.684	2.23
476.883	2.34
477.083	2.21
477.282	2.18
477.482	2.18
477.681	2.16
477.881	2.1
478.08	2.13
478.28	2.06
478.479	2.11
478.679	2.16
478.878	2.02
479.078	2.01
479.277	2.09
479.477	2.08
479.676	2.03
479.875	1.96
480.075	1.97
480.274	2.05
480.473	2.06
480.673	2.02
480.872	2.12
481.071	2.06
481.271	2.02
481.47	1.99
481.669	2
481.868	1.99
482.067	2.02
482.267	1.92
482.466	1.94
482.665	1.94
482.864	1.94
483.063	1.95
483.262	2.02
483.461	2.09
483.661	2.05
483.86	2
484.059	2.08
484.258	2.06
484.457	1.98
484.656	2.01
484.855	2.07
485.054	1.92
485.253	1.95
485.452	1.95
485.651	2.08
485.849	2.02
486.048	2.02
486.247	2.04
486.446	2.09
486.645	2.02
486.844	2.03
487.043	2.03
487.241	2.1
487.44	2.07
487.639	2.13
487.838	2.15
488.037	2.08
488.235	2.22
488.434	2.13
488.633	2.06
488.831	2.23
489.03	2.24
489.229	2.22
489.427	2.22
489.626	2.29
489.825	2.27
490.023	2.32
490.222	2.26
490.42	2.29
490.619	2.37
490.817	2.36
491.016	2.33
491.214	2.42
491.413	2.43
491.611	2.37
491.81	2.37
492.008	2.45
492.207	2.58
492.405	2.53
492.604	2.5
492.802	2.57
493	2.6
493.199	2.59
493.397	2.64
493.595	2.68
493.794	2.66
493.992	2.8
494.19	2.75
494.388	2.84
494.587	2.77
494.785	2.79
494.983	2.72
495.181	2.91
495.379	2.9
495.578	2.91
495.776	2.93
495.974	2.93
496.172	2.94
496.37	3.11
496.568	3.11
496.766	3.04
496.964	3.19
497.162	3.16
497.36	3.22
497.558	3.23
497.756	3.32
497.954	3.3
498.152	3.39
498.35	3.44
498.548	3.4
498.746	3.36
498.944	3.45
499.142	3.44
499.34	3.51
499.538	3.62
499.736	3.55
499.933	3.64
500.131	3.66
500.329	3.77
500.527	3.73
500.725	3.86
500.922	3.89
501.12	3.88
501.318	3.98
501.516	3.93
501.713	3.97
501.911	3.96
502.109	3.94
502.306	4.08
502.504	4.02
