Data from Apollo_Calib_20240827__AbsoluteIrradiance__862__13-31-00-397.txt Node

Date: Wed Aug 28 13:31:00 BST 2024
User: biology
Spectrometer: FLMT08252
Trigger mode: 0
Integration Time (sec): 5.000000E-1
Scans to average: 5
Electric dark correction enabled: true
Nonlinearity correction enabled: false
Boxcar width: 0
XAxis mode: Wavelengths
Number of Pixels in Spectrum: 3648
>>>>>Begin Spectral Data<<<<<
179.588	-0
179.809	-0
180.03	-0
180.251	-0
180.473	-0
180.694	0
180.915	0
181.136	-0
181.357	-0
181.578	-0
181.799	0
182.02	-0
182.241	-0
182.462	-0
182.683	0
182.904	-0
183.125	-0
183.346	0
183.567	0
183.788	0
184.009	0
184.23	0
184.451	0
184.672	0
184.892	0
185.113	0
185.334	0
185.555	0
185.776	0
185.996	0
186.217	0
186.438	0
186.659	0
186.879	0
187.1	0
187.321	0
187.541	0
187.762	0
187.983	0
188.203	0
188.424	0
188.644	0
188.865	0
189.086	0
189.306	0
189.527	0
189.747	0
189.968	0
190.188	0
190.409	0
190.629	0
190.849	0
191.07	0
191.29	0
191.511	0
191.731	0
191.951	0
192.172	0
192.392	0
192.612	0
192.833	0
193.053	0
193.273	0
193.493	0
193.714	0
193.934	0
194.154	0
194.374	0
194.594	0
194.815	0
195.035	0
195.255	0
195.475	0
195.695	0
195.915	0
196.135	0
196.355	0
196.575	0
196.795	0
197.015	0
197.235	0
197.455	0
197.675	0
197.895	0
198.115	0
198.335	0
198.555	0
198.775	0
198.995	0
199.214	0
199.434	0
199.654	0
199.874	0
200.094	4.4
200.313	2.12
200.533	2.24
200.753	1.45
200.973	4.05
201.192	3.3
201.412	1.55
201.632	2.39
201.851	3.6
202.071	1.75
202.291	1.26
202.51	1.25
202.73	2.86
202.95	1.86
203.169	1.11
203.389	1.88
203.608	2.41
203.828	1.65
204.047	1.24
204.267	1.91
204.486	1.79
204.706	2.35
204.925	1.67
205.145	1.54
205.364	2.49
205.583	2.81
205.803	1.2
206.022	1.33
206.242	1.94
206.461	2
206.68	1.45
206.9	1.68
207.119	2.76
207.338	2.58
207.557	1.19
207.777	1.31
207.996	1.42
208.215	2.21
208.434	0.89
208.654	0.96
208.873	1.53
209.092	2.18
209.311	1.19
209.53	1.42
209.749	1.3
209.968	1.17
210.187	1.19
210.407	0.71
210.626	1.37
210.845	1.4
211.064	1.13
211.283	0.91
211.502	1.61
211.721	1.1
211.94	0.97
212.159	1.36
212.377	1.74
212.596	1.81
212.815	1.52
213.034	1.35
213.253	1.37
213.472	1.34
213.691	1.09
213.91	0.75
214.128	0.8
214.347	1.49
214.566	0.58
214.785	0.56
215.003	1.36
215.222	1.3
215.441	0.98
215.66	0.51
215.878	0.94
216.097	1.28
216.316	0.6
216.534	0.72
216.753	1.01
216.972	0.78
217.19	0.85
217.409	0.62
217.627	0.78
217.846	0.94
218.064	1.05
218.283	0.7
218.501	1.34
218.72	1.2
218.938	0.66
219.157	0.58
219.375	1.11
219.594	1.19
219.812	0.54
220.031	0.52
220.249	1.21
220.467	1.2
220.686	0.61
220.904	0.67
221.122	0.75
221.341	1.47
221.559	0.74
221.777	0.43
221.995	0.8
222.214	1.03
222.432	0.62
222.65	0.74
222.868	0.68
223.086	0.71
223.305	0.87
223.523	0.61
223.741	1.21
223.959	0.72
224.177	0.41
224.395	0.44
224.613	0.74
224.831	0.86
225.049	0.59
225.267	0.63
225.485	0.78
225.703	0.67
225.921	0.48
226.139	0.48
226.357	0.75
226.575	0.94
226.793	0.51
227.011	1.57
227.229	0.84
227.447	1.06
227.665	0.59
227.883	0.3
228.1	0.62
228.318	0.84
228.536	0.3
228.754	0.51
228.972	0.8
229.189	0.8
229.407	0.52
229.625	0.6
229.843	0.9
230.06	0.84
230.278	0.53
230.496	0.62
230.713	0.71
230.931	0.88
231.149	0.5
231.366	0.33
231.584	0.61
231.801	1.07
232.019	0.41
232.236	0.31
232.454	0.49
232.671	0.74
232.889	0.44
233.106	0.41
233.324	0.64
233.541	0.5
233.759	0.51
233.976	0.34
234.194	0.51
234.411	0.65
234.628	0.36
234.846	0.52
235.063	0.45
235.28	0.57
235.498	0.67
235.715	0.38
235.932	0.77
236.149	0.65
236.367	0.38
236.584	0.5
236.801	0.51
237.018	0.62
237.236	0.6
237.453	0.31
237.67	0.6
237.887	0.48
238.104	0.51
238.321	0.33
238.538	0.46
238.755	0.77
238.973	0.29
239.19	0.49
239.407	0.69
239.624	0.58
239.841	0.42
240.058	0.41
240.275	0.58
240.492	0.47
240.709	0.44
240.925	0.39
241.142	0.56
241.359	0.36
241.576	0.32
241.793	0.36
242.01	0.51
242.227	0.66
242.444	0.57
242.66	0.55
242.877	0.48
243.094	0.49
243.311	0.41
243.527	0.4
243.744	0.66
243.961	0.6
244.178	0.3
244.394	0.44
244.611	0.56
244.828	0.67
245.044	0.3
245.261	0.37
245.477	0.5
245.694	0.57
245.911	0.39
246.127	0.42
246.344	0.67
246.56	0.52
246.777	0.4
246.993	0.46
247.21	0.55
247.426	0.43
247.643	0.38
247.859	0.48
248.076	0.33
248.292	0.77
248.508	0.31
248.725	0.43
248.941	0.54
249.157	0.63
249.374	0.41
249.59	0.48
249.806	0.44
250.023	0.66
250.239	0.29
250.455	0.4
250.671	0.48
250.888	0.46
251.104	0.56
251.32	0.35
251.536	0.46
251.752	0.41
251.969	0.46
252.185	0.48
252.401	0.58
252.617	0.47
252.833	0.31
253.049	0.45
253.265	0.47
253.481	0.41
253.697	0.35
253.913	0.3
254.129	0.48
254.345	0.45
254.561	0.35
254.777	0.26
254.993	0.56
255.209	0.49
255.425	0.34
255.641	0.25
255.857	0.52
256.073	0.44
256.288	0.25
256.504	0.24
256.72	0.43
256.936	0.59
257.152	0.36
257.367	0.28
257.583	0.45
257.799	0.56
258.015	0.31
258.23	0.35
258.446	0.6
258.662	0.43
258.877	0.28
259.093	0.33
259.309	0.44
259.524	0.45
259.74	0.24
259.955	0.28
260.171	0.43
260.387	0.47
260.602	0.44
260.818	0.43
261.033	0.28
261.249	0.43
261.464	0.33
261.68	0.23
261.895	0.47
262.11	0.51
262.326	0.33
262.541	0.25
262.757	0.47
262.972	0.45
263.187	0.37
263.403	0.42
263.618	0.46
263.833	0.42
264.049	0.32
264.264	0.29
264.479	0.36
264.694	0.57
264.91	0.27
265.125	0.35
265.34	0.47
265.555	0.6
265.77	0.37
265.986	0.25
266.201	0.5
266.416	0.43
266.631	0.31
266.846	0.26
267.061	0.47
267.276	0.42
267.491	0.25
267.706	0.39
267.921	0.43
268.136	0.41
268.351	0.35
268.566	0.26
268.781	0.47
268.996	0.49
269.211	0.34
269.426	0.26
269.641	0.33
269.856	0.44
270.071	0.27
270.285	0.21
270.5	0.48
270.715	0.5
270.93	0.3
271.145	0.44
271.359	0.43
271.574	0.31
271.789	0.31
272.004	0.29
272.218	0.37
272.433	0.41
272.648	0.34
272.862	0.4
273.077	0.39
273.292	0.38
273.506	0.28
273.721	0.36
273.936	0.38
274.15	0.41
274.365	0.28
274.579	0.39
274.794	0.39
275.008	0.47
275.223	0.22
275.437	0.3
275.652	0.45
275.866	0.37
276.081	0.3
276.295	0.37
276.509	0.32
276.724	0.34
276.938	0.31
277.153	0.33
277.367	0.36
277.581	0.29
277.796	0.28
278.01	0.21
278.224	0.42
278.438	0.49
278.653	0.23
278.867	0.23
279.081	0.21
279.295	0.34
279.51	0.28
279.724	0.26
279.938	0.35
280.152	0.42
280.366	0.23
280.58	0.37
280.794	0.46
281.008	0.39
281.222	0.39
281.437	0.52
281.651	0.36
281.865	0.4
282.079	0.27
282.293	0.17
282.507	0.27
282.721	0.27
282.935	0.28
283.148	0.2
283.362	0.33
283.576	0.29
283.79	0.29
284.004	0.23
284.218	0.39
284.432	0.29
284.646	0.28
284.859	0.29
285.073	0.28
285.287	0.35
285.501	0.27
285.714	0.28
285.928	0.35
286.142	0.36
286.356	0.33
286.569	0.24
286.783	0.4
286.997	0.38
287.21	0.26
287.424	0.3
287.637	0.27
287.851	0.29
288.065	0.39
288.278	0.25
288.492	0.3
288.705	0.29
288.919	0.35
289.132	0.19
289.346	0.37
289.559	0.25
289.773	0.19
289.986	0.31
290.2	0.25
290.413	0.4
290.626	0.29
290.84	0.24
291.053	0.27
291.267	0.4
291.48	0.24
291.693	0.3
291.906	0.24
292.12	0.32
292.333	0.22
292.546	0.21
292.76	0.39
292.973	0.31
293.186	0.34
293.399	0.24
293.612	0.35
293.826	0.31
294.039	0.27
294.252	0.25
294.465	0.36
294.678	0.31
294.891	0.31
295.104	0.21
295.317	0.28
295.53	0.32
295.743	0.27
295.956	0.27
296.169	0.36
296.382	0.35
296.595	0.25
296.808	0.22
297.021	0.4
297.234	0.38
297.447	0.29
297.66	0.26
297.873	0.34
298.086	0.34
298.299	0.2
298.511	0.22
298.724	0.3
298.937	0.24
299.15	0.24
299.363	0.23
299.575	0.36
299.788	0.3
300.001	0.24
300.213	0.24
300.426	0.28
300.639	0.22
300.852	0.22
301.064	0.32
301.277	0.4
301.489	0.33
301.702	0.3
301.915	0.27
302.127	0.3
302.34	0.33
302.552	0.28
302.765	0.2
302.977	0.3
303.19	0.21
303.402	0.25
303.615	0.24
303.827	0.3
304.04	0.25
304.252	0.32
304.464	0.25
304.677	0.42
304.889	0.3
305.102	0.27
305.314	0.22
305.526	0.3
305.739	0.33
305.951	0.21
306.163	0.26
306.375	0.39
306.588	0.31
306.8	0.22
307.012	0.15
307.224	0.25
307.436	0.33
307.649	0.2
307.861	0.25
308.073	0.31
308.285	0.28
308.497	0.17
308.709	0.22
308.921	0.33
309.133	0.37
309.346	0.21
309.558	0.22
309.77	0.35
309.982	0.4
310.194	0.31
310.406	0.19
310.617	0.4
310.829	0.3
311.041	0.34
311.253	0.22
311.465	0.24
311.677	0.29
311.889	0.29
312.101	0.22
312.313	0.31
312.524	0.38
312.736	0.17
312.948	0.26
313.16	0.37
313.372	0.33
313.583	0.3
313.795	0.26
314.007	0.29
314.218	0.34
314.43	0.26
314.642	0.27
314.853	0.16
315.065	0.33
315.277	0.25
315.488	0.29
315.7	0.33
315.912	0.28
316.123	0.24
316.335	0.21
316.546	0.42
316.758	0.24
316.969	0.27
317.181	0.26
317.392	0.32
317.604	0.38
317.815	0.17
318.026	0.24
318.238	0.25
318.449	0.34
318.661	0.18
318.872	0.2
319.083	0.21
319.295	0.28
319.506	0.2
319.717	0.23
319.929	0.27
320.14	0.26
320.351	0.25
320.562	0.22
320.774	0.29
320.985	0.29
321.196	0.24
321.407	0.15
321.618	0.32
321.829	0.3
322.041	0.3
322.252	0.25
322.463	0.29
322.674	0.3
322.885	0.21
323.096	0.23
323.307	0.26
323.518	0.28
323.729	0.27
323.94	0.23
324.151	0.24
324.362	0.32
324.573	0.24
324.784	0.21
324.995	0.33
325.206	0.29
325.417	0.23
325.628	0.2
325.838	0.25
326.049	0.26
326.26	0.24
326.471	0.18
326.682	0.32
326.892	0.24
327.103	0.21
327.314	0.27
327.525	0.35
327.735	0.28
327.946	0.23
328.157	0.2
328.368	0.36
328.578	0.3
328.789	0.3
328.999	0.27
329.21	0.22
329.421	0.3
329.631	0.27
329.842	0.21
330.052	0.27
330.263	0.33
330.473	0.33
330.684	0.22
330.894	0.26
331.105	0.27
331.315	0.3
331.526	0.2
331.736	0.35
331.947	0.3
332.157	0.28
332.367	0.22
332.578	0.31
332.788	0.35
332.999	0.31
333.209	0.26
333.419	0.19
333.629	0.3
333.84	0.29
334.05	0.25
334.26	0.38
334.47	0.27
334.681	0.3
334.891	0.21
335.101	0.34
335.311	0.37
335.521	0.27
335.732	0.25
335.942	0.31
336.152	0.26
336.362	0.27
336.572	0.28
336.782	0.33
336.992	0.25
337.202	0.24
337.412	0.25
337.622	0.33
337.832	0.26
338.042	0.26
338.252	0.22
338.462	0.26
338.672	0.29
338.882	0.22
339.092	0.26
339.302	0.39
339.511	0.29
339.721	0.25
339.931	0.2
340.141	0.32
340.351	0.37
340.561	0.29
340.77	0.33
340.98	0.32
341.19	0.27
341.4	0.23
341.609	0.19
341.819	0.26
342.029	0.18
342.238	0.29
342.448	0.25
342.658	0.34
342.867	0.24
343.077	0.28
343.286	0.23
343.496	0.28
343.706	0.31
343.915	0.23
344.125	0.26
344.334	0.24
344.544	0.17
344.753	0.22
344.963	0.16
345.172	0.2
345.381	0.24
345.591	0.23
345.8	0.25
346.01	0.3
346.219	0.33
346.428	0.1
346.638	0.23
346.847	0.26
347.056	0.32
347.266	0.23
347.475	0.26
347.684	0.37
347.893	0.3
348.103	0.3
348.312	0.2
348.521	0.26
348.73	0.3
348.94	0.25
349.149	0.23
349.358	0.23
349.567	0.23
349.776	0.19
349.985	0.24
350.194	0.33
350.403	0.33
350.612	0.16
350.821	0.2
351.03	0.3
351.239	0.2
351.448	0.25
351.657	0.27
351.866	0.38
352.075	0.28
352.284	0.32
352.493	0.2
352.702	0.29
352.911	0.28
353.12	0.28
353.329	0.25
353.538	0.26
353.746	0.29
353.955	0.23
354.164	0.28
354.373	0.24
354.582	0.32
354.79	0.26
354.999	0.29
355.208	0.25
355.416	0.37
355.625	0.2
355.834	0.26
356.042	0.29
356.251	0.22
356.46	0.17
356.668	0.26
356.877	0.4
357.085	0.33
357.294	0.16
357.503	0.29
357.711	0.28
357.92	0.41
358.128	0.29
358.337	0.2
358.545	0.24
358.754	0.21
358.962	0.31
359.17	0.22
359.379	0.29
359.587	0.3
359.796	0.24
360.004	0.27
360.212	0.28
360.421	0.32
360.629	0.25
360.837	0.23
361.046	0.33
361.254	0.45
361.462	0.25
361.67	0.2
361.879	0.28
362.087	0.31
362.295	0.27
362.503	0.23
362.711	0.21
362.92	0.25
363.128	0.23
363.336	0.19
363.544	0.21
363.752	0.29
363.96	0.21
364.168	0.2
364.376	0.24
364.584	0.27
364.792	0.37
365	0.26
365.208	0.27
365.416	0.28
365.624	0.3
365.832	0.23
366.04	0.34
366.248	0.28
366.456	0.26
366.664	0.26
366.872	0.29
367.079	0.21
367.287	0.24
367.495	0.24
367.703	0.27
367.911	0.27
368.118	0.24
368.326	0.23
368.534	0.22
368.742	0.36
368.949	0.19
369.157	0.23
369.365	0.29
369.572	0.24
369.78	0.19
369.988	0.28
370.195	0.31
370.403	0.32
370.61	0.22
370.818	0.23
371.026	0.36
371.233	0.27
371.441	0.28
371.648	0.22
371.856	0.28
372.063	0.3
372.271	0.24
372.478	0.21
372.685	0.23
372.893	0.32
373.1	0.3
373.308	0.25
373.515	0.37
373.722	0.36
373.93	0.24
374.137	0.28
374.344	0.36
374.552	0.33
374.759	0.27
374.966	0.29
375.173	0.22
375.381	0.33
375.588	0.3
375.795	0.21
376.002	0.25
376.209	0.23
376.417	0.23
376.624	0.3
376.831	0.3
377.038	0.24
377.245	0.16
377.452	0.2
377.659	0.27
377.866	0.25
378.073	0.27
378.28	0.25
378.487	0.36
378.694	0.31
378.901	0.27
379.108	0.23
379.315	0.36
379.522	0.4
379.729	0.3
379.936	0.27
380.143	0.3
380.35	0.3
380.557	0.25
380.763	0.27
380.97	0.27
381.177	0.29
381.384	0.31
381.591	0.24
381.797	0.27
382.004	0.32
382.211	0.32
382.418	0.21
382.624	0.36
382.831	0.32
383.038	0.3
383.244	0.29
383.451	0.27
383.658	0.36
383.864	0.26
384.071	0.23
384.277	0.38
384.484	0.28
384.69	0.36
384.897	0.27
385.103	0.25
385.31	0.22
385.516	0.25
385.723	0.25
385.929	0.29
386.136	0.3
386.342	0.33
386.549	0.26
386.755	0.41
386.961	0.34
387.168	0.25
387.374	0.25
387.58	0.35
387.787	0.28
387.993	0.31
388.199	0.25
388.406	0.24
388.612	0.27
388.818	0.31
389.024	0.26
389.231	0.27
389.437	0.44
389.643	0.29
389.849	0.3
390.055	0.32
390.261	0.31
390.467	0.31
390.674	0.29
390.88	0.3
391.086	0.34
391.292	0.26
391.498	0.34
391.704	0.36
391.91	0.33
392.116	0.3
392.322	0.21
392.528	0.32
392.734	0.3
392.94	0.29
393.146	0.25
393.352	0.33
393.557	0.32
393.763	0.3
393.969	0.39
394.175	0.32
394.381	0.34
394.587	0.24
394.792	0.31
394.998	0.39
395.204	0.39
395.41	0.26
395.615	0.34
395.821	0.38
396.027	0.38
396.233	0.32
396.438	0.4
396.644	0.42
396.85	0.35
397.055	0.34
397.261	0.33
397.466	0.44
397.672	0.38
397.878	0.4
398.083	0.43
398.289	0.33
398.494	0.38
398.7	0.37
398.905	0.22
399.111	0.44
399.316	0.31
399.522	0.39
399.727	0.33
399.932	0.36
400.138	0.37
400.343	0.39
400.549	0.37
400.754	0.4
400.959	0.36
401.165	0.35
401.37	0.36
401.575	0.5
401.78	0.4
401.986	0.42
402.191	0.39
402.396	0.4
402.601	0.46
402.807	0.42
403.012	0.4
403.217	0.46
403.422	0.42
403.627	0.4
403.832	0.36
404.037	0.43
404.243	0.46
404.448	0.42
404.653	0.43
404.858	0.45
405.063	0.52
405.268	0.44
405.473	0.4
405.678	0.43
405.883	0.72
406.088	0.59
406.293	0.38
406.498	0.5
406.703	0.51
406.907	0.49
407.112	0.43
407.317	0.53
407.522	0.57
407.727	0.49
407.932	0.58
408.136	0.69
408.341	0.55
408.546	0.61
408.751	0.56
408.956	0.59
409.16	0.69
409.365	0.59
409.57	0.61
409.774	0.66
409.979	0.7
410.184	0.69
410.388	0.59
410.593	0.78
410.798	0.8
411.002	0.72
411.207	0.81
411.411	0.8
411.616	0.71
411.82	0.81
412.025	0.85
412.229	0.85
412.434	1
412.638	0.9
412.843	0.9
413.047	0.99
413.252	1
413.456	1.04
413.66	1.06
413.865	1.12
414.069	1.19
414.273	1.11
414.478	1.11
414.682	1.17
414.886	1.26
415.091	1.22
415.295	1.23
415.499	1.44
415.703	1.39
415.908	1.47
416.112	1.38
416.316	1.57
416.52	1.6
416.724	1.55
416.929	1.66
417.133	1.89
417.337	1.7
417.541	1.81
417.745	1.77
417.949	2.02
418.153	2.05
418.357	2.06
418.561	2.26
418.765	2.19
418.969	2.4
419.173	2.42
419.377	2.47
419.581	2.73
419.785	2.66
419.989	2.64
420.193	2.82
420.397	2.92
420.601	3
420.804	3.16
421.008	3.09
421.212	3.31
421.416	3.33
421.62	3.26
421.823	3.33
422.027	3.52
422.231	3.57
422.435	3.56
422.638	3.52
422.842	3.69
423.046	3.69
423.249	3.94
423.453	3.98
423.657	4.17
423.86	4.22
424.064	4.31
424.268	4.57
424.471	4.49
424.675	4.68
424.878	4.8
425.082	4.96
425.285	5.2
425.489	5.09
425.692	5.26
425.896	5.27
426.099	5.46
426.303	5.55
426.506	5.69
426.71	6.02
426.913	6.22
427.116	6.36
427.32	6.28
427.523	6.43
427.726	6.71
427.93	6.85
428.133	7.06
428.336	7.32
428.54	7.38
428.743	7.69
428.946	7.95
429.149	7.95
429.353	7.93
429.556	8.01
429.759	8.09
429.962	8.13
430.165	8.29
430.368	8.02
430.571	8.07
430.775	8.09
430.978	8
431.181	8.09
431.384	8.21
431.587	8.35
431.79	8.77
431.993	8.53
432.196	8.99
432.399	9.36
432.602	9.48
432.805	9.5
433.008	10.1
433.211	9.91
433.414	10.29
433.616	10.48
433.819	10.26
434.022	10.42
434.225	10.65
434.428	10.63
434.631	11.17
434.833	10.84
435.036	11.12
435.239	11.3
435.442	11.4
435.645	11.56
435.847	11.64
436.05	11.93
436.253	12.14
436.455	12.23
436.658	12.01
436.861	12.34
437.063	12.57
437.266	12.45
437.468	12.84
437.671	13.2
437.874	13.17
438.076	12.93
438.279	13.47
438.481	13.49
438.684	14.14
438.886	13.91
439.089	14.05
439.291	14.19
439.494	14.57
439.696	14.66
439.899	15.27
440.101	15.65
440.303	15.9
440.506	16.53
440.708	16.22
440.91	16.54
441.113	16.84
441.315	16.92
441.517	16.74
441.72	17.22
441.922	16.88
442.124	16.71
442.326	17.21
442.529	17.49
442.731	17.44
442.933	17.69
443.135	17.4
443.337	17.54
443.539	17.92
443.742	17.63
443.944	18.48
444.146	18.22
444.348	18.07
444.55	18.06
444.752	18.16
444.954	17.97
445.156	18.17
445.358	18.38
445.56	18.71
445.762	18.55
445.964	18.96
446.166	18.59
446.368	18.56
446.57	18.56
446.772	18.2
446.974	18.04
447.175	18.36
447.377	18.06
447.579	18.34
447.781	18.04
447.983	17.93
448.184	17.32
448.386	17.68
448.588	17.26
448.79	17.2
448.991	17.42
449.193	17.38
449.395	16.8
449.597	16.35
449.798	16.4
450	15.98
450.202	15.82
450.403	15.91
450.605	15.72
450.806	15.37
451.008	15.2
451.21	15.01
451.411	14.52
451.613	13.75
451.814	14.06
452.016	14.05
452.217	13.19
452.419	13.22
452.62	12.91
452.821	12.73
453.023	12.56
453.224	12.24
453.426	11.83
453.627	11.05
453.828	11.19
454.03	11.21
454.231	11.24
454.432	10.99
454.634	10.84
454.835	10.44
455.036	10.4
455.238	10.01
455.439	9.87
455.64	9.51
455.841	9.39
456.042	9.34
456.244	9.09
456.445	8.79
456.646	8.57
456.847	8.49
457.048	8.51
457.249	8.4
457.45	8.27
457.651	7.81
457.852	7.64
458.054	7.27
458.255	7.14
458.456	7.3
458.657	7.17
458.858	6.62
459.058	6.68
459.259	6.76
459.46	6.44
459.661	6.42
459.862	6.5
460.063	6.42
460.264	6.27
460.465	5.99
460.666	6.08
460.866	5.76
461.067	5.53
461.268	5.47
461.469	5.48
461.67	5.43
461.87	5.28
462.071	5.26
462.272	5.14
462.473	5.09
462.673	5.28
462.874	5.19
463.075	5.16
463.275	5.1
463.476	5.22
463.676	5.09
463.877	4.92
464.078	5.01
464.278	5.07
464.479	4.86
464.679	4.74
464.88	4.69
465.08	4.71
465.281	4.54
465.481	4.26
465.682	4.16
465.882	4.27
466.083	4.14
466.283	4.06
466.483	3.93
466.684	3.77
466.884	3.63
467.085	3.71
467.285	3.77
467.485	3.61
467.686	3.53
467.886	3.42
468.086	3.37
468.286	3.37
468.487	3.5
468.687	3.19
468.887	3.25
469.087	3.38
469.287	3.31
469.488	3.09
469.688	3.23
469.888	3.19
470.088	3.17
470.288	3.04
470.488	3.09
470.688	2.86
470.888	2.85
471.088	2.67
471.288	2.82
471.488	2.76
471.688	2.81
471.888	2.65
472.088	2.87
472.288	2.75
472.488	2.62
472.688	2.58
472.888	2.64
473.088	2.65
473.288	2.55
473.488	2.42
473.688	2.6
473.887	2.54
474.087	2.41
474.287	2.5
474.487	2.41
474.687	2.42
474.886	2.38
475.086	2.3
475.286	2.32
475.486	2.32
475.685	2.22
475.885	2.25
476.085	2.29
476.284	2.27
476.484	2.29
476.684	2.24
476.883	2.31
477.083	2.21
477.282	2.06
477.482	2.22
477.681	2.14
477.881	2.1
478.08	2.11
478.28	2.06
478.479	2.09
478.679	2.15
478.878	2.04
479.078	2.06
479.277	2.13
479.477	2.09
479.676	2.05
479.875	2.03
480.075	1.96
480.274	2.01
480.473	2.08
480.673	2.04
480.872	2.08
481.071	2.09
481.271	2.07
481.47	2.01
481.669	2.02
481.868	1.93
482.067	1.97
482.267	1.94
482.466	1.93
482.665	1.92
482.864	1.95
483.063	1.97
483.262	2
483.461	2.11
483.661	2.05
483.86	2.03
484.059	2.06
484.258	2.05
484.457	2
484.656	2.02
484.855	2.11
485.054	1.94
485.253	1.95
485.452	2
485.651	2.05
485.849	1.99
486.048	1.99
486.247	2.05
486.446	2.1
486.645	2.04
486.844	2.05
487.043	2.05
487.241	2.08
487.44	2.1
487.639	2.13
487.838	2.14
488.037	2.13
488.235	2.22
488.434	2.16
488.633	2.06
488.831	2.24
489.03	2.23
489.229	2.24
489.427	2.22
489.626	2.27
489.825	2.3
490.023	2.32
490.222	2.26
490.42	2.31
490.619	2.38
490.817	2.38
491.016	2.31
491.214	2.43
491.413	2.44
491.611	2.37
491.81	2.43
492.008	2.48
492.207	2.59
492.405	2.52
492.604	2.48
492.802	2.54
493	2.61
493.199	2.6
493.397	2.66
493.595	2.72
493.794	2.69
493.992	2.79
494.19	2.73
494.388	2.8
494.587	2.75
494.785	2.82
494.983	2.76
495.181	2.87
495.379	2.95
495.578	2.95
495.776	2.93
495.974	2.96
496.172	3
496.37	3.08
496.568	3.11
496.766	3.1
496.964	3.14
497.162	3.17
497.36	3.26
497.558	3.27
497.756	3.32
497.954	3.28
498.152	3.33
498.35	3.44
498.548	3.37
498.746	3.44
498.944	3.43
499.142	3.44
499.34	3.56
499.538	3.63
499.736	3.53
499.933	3.65
500.131	3.63
500.329	3.8
500.527	3.8
500.725	3.86
500.922	3.86
501.12	3.89
501.318	3.98
501.516	3.94
501.713	4.02
501.911	4.01
502.109	4
502.306	4.09
502.504	4.07
502.701	4.11
502.899	4.16
503.097	4.4
503.294	4.16
