Data from Apollo_Calib_20240827__AbsoluteIrradiance__833__13-02-02-863.txt Node

Date: Wed Aug 28 13:02:02 BST 2024
User: biology
Spectrometer: FLMT08252
Trigger mode: 0
Integration Time (sec): 5.000000E-1
Scans to average: 5
Electric dark correction enabled: true
Nonlinearity correction enabled: false
Boxcar width: 0
XAxis mode: Wavelengths
Number of Pixels in Spectrum: 3648
>>>>>Begin Spectral Data<<<<<
179.588	-0
179.809	-0
180.03	-0
180.251	-0
180.473	-0
180.694	0
180.915	0
181.136	-0
181.357	0
181.578	0
181.799	-0
182.02	-0
182.241	-0
182.462	-0
182.683	0
182.904	-0
183.125	0
183.346	0
183.567	0
183.788	0
184.009	0
184.23	0
184.451	0
184.672	0
184.892	0
185.113	0
185.334	0
185.555	0
185.776	0
185.996	0
186.217	0
186.438	0
186.659	0
186.879	0
187.1	0
187.321	0
187.541	0
187.762	0
187.983	0
188.203	0
188.424	0
188.644	0
188.865	0
189.086	0
189.306	0
189.527	0
189.747	0
189.968	0
190.188	0
190.409	0
190.629	0
190.849	0
191.07	0
191.29	0
191.511	0
191.731	0
191.951	0
192.172	0
192.392	0
192.612	0
192.833	0
193.053	0
193.273	0
193.493	0
193.714	0
193.934	0
194.154	0
194.374	0
194.594	0
194.815	0
195.035	0
195.255	0
195.475	0
195.695	0
195.915	0
196.135	0
196.355	0
196.575	0
196.795	0
197.015	0
197.235	0
197.455	0
197.675	0
197.895	0
198.115	0
198.335	0
198.555	0
198.775	0
198.995	0
199.214	0
199.434	0
199.654	0
199.874	0
200.094	4.38
200.313	2.28
200.533	2.02
200.753	1.9
200.973	3.67
201.192	3.13
201.412	1.15
201.632	1.83
201.851	3.7
202.071	1.98
202.291	1.52
202.51	1.6
202.73	2.99
202.95	1.52
203.169	1.55
203.389	1.63
203.608	2.02
203.828	1.61
204.047	1.64
204.267	2.3
204.486	2.08
204.706	2.65
204.925	1.75
205.145	1.41
205.364	2.73
205.583	2.58
205.803	1.33
206.022	0.8
206.242	2.02
206.461	1.75
206.68	1.29
206.9	1.37
207.119	2.7
207.338	2.45
207.557	1.11
207.777	1.16
207.996	1.58
208.215	1.98
208.434	1.13
208.654	0.71
208.873	1.22
209.092	2.16
209.311	0.95
209.53	1.37
209.749	1.23
209.968	1.17
210.187	0.76
210.407	0.58
210.626	1.53
210.845	1.54
211.064	1.17
211.283	0.94
211.502	1.58
211.721	1.36
211.94	1.04
212.159	1.34
212.377	1.35
212.596	1.43
212.815	1.22
213.034	1.18
213.253	1.55
213.472	1.37
213.691	0.96
213.91	0.8
214.128	1.01
214.347	1.68
214.566	0.54
214.785	0.39
215.003	1.22
215.222	1.27
215.441	0.83
215.66	0.61
215.878	0.95
216.097	1.04
216.316	0.81
216.534	0.97
216.753	1.12
216.972	0.72
217.19	0.82
217.409	0.65
217.627	0.76
217.846	0.8
218.064	0.81
218.283	0.67
218.501	1.34
218.72	1.17
218.938	0.51
219.157	0.67
219.375	1.03
219.594	0.94
219.812	0.57
220.031	0.6
220.249	1.26
220.467	1.08
220.686	0.75
220.904	0.52
221.122	0.68
221.341	1.22
221.559	0.76
221.777	0.34
221.995	0.87
222.214	1
222.432	0.49
222.65	0.87
222.868	0.75
223.086	0.83
223.305	0.85
223.523	0.72
223.741	1.24
223.959	0.76
224.177	0.27
224.395	0.59
224.613	0.69
224.831	1.02
225.049	0.46
225.267	0.43
225.485	0.67
225.703	0.65
225.921	0.52
226.139	0.48
226.357	0.83
226.575	0.74
226.793	0.64
227.011	1.6
227.229	0.81
227.447	0.96
227.665	0.54
227.883	0.41
228.1	0.75
228.318	0.75
228.536	0.33
228.754	0.53
228.972	0.72
229.189	0.72
229.407	0.55
229.625	0.53
229.843	0.91
230.06	0.78
230.278	0.54
230.496	0.53
230.713	0.7
230.931	0.81
231.149	0.52
231.366	0.3
231.584	0.55
231.801	1.14
232.019	0.54
232.236	0.34
232.454	0.42
232.671	0.61
232.889	0.54
233.106	0.33
233.324	0.63
233.541	0.59
233.759	0.68
233.976	0.39
234.194	0.6
234.411	0.56
234.628	0.37
234.846	0.38
235.063	0.53
235.28	0.54
235.498	0.39
235.715	0.22
235.932	0.83
236.149	0.64
236.367	0.36
236.584	0.56
236.801	0.38
237.018	0.65
237.236	0.52
237.453	0.29
237.67	0.73
237.887	0.47
238.104	0.45
238.321	0.28
238.538	0.38
238.755	0.74
238.973	0.35
239.19	0.46
239.407	0.62
239.624	0.54
239.841	0.36
240.058	0.32
240.275	0.5
240.492	0.37
240.709	0.39
240.925	0.41
241.142	0.61
241.359	0.33
241.576	0.3
241.793	0.32
242.01	0.51
242.227	0.61
242.444	0.45
242.66	0.66
242.877	0.53
243.094	0.43
243.311	0.35
243.527	0.31
243.744	0.57
243.961	0.54
244.178	0.37
244.394	0.36
244.611	0.62
244.828	0.75
245.044	0.35
245.261	0.45
245.477	0.46
245.694	0.48
245.911	0.34
246.127	0.42
246.344	0.58
246.56	0.6
246.777	0.41
246.993	0.33
247.21	0.43
247.426	0.56
247.643	0.33
247.859	0.3
248.076	0.32
248.292	0.61
248.508	0.39
248.725	0.48
248.941	0.42
249.157	0.67
249.374	0.35
249.59	0.37
249.806	0.38
250.023	0.47
250.239	0.35
250.455	0.31
250.671	0.51
250.888	0.52
251.104	0.47
251.32	0.31
251.536	0.34
251.752	0.42
251.969	0.45
252.185	0.39
252.401	0.65
252.617	0.46
252.833	0.29
253.049	0.47
253.265	0.38
253.481	0.46
253.697	0.31
253.913	0.27
254.129	0.46
254.345	0.42
254.561	0.36
254.777	0.28
254.993	0.54
255.209	0.41
255.425	0.31
255.641	0.31
255.857	0.49
256.073	0.47
256.288	0.3
256.504	0.32
256.72	0.36
256.936	0.51
257.152	0.33
257.367	0.28
257.583	0.4
257.799	0.5
258.015	0.37
258.23	0.27
258.446	0.64
258.662	0.34
258.877	0.29
259.093	0.27
259.309	0.38
259.524	0.43
259.74	0.29
259.955	0.19
260.171	0.44
260.387	0.45
260.602	0.36
260.818	0.48
261.033	0.25
261.249	0.32
261.464	0.27
261.68	0.2
261.895	0.44
262.11	0.47
262.326	0.26
262.541	0.18
262.757	0.45
262.972	0.45
263.187	0.36
263.403	0.32
263.618	0.54
263.833	0.4
264.049	0.3
264.264	0.32
264.479	0.35
264.694	0.58
264.91	0.28
265.125	0.33
265.34	0.48
265.555	0.55
265.77	0.39
265.986	0.29
266.201	0.47
266.416	0.48
266.631	0.35
266.846	0.28
267.061	0.44
267.276	0.42
267.491	0.18
267.706	0.37
267.921	0.41
268.136	0.38
268.351	0.35
268.566	0.3
268.781	0.45
268.996	0.44
269.211	0.25
269.426	0.28
269.641	0.3
269.856	0.41
270.071	0.32
270.285	0.24
270.5	0.43
270.715	0.46
270.93	0.34
271.145	0.39
271.359	0.43
271.574	0.29
271.789	0.36
272.004	0.26
272.218	0.39
272.433	0.48
272.648	0.25
272.862	0.36
273.077	0.41
273.292	0.37
273.506	0.25
273.721	0.32
273.936	0.4
274.15	0.51
274.365	0.3
274.579	0.41
274.794	0.44
275.008	0.47
275.223	0.24
275.437	0.28
275.652	0.41
275.866	0.44
276.081	0.26
276.295	0.39
276.509	0.35
276.724	0.3
276.938	0.33
277.153	0.39
277.367	0.22
277.581	0.25
277.796	0.31
278.01	0.24
278.224	0.32
278.438	0.47
278.653	0.25
278.867	0.27
279.081	0.14
279.295	0.31
279.51	0.31
279.724	0.23
279.938	0.35
280.152	0.36
280.366	0.27
280.58	0.37
280.794	0.45
281.008	0.38
281.222	0.4
281.437	0.43
281.651	0.31
281.865	0.38
282.079	0.29
282.293	0.18
282.507	0.26
282.721	0.28
282.935	0.34
283.148	0.19
283.362	0.32
283.576	0.17
283.79	0.29
284.004	0.25
284.218	0.42
284.432	0.29
284.646	0.31
284.859	0.28
285.073	0.23
285.287	0.29
285.501	0.29
285.714	0.28
285.928	0.27
286.142	0.3
286.356	0.2
286.569	0.26
286.783	0.44
286.997	0.38
287.21	0.33
287.424	0.24
287.637	0.28
287.851	0.29
288.065	0.33
288.278	0.33
288.492	0.32
288.705	0.26
288.919	0.34
289.132	0.17
289.346	0.28
289.559	0.26
289.773	0.18
289.986	0.3
290.2	0.25
290.413	0.41
290.626	0.24
290.84	0.26
291.053	0.32
291.267	0.38
291.48	0.23
291.693	0.22
291.906	0.25
292.12	0.27
292.333	0.26
292.546	0.26
292.76	0.37
292.973	0.3
293.186	0.31
293.399	0.23
293.612	0.33
293.826	0.29
294.039	0.24
294.252	0.26
294.465	0.34
294.678	0.32
294.891	0.27
295.104	0.2
295.317	0.24
295.53	0.23
295.743	0.26
295.956	0.27
296.169	0.4
296.382	0.33
296.595	0.25
296.808	0.2
297.021	0.38
297.234	0.32
297.447	0.25
297.66	0.27
297.873	0.34
298.086	0.34
298.299	0.19
298.511	0.17
298.724	0.25
298.937	0.2
299.15	0.17
299.363	0.21
299.575	0.34
299.788	0.28
300.001	0.26
300.213	0.15
300.426	0.22
300.639	0.22
300.852	0.24
301.064	0.3
301.277	0.34
301.489	0.31
301.702	0.27
301.915	0.25
302.127	0.27
302.34	0.29
302.552	0.27
302.765	0.21
302.977	0.34
303.19	0.22
303.402	0.2
303.615	0.25
303.827	0.27
304.04	0.25
304.252	0.3
304.464	0.22
304.677	0.37
304.889	0.25
305.102	0.25
305.314	0.18
305.526	0.29
305.739	0.31
305.951	0.23
306.163	0.21
306.375	0.31
306.588	0.24
306.8	0.26
307.012	0.19
307.224	0.27
307.436	0.37
307.649	0.19
307.861	0.27
308.073	0.27
308.285	0.27
308.497	0.18
308.709	0.21
308.921	0.26
309.133	0.34
309.346	0.22
309.558	0.26
309.77	0.31
309.982	0.34
310.194	0.29
310.406	0.19
310.617	0.35
310.829	0.27
311.041	0.26
311.253	0.22
311.465	0.25
311.677	0.25
311.889	0.19
312.101	0.2
312.313	0.35
312.524	0.38
312.736	0.2
312.948	0.24
313.16	0.35
313.372	0.32
313.583	0.31
313.795	0.24
314.007	0.24
314.218	0.33
314.43	0.29
314.642	0.2
314.853	0.21
315.065	0.34
315.277	0.23
315.488	0.29
315.7	0.34
315.912	0.32
316.123	0.22
316.335	0.22
316.546	0.41
316.758	0.26
316.969	0.22
317.181	0.29
317.392	0.28
317.604	0.34
317.815	0.23
318.026	0.18
318.238	0.24
318.449	0.32
318.661	0.13
318.872	0.14
319.083	0.21
319.295	0.27
319.506	0.22
319.717	0.29
319.929	0.31
320.14	0.25
320.351	0.22
320.562	0.2
320.774	0.32
320.985	0.25
321.196	0.21
321.407	0.18
321.618	0.32
321.829	0.27
322.041	0.28
322.252	0.23
322.463	0.29
322.674	0.32
322.885	0.15
323.096	0.23
323.307	0.28
323.518	0.3
323.729	0.24
323.94	0.21
324.151	0.24
324.362	0.25
324.573	0.26
324.784	0.19
324.995	0.27
325.206	0.27
325.417	0.24
325.628	0.22
325.838	0.27
326.049	0.26
326.26	0.26
326.471	0.19
326.682	0.28
326.892	0.25
327.103	0.19
327.314	0.22
327.525	0.38
327.735	0.34
327.946	0.19
328.157	0.16
328.368	0.31
328.578	0.24
328.789	0.3
328.999	0.24
329.21	0.24
329.421	0.33
329.631	0.26
329.842	0.23
330.052	0.29
330.263	0.32
330.473	0.31
330.684	0.19
330.894	0.28
331.105	0.25
331.315	0.25
331.526	0.22
331.736	0.33
331.947	0.29
332.157	0.26
332.367	0.17
332.578	0.3
332.788	0.33
332.999	0.26
333.209	0.24
333.419	0.16
333.629	0.3
333.84	0.25
334.05	0.25
334.26	0.34
334.47	0.26
334.681	0.32
334.891	0.23
335.101	0.31
335.311	0.39
335.521	0.23
335.732	0.18
335.942	0.33
336.152	0.23
336.362	0.25
336.572	0.27
336.782	0.31
336.992	0.25
337.202	0.28
337.412	0.26
337.622	0.27
337.832	0.24
338.042	0.25
338.252	0.17
338.462	0.25
338.672	0.25
338.882	0.2
339.092	0.24
339.302	0.35
339.511	0.33
339.721	0.19
339.931	0.17
340.141	0.32
340.351	0.33
340.561	0.28
340.77	0.3
340.98	0.24
341.19	0.27
341.4	0.22
341.609	0.22
341.819	0.19
342.029	0.2
342.238	0.27
342.448	0.21
342.658	0.27
342.867	0.24
343.077	0.25
343.286	0.27
343.496	0.28
343.706	0.33
343.915	0.19
344.125	0.3
344.334	0.28
344.544	0.18
344.753	0.2
344.963	0.19
345.172	0.24
345.381	0.23
345.591	0.22
345.8	0.24
346.01	0.36
346.219	0.33
346.428	0.13
346.638	0.26
346.847	0.28
347.056	0.31
347.266	0.28
347.475	0.21
347.684	0.3
347.893	0.3
348.103	0.28
348.312	0.22
348.521	0.26
348.73	0.27
348.94	0.25
349.149	0.19
349.358	0.19
349.567	0.19
349.776	0.16
349.985	0.23
350.194	0.32
350.403	0.3
350.612	0.12
350.821	0.21
351.03	0.24
351.239	0.2
351.448	0.24
351.657	0.18
351.866	0.34
352.075	0.23
352.284	0.28
352.493	0.19
352.702	0.35
352.911	0.27
353.12	0.29
353.329	0.21
353.538	0.27
353.746	0.24
353.955	0.16
354.164	0.25
354.373	0.24
354.582	0.29
354.79	0.24
354.999	0.32
355.208	0.24
355.416	0.33
355.625	0.18
355.834	0.19
356.042	0.27
356.251	0.23
356.46	0.18
356.668	0.27
356.877	0.37
357.085	0.32
357.294	0.16
357.503	0.28
357.711	0.23
357.92	0.41
358.128	0.28
358.337	0.19
358.545	0.29
358.754	0.18
358.962	0.29
359.17	0.23
359.379	0.26
359.587	0.3
359.796	0.24
360.004	0.33
360.212	0.31
360.421	0.35
360.629	0.2
360.837	0.25
361.046	0.3
361.254	0.38
361.462	0.25
361.67	0.23
361.879	0.29
362.087	0.32
362.295	0.23
362.503	0.19
362.711	0.18
362.92	0.23
363.128	0.18
363.336	0.2
363.544	0.16
363.752	0.27
363.96	0.27
364.168	0.22
364.376	0.29
364.584	0.27
364.792	0.31
365	0.24
365.208	0.26
365.416	0.29
365.624	0.27
365.832	0.19
366.04	0.37
366.248	0.26
366.456	0.26
366.664	0.26
366.872	0.26
367.079	0.28
367.287	0.27
367.495	0.25
367.703	0.24
367.911	0.26
368.118	0.23
368.326	0.22
368.534	0.2
368.742	0.32
368.949	0.2
369.157	0.23
369.365	0.3
369.572	0.22
369.78	0.21
369.988	0.26
370.195	0.23
370.403	0.31
370.61	0.25
370.818	0.23
371.026	0.34
371.233	0.2
371.441	0.25
371.648	0.23
371.856	0.25
372.063	0.27
372.271	0.21
372.478	0.24
372.685	0.21
372.893	0.32
373.1	0.23
373.308	0.22
373.515	0.38
373.722	0.35
373.93	0.26
374.137	0.28
374.344	0.31
374.552	0.3
374.759	0.29
374.966	0.24
375.173	0.26
375.381	0.38
375.588	0.25
375.795	0.2
376.002	0.27
376.209	0.24
376.417	0.23
376.624	0.29
376.831	0.3
377.038	0.25
377.245	0.16
377.452	0.24
377.659	0.26
377.866	0.2
378.073	0.25
378.28	0.25
378.487	0.32
378.694	0.3
378.901	0.28
379.108	0.19
379.315	0.33
379.522	0.37
379.729	0.26
379.936	0.24
380.143	0.33
380.35	0.29
380.557	0.23
380.763	0.23
380.97	0.3
381.177	0.3
381.384	0.29
381.591	0.2
381.797	0.28
382.004	0.32
382.211	0.3
382.418	0.22
382.624	0.32
382.831	0.34
383.038	0.23
383.244	0.26
383.451	0.26
383.658	0.33
383.864	0.28
384.071	0.18
384.277	0.38
384.484	0.29
384.69	0.36
384.897	0.26
385.103	0.26
385.31	0.27
385.516	0.26
385.723	0.22
385.929	0.32
386.136	0.24
386.342	0.29
386.549	0.25
386.755	0.36
386.961	0.35
387.168	0.25
387.374	0.32
387.58	0.35
387.787	0.28
387.993	0.3
388.199	0.29
388.406	0.21
388.612	0.26
388.818	0.28
389.024	0.23
389.231	0.26
389.437	0.41
389.643	0.32
389.849	0.24
390.055	0.26
390.261	0.29
390.467	0.3
390.674	0.27
390.88	0.3
391.086	0.3
391.292	0.25
391.498	0.33
391.704	0.32
391.91	0.3
392.116	0.24
392.322	0.17
392.528	0.31
392.734	0.29
392.94	0.36
393.146	0.3
393.352	0.34
393.557	0.26
393.763	0.29
393.969	0.34
394.175	0.28
394.381	0.33
394.587	0.23
394.792	0.32
394.998	0.4
395.204	0.42
395.41	0.28
395.615	0.32
395.821	0.37
396.027	0.34
396.233	0.24
396.438	0.36
396.644	0.41
396.85	0.32
397.055	0.29
397.261	0.35
397.466	0.34
397.672	0.33
397.878	0.34
398.083	0.39
398.289	0.32
398.494	0.39
398.7	0.34
398.905	0.21
399.111	0.42
399.316	0.3
399.522	0.34
399.727	0.34
399.932	0.32
400.138	0.34
400.343	0.41
400.549	0.35
400.754	0.4
400.959	0.34
401.165	0.33
401.37	0.38
401.575	0.45
401.78	0.36
401.986	0.35
402.191	0.34
402.396	0.34
402.601	0.41
402.807	0.41
403.012	0.43
403.217	0.44
403.422	0.37
403.627	0.44
403.832	0.36
404.037	0.45
404.243	0.42
404.448	0.38
404.653	0.37
404.858	0.42
405.063	0.52
405.268	0.39
405.473	0.4
405.678	0.39
405.883	0.7
406.088	0.49
406.293	0.39
406.498	0.49
406.703	0.53
406.907	0.47
407.112	0.41
407.317	0.51
407.522	0.61
407.727	0.48
407.932	0.53
408.136	0.67
408.341	0.57
408.546	0.56
408.751	0.59
408.956	0.61
409.16	0.65
409.365	0.64
409.57	0.66
409.774	0.61
409.979	0.7
410.184	0.66
410.388	0.63
410.593	0.76
410.798	0.72
411.002	0.76
411.207	0.84
411.411	0.8
411.616	0.75
411.82	0.86
412.025	0.85
412.229	0.83
412.434	0.95
412.638	0.93
412.843	0.91
413.047	1
413.252	0.96
413.456	0.96
413.66	1.1
413.865	1
414.069	1.21
414.273	1.05
414.478	1.15
414.682	1.11
414.886	1.25
415.091	1.18
415.295	1.27
415.499	1.38
415.703	1.38
415.908	1.49
416.112	1.38
416.316	1.59
416.52	1.57
416.724	1.57
416.929	1.66
417.133	1.91
417.337	1.74
417.541	1.85
417.745	1.88
417.949	1.98
418.153	1.97
418.357	1.98
418.561	2.34
418.765	2.22
418.969	2.37
419.173	2.43
419.377	2.45
419.581	2.68
419.785	2.57
419.989	2.7
420.193	2.79
420.397	2.91
420.601	3.09
420.804	3.09
421.008	3.14
421.212	3.28
421.416	3.28
421.62	3.27
421.823	3.39
422.027	3.57
422.231	3.54
422.435	3.54
422.638	3.58
422.842	3.72
423.046	3.7
423.249	4
423.453	3.99
423.657	4.14
423.86	4.24
424.064	4.4
424.268	4.51
424.471	4.53
424.675	4.74
424.878	4.78
425.082	4.85
425.285	5.26
425.489	5.15
425.692	5.25
425.896	5.3
426.099	5.54
426.303	5.61
426.506	5.65
426.71	6.03
426.913	6.14
427.116	6.39
427.32	6.39
427.523	6.39
427.726	6.76
427.93	6.88
428.133	7.13
428.336	7.22
428.54	7.53
428.743	7.66
428.946	7.9
429.149	7.92
429.353	7.89
429.556	8.08
429.759	8.07
429.962	8.23
430.165	8.38
430.368	8.03
430.571	8.11
430.775	8.16
430.978	8.06
431.181	8.24
431.384	8.32
431.587	8.41
431.79	8.76
431.993	8.68
432.196	8.97
432.399	9.27
432.602	9.5
432.805	9.49
433.008	10.1
433.211	9.99
433.414	10.37
433.616	10.31
433.819	10.27
434.022	10.59
434.225	10.6
434.428	10.64
434.631	11.14
434.833	10.88
435.036	11.11
435.239	11.33
435.442	11.25
435.645	11.57
435.847	11.63
436.05	12.01
436.253	12.16
436.455	12.23
436.658	12.13
436.861	12.42
437.063	12.55
437.266	12.39
437.468	12.78
437.671	13.2
437.874	13.15
438.076	12.96
438.279	13.48
438.481	13.46
438.684	14.21
438.886	13.94
439.089	14.25
439.291	14.14
439.494	14.66
439.696	14.74
439.899	15.26
440.101	15.71
440.303	15.81
440.506	16.55
440.708	16.38
440.91	16.54
441.113	16.68
441.315	16.83
441.517	16.7
441.72	17.19
441.922	16.88
442.124	16.8
442.326	17.15
442.529	17.45
442.731	17.34
442.933	17.77
443.135	17.46
443.337	17.5
443.539	18.14
443.742	17.64
443.944	18.48
444.146	18.1
444.348	18.18
444.55	17.94
444.752	18.34
444.954	18.07
445.156	18
445.358	18.4
445.56	18.76
445.762	18.45
445.964	18.89
446.166	18.56
446.368	18.77
446.57	18.52
446.772	18.16
446.974	17.93
447.175	18.31
447.377	17.8
447.579	18.31
447.781	17.99
447.983	17.88
448.184	17.38
448.386	17.82
448.588	17.23
448.79	17.18
448.991	17.57
449.193	17.49
449.395	16.81
449.597	16.49
449.798	16.33
450	15.95
450.202	15.76
450.403	15.84
450.605	15.75
450.806	15.25
451.008	15.09
451.21	14.91
451.411	14.5
451.613	13.86
451.814	13.95
452.016	14.01
452.217	13.27
452.419	13.28
452.62	12.96
452.821	12.64
453.023	12.54
453.224	12.19
453.426	11.76
453.627	11.12
453.828	11.2
454.03	11.37
454.231	11.27
454.432	11.01
454.634	10.79
454.835	10.56
455.036	10.35
455.238	10.08
455.439	9.75
455.64	9.5
455.841	9.2
456.042	9.52
456.244	9.14
456.445	8.85
456.646	8.58
456.847	8.56
457.048	8.53
457.249	8.49
457.45	8.24
457.651	7.72
457.852	7.58
458.054	7.27
458.255	7.11
458.456	7.25
458.657	7.21
458.858	6.67
459.058	6.58
459.259	6.65
459.46	6.48
459.661	6.45
459.862	6.45
460.063	6.24
460.264	6.23
460.465	5.99
460.666	6.05
460.866	5.79
461.067	5.49
461.268	5.57
461.469	5.49
461.67	5.32
461.87	5.16
462.071	5.23
462.272	5.13
462.473	5.08
462.673	5.26
462.874	5.18
463.075	5.16
463.275	5.15
463.476	5.2
463.676	5.11
463.877	4.89
464.078	4.95
464.278	4.99
464.479	4.83
464.679	4.76
464.88	4.61
465.08	4.61
465.281	4.5
465.481	4.29
465.682	4.11
465.882	4.16
466.083	4.08
466.283	4.06
466.483	3.9
466.684	3.7
466.884	3.63
467.085	3.68
467.285	3.7
467.485	3.63
467.686	3.59
467.886	3.43
468.086	3.33
468.286	3.38
468.487	3.4
468.687	3.24
468.887	3.26
469.087	3.35
469.287	3.21
469.488	3.05
469.688	3.18
469.888	3.25
470.088	3.13
470.288	3.03
470.488	3.05
470.688	2.88
470.888	2.8
471.088	2.67
471.288	2.81
471.488	2.81
471.688	2.77
471.888	2.69
472.088	2.85
472.288	2.69
472.488	2.63
472.688	2.51
472.888	2.58
473.088	2.6
473.288	2.53
473.488	2.46
473.688	2.59
473.887	2.49
474.087	2.43
474.287	2.43
474.487	2.37
474.687	2.39
474.886	2.34
475.086	2.28
475.286	2.29
475.486	2.26
475.685	2.22
475.885	2.22
476.085	2.26
476.284	2.25
476.484	2.22
476.684	2.2
476.883	2.33
477.083	2.14
477.282	2.12
477.482	2.17
477.681	2.16
477.881	2.08
478.08	2.09
478.28	2.04
478.479	2.13
478.679	2.14
478.878	2.08
479.078	2.03
479.277	2.09
479.477	2.07
479.676	2.04
479.875	2
480.075	1.94
480.274	2.01
480.473	2.05
480.673	2.04
480.872	2.05
481.071	2.06
481.271	2.07
481.47	1.98
481.669	1.99
481.868	1.97
482.067	1.98
482.267	1.92
482.466	1.9
482.665	1.93
482.864	1.93
483.063	1.94
483.262	2
483.461	2.01
483.661	2.07
483.86	1.95
484.059	2.05
484.258	2.06
484.457	2
484.656	2.01
484.855	2.06
485.054	1.93
485.253	1.96
485.452	1.95
485.651	2.05
485.849	2.02
486.048	2.03
486.247	2
486.446	2.05
486.645	2.03
486.844	2.06
487.043	2.08
487.241	2.08
487.44	2.09
487.639	2.14
487.838	2.1
488.037	2.13
488.235	2.22
488.434	2.13
488.633	2.05
488.831	2.18
489.03	2.21
489.229	2.22
489.427	2.25
489.626	2.26
489.825	2.3
490.023	2.31
490.222	2.27
490.42	2.32
490.619	2.38
490.817	2.39
491.016	2.35
491.214	2.45
491.413	2.39
491.611	2.37
491.81	2.38
492.008	2.43
492.207	2.57
492.405	2.54
492.604	2.47
492.802	2.55
493	2.62
493.199	2.59
493.397	2.59
493.595	2.66
493.794	2.66
493.992	2.77
494.19	2.71
494.388	2.83
494.587	2.76
494.785	2.82
494.983	2.73
495.181	2.86
495.379	2.88
495.578	2.93
495.776	2.97
495.974	2.97
496.172	2.98
496.37	3.11
496.568	3.12
496.766	3.09
496.964	3.18
497.162	3.24
497.36	3.23
497.558	3.26
497.756	3.31
497.954	3.28
498.152	3.37
498.35	3.46
498.548	3.39
498.746	3.39
498.944	3.41
499.142	3.41
499.34	3.49
499.538	3.63
499.736	3.52
499.933	3.65
500.131	3.64
500.329	3.77
500.527	3.74
500.725	3.89
500.922	3.85
501.12	3.88
501.318	3.92
501.516	3.95
501.713	4.02
501.911	4.04
502.109	3.94
502.306	4.07
502.504	3.98
