Data from Apollo_Calib_20240827__AbsoluteIrradiance__850__13-19-00-426.txt Node

Date: Wed Aug 28 13:19:00 BST 2024
User: biology
Spectrometer: FLMT08252
Trigger mode: 0
Integration Time (sec): 5.000000E-1
Scans to average: 5
Electric dark correction enabled: true
Nonlinearity correction enabled: false
Boxcar width: 0
XAxis mode: Wavelengths
Number of Pixels in Spectrum: 3648
>>>>>Begin Spectral Data<<<<<
179.588	-0
179.809	-0
180.03	-0
180.251	-0
180.473	-0
180.694	0
180.915	0
181.136	-0
181.357	0
181.578	-0
181.799	-0
182.02	-0
182.241	-0
182.462	-0
182.683	0
182.904	-0
183.125	-0
183.346	0
183.567	0
183.788	0
184.009	0
184.23	0
184.451	0
184.672	0
184.892	0
185.113	0
185.334	0
185.555	0
185.776	0
185.996	0
186.217	0
186.438	0
186.659	0
186.879	0
187.1	0
187.321	0
187.541	0
187.762	0
187.983	0
188.203	0
188.424	0
188.644	0
188.865	0
189.086	0
189.306	0
189.527	0
189.747	0
189.968	0
190.188	0
190.409	0
190.629	0
190.849	0
191.07	0
191.29	0
191.511	0
191.731	0
191.951	0
192.172	0
192.392	0
192.612	0
192.833	0
193.053	0
193.273	0
193.493	0
193.714	0
193.934	0
194.154	0
194.374	0
194.594	0
194.815	0
195.035	0
195.255	0
195.475	0
195.695	0
195.915	0
196.135	0
196.355	0
196.575	0
196.795	0
197.015	0
197.235	0
197.455	0
197.675	0
197.895	0
198.115	0
198.335	0
198.555	0
198.775	0
198.995	0
199.214	0
199.434	0
199.654	0
199.874	0
200.094	3.6
200.313	1.99
200.533	2.24
200.753	1.86
200.973	3.54
201.192	3.11
201.412	1.46
201.632	1.6
201.851	3.07
202.071	1.8
202.291	1.9
202.51	0.68
202.73	2.62
202.95	2.04
203.169	1.02
203.389	1.88
203.608	1.9
203.828	2.05
204.047	1.57
204.267	2.15
204.486	2.11
204.706	2.65
204.925	1.53
205.145	1.27
205.364	2.19
205.583	2.84
205.803	1.16
206.022	1.18
206.242	1.47
206.461	1.21
206.68	1.47
206.9	1.54
207.119	2.72
207.338	2.01
207.557	0.74
207.777	1.05
207.996	1.21
208.215	2.11
208.434	1.02
208.654	0.59
208.873	1.38
209.092	2.33
209.311	1.17
209.53	1.06
209.749	1.31
209.968	1.42
210.187	1
210.407	0.67
210.626	1.04
210.845	1.76
211.064	1.15
211.283	0.89
211.502	1.29
211.721	1.1
211.94	1.18
212.159	1.27
212.377	1.28
212.596	1.51
212.815	0.86
213.034	0.98
213.253	1.45
213.472	1.03
213.691	1.1
213.91	0.7
214.128	0.75
214.347	1.69
214.566	0.44
214.785	0.43
215.003	1.17
215.222	1.08
215.441	1
215.66	0.65
215.878	1.09
216.097	1.28
216.316	0.77
216.534	0.77
216.753	1.13
216.972	0.83
217.19	0.74
217.409	0.47
217.627	0.73
217.846	0.93
218.064	0.98
218.283	0.55
218.501	1.42
218.72	1.21
218.938	0.56
219.157	0.58
219.375	1.02
219.594	0.95
219.812	0.55
220.031	0.38
220.249	1.3
220.467	1.1
220.686	0.51
220.904	0.52
221.122	0.77
221.341	1.23
221.559	0.97
221.777	0.41
221.995	0.77
222.214	1.06
222.432	0.55
222.65	0.89
222.868	0.73
223.086	1
223.305	0.79
223.523	0.83
223.741	1.23
223.959	0.64
224.177	0.31
224.395	0.45
224.613	0.86
224.831	1.01
225.049	0.49
225.267	0.55
225.485	0.83
225.703	0.72
225.921	0.63
226.139	0.51
226.357	0.94
226.575	0.78
226.793	0.51
227.011	1.64
227.229	0.8
227.447	0.87
227.665	0.62
227.883	0.3
228.1	0.62
228.318	0.8
228.536	0.33
228.754	0.39
228.972	0.66
229.189	0.72
229.407	0.47
229.625	0.6
229.843	0.89
230.06	0.82
230.278	0.58
230.496	0.56
230.713	0.75
230.931	0.82
231.149	0.45
231.366	0.24
231.584	0.59
231.801	1.01
232.019	0.44
232.236	0.38
232.454	0.38
232.671	0.75
232.889	0.53
233.106	0.36
233.324	0.54
233.541	0.56
233.759	0.52
233.976	0.28
234.194	0.52
234.411	0.53
234.628	0.43
234.846	0.47
235.063	0.57
235.28	0.67
235.498	0.36
235.715	0.25
235.932	0.77
236.149	0.44
236.367	0.38
236.584	0.53
236.801	0.4
237.018	0.63
237.236	0.49
237.453	0.25
237.67	0.64
237.887	0.54
238.104	0.46
238.321	0.32
238.538	0.36
238.755	0.64
238.973	0.27
239.19	0.51
239.407	0.52
239.624	0.53
239.841	0.32
240.058	0.36
240.275	0.58
240.492	0.46
240.709	0.48
240.925	0.38
241.142	0.51
241.359	0.44
241.576	0.31
241.793	0.33
242.01	0.42
242.227	0.71
242.444	0.46
242.66	0.63
242.877	0.53
243.094	0.34
243.311	0.46
243.527	0.46
243.744	0.48
243.961	0.62
244.178	0.36
244.394	0.45
244.611	0.63
244.828	0.66
245.044	0.33
245.261	0.43
245.477	0.53
245.694	0.57
245.911	0.32
246.127	0.52
246.344	0.62
246.56	0.55
246.777	0.39
246.993	0.45
247.21	0.56
247.426	0.57
247.643	0.4
247.859	0.25
248.076	0.37
248.292	0.74
248.508	0.31
248.725	0.43
248.941	0.45
249.157	0.58
249.374	0.26
249.59	0.37
249.806	0.42
250.023	0.63
250.239	0.39
250.455	0.32
250.671	0.46
250.888	0.53
251.104	0.44
251.32	0.28
251.536	0.4
251.752	0.47
251.969	0.38
252.185	0.38
252.401	0.63
252.617	0.44
252.833	0.34
253.049	0.43
253.265	0.39
253.481	0.39
253.697	0.3
253.913	0.35
254.129	0.49
254.345	0.44
254.561	0.35
254.777	0.31
254.993	0.49
255.209	0.37
255.425	0.28
255.641	0.31
255.857	0.52
256.073	0.43
256.288	0.21
256.504	0.24
256.72	0.5
256.936	0.54
257.152	0.43
257.367	0.33
257.583	0.37
257.799	0.46
258.015	0.39
258.23	0.31
258.446	0.56
258.662	0.36
258.877	0.32
259.093	0.24
259.309	0.36
259.524	0.48
259.74	0.3
259.955	0.28
260.171	0.35
260.387	0.41
260.602	0.45
260.818	0.36
261.033	0.27
261.249	0.37
261.464	0.34
261.68	0.23
261.895	0.43
262.11	0.44
262.326	0.32
262.541	0.16
262.757	0.46
262.972	0.41
263.187	0.39
263.403	0.34
263.618	0.47
263.833	0.42
264.049	0.28
264.264	0.31
264.479	0.37
264.694	0.56
264.91	0.22
265.125	0.37
265.34	0.43
265.555	0.5
265.77	0.36
265.986	0.33
266.201	0.41
266.416	0.37
266.631	0.35
266.846	0.27
267.061	0.41
267.276	0.46
267.491	0.15
267.706	0.38
267.921	0.41
268.136	0.41
268.351	0.39
268.566	0.21
268.781	0.45
268.996	0.5
269.211	0.31
269.426	0.31
269.641	0.32
269.856	0.41
270.071	0.24
270.285	0.2
270.5	0.45
270.715	0.48
270.93	0.31
271.145	0.33
271.359	0.43
271.574	0.32
271.789	0.32
272.004	0.28
272.218	0.28
272.433	0.42
272.648	0.27
272.862	0.43
273.077	0.36
273.292	0.35
273.506	0.26
273.721	0.31
273.936	0.39
274.15	0.44
274.365	0.31
274.579	0.36
274.794	0.4
275.008	0.38
275.223	0.19
275.437	0.31
275.652	0.45
275.866	0.34
276.081	0.28
276.295	0.33
276.509	0.29
276.724	0.4
276.938	0.31
277.153	0.37
277.367	0.41
277.581	0.29
277.796	0.25
278.01	0.25
278.224	0.39
278.438	0.5
278.653	0.18
278.867	0.23
279.081	0.16
279.295	0.33
279.51	0.31
279.724	0.18
279.938	0.36
280.152	0.39
280.366	0.27
280.58	0.31
280.794	0.41
281.008	0.36
281.222	0.34
281.437	0.47
281.651	0.36
281.865	0.4
282.079	0.3
282.293	0.17
282.507	0.29
282.721	0.27
282.935	0.26
283.148	0.18
283.362	0.29
283.576	0.25
283.79	0.3
284.004	0.24
284.218	0.4
284.432	0.26
284.646	0.28
284.859	0.26
285.073	0.29
285.287	0.32
285.501	0.3
285.714	0.23
285.928	0.26
286.142	0.37
286.356	0.22
286.569	0.23
286.783	0.4
286.997	0.35
287.21	0.28
287.424	0.3
287.637	0.3
287.851	0.25
288.065	0.3
288.278	0.25
288.492	0.28
288.705	0.25
288.919	0.35
289.132	0.21
289.346	0.37
289.559	0.18
289.773	0.16
289.986	0.24
290.2	0.27
290.413	0.33
290.626	0.21
290.84	0.26
291.053	0.23
291.267	0.4
291.48	0.28
291.693	0.26
291.906	0.29
292.12	0.26
292.333	0.26
292.546	0.21
292.76	0.38
292.973	0.31
293.186	0.31
293.399	0.21
293.612	0.33
293.826	0.28
294.039	0.28
294.252	0.28
294.465	0.34
294.678	0.33
294.891	0.24
295.104	0.18
295.317	0.31
295.53	0.31
295.743	0.24
295.956	0.24
296.169	0.4
296.382	0.34
296.595	0.24
296.808	0.22
297.021	0.32
297.234	0.32
297.447	0.27
297.66	0.29
297.873	0.31
298.086	0.32
298.299	0.23
298.511	0.18
298.724	0.25
298.937	0.19
299.15	0.2
299.363	0.22
299.575	0.35
299.788	0.31
300.001	0.23
300.213	0.17
300.426	0.26
300.639	0.18
300.852	0.19
301.064	0.29
301.277	0.34
301.489	0.31
301.702	0.27
301.915	0.25
302.127	0.28
302.34	0.3
302.552	0.28
302.765	0.24
302.977	0.3
303.19	0.25
303.402	0.22
303.615	0.24
303.827	0.25
304.04	0.27
304.252	0.31
304.464	0.23
304.677	0.37
304.889	0.29
305.102	0.21
305.314	0.23
305.526	0.28
305.739	0.27
305.951	0.19
306.163	0.21
306.375	0.36
306.588	0.23
306.8	0.23
307.012	0.17
307.224	0.27
307.436	0.38
307.649	0.17
307.861	0.26
308.073	0.33
308.285	0.22
308.497	0.25
308.709	0.21
308.921	0.31
309.133	0.33
309.346	0.23
309.558	0.22
309.77	0.28
309.982	0.34
310.194	0.27
310.406	0.22
310.617	0.34
310.829	0.28
311.041	0.29
311.253	0.22
311.465	0.21
311.677	0.26
311.889	0.22
312.101	0.2
312.313	0.38
312.524	0.38
312.736	0.15
312.948	0.2
313.16	0.33
313.372	0.3
313.583	0.29
313.795	0.2
314.007	0.2
314.218	0.31
314.43	0.31
314.642	0.24
314.853	0.19
315.065	0.32
315.277	0.23
315.488	0.26
315.7	0.29
315.912	0.3
316.123	0.28
316.335	0.24
316.546	0.38
316.758	0.24
316.969	0.25
317.181	0.29
317.392	0.22
317.604	0.36
317.815	0.21
318.026	0.24
318.238	0.23
318.449	0.29
318.661	0.18
318.872	0.18
319.083	0.2
319.295	0.36
319.506	0.25
319.717	0.25
319.929	0.31
320.14	0.28
320.351	0.24
320.562	0.2
320.774	0.33
320.985	0.29
321.196	0.21
321.407	0.21
321.618	0.27
321.829	0.26
322.041	0.32
322.252	0.23
322.463	0.3
322.674	0.29
322.885	0.18
323.096	0.27
323.307	0.25
323.518	0.25
323.729	0.2
323.94	0.22
324.151	0.2
324.362	0.26
324.573	0.27
324.784	0.22
324.995	0.31
325.206	0.28
325.417	0.2
325.628	0.23
325.838	0.3
326.049	0.26
326.26	0.31
326.471	0.28
326.682	0.27
326.892	0.28
327.103	0.17
327.314	0.18
327.525	0.3
327.735	0.29
327.946	0.23
328.157	0.18
328.368	0.32
328.578	0.26
328.789	0.3
328.999	0.26
329.21	0.24
329.421	0.31
329.631	0.21
329.842	0.16
330.052	0.26
330.263	0.29
330.473	0.27
330.684	0.2
330.894	0.27
331.105	0.28
331.315	0.28
331.526	0.14
331.736	0.34
331.947	0.31
332.157	0.28
332.367	0.17
332.578	0.3
332.788	0.37
332.999	0.3
333.209	0.24
333.419	0.17
333.629	0.29
333.84	0.29
334.05	0.28
334.26	0.35
334.47	0.27
334.681	0.3
334.891	0.22
335.101	0.32
335.311	0.37
335.521	0.29
335.732	0.21
335.942	0.34
336.152	0.29
336.362	0.24
336.572	0.23
336.782	0.3
336.992	0.25
337.202	0.28
337.412	0.24
337.622	0.3
337.832	0.29
338.042	0.27
338.252	0.19
338.462	0.26
338.672	0.25
338.882	0.25
339.092	0.18
339.302	0.35
339.511	0.29
339.721	0.22
339.931	0.2
340.141	0.31
340.351	0.33
340.561	0.28
340.77	0.27
340.98	0.34
341.19	0.31
341.4	0.25
341.609	0.17
341.819	0.24
342.029	0.18
342.238	0.3
342.448	0.25
342.658	0.33
342.867	0.28
343.077	0.24
343.286	0.27
343.496	0.26
343.706	0.35
343.915	0.2
344.125	0.25
344.334	0.27
344.544	0.2
344.753	0.21
344.963	0.22
345.172	0.18
345.381	0.21
345.591	0.17
345.8	0.22
346.01	0.33
346.219	0.28
346.428	0.13
346.638	0.28
346.847	0.28
347.056	0.35
347.266	0.24
347.475	0.2
347.684	0.28
347.893	0.27
348.103	0.26
348.312	0.21
348.521	0.27
348.73	0.24
348.94	0.24
349.149	0.24
349.358	0.26
349.567	0.19
349.776	0.19
349.985	0.27
350.194	0.3
350.403	0.29
350.612	0.17
350.821	0.21
351.03	0.28
351.239	0.19
351.448	0.25
351.657	0.18
351.866	0.33
352.075	0.23
352.284	0.26
352.493	0.22
352.702	0.3
352.911	0.26
353.12	0.24
353.329	0.21
353.538	0.28
353.746	0.22
353.955	0.19
354.164	0.24
354.373	0.2
354.582	0.26
354.79	0.24
354.999	0.27
355.208	0.26
355.416	0.36
355.625	0.18
355.834	0.24
356.042	0.29
356.251	0.22
356.46	0.22
356.668	0.24
356.877	0.35
357.085	0.3
357.294	0.18
357.503	0.27
357.711	0.25
357.92	0.42
358.128	0.29
358.337	0.21
358.545	0.29
358.754	0.25
358.962	0.26
359.17	0.21
359.379	0.27
359.587	0.22
359.796	0.21
360.004	0.33
360.212	0.28
360.421	0.28
360.629	0.24
360.837	0.22
361.046	0.28
361.254	0.43
361.462	0.23
361.67	0.19
361.879	0.27
362.087	0.34
362.295	0.24
362.503	0.19
362.711	0.2
362.92	0.22
363.128	0.21
363.336	0.18
363.544	0.17
363.752	0.23
363.96	0.18
364.168	0.2
364.376	0.23
364.584	0.28
364.792	0.32
365	0.25
365.208	0.28
365.416	0.27
365.624	0.32
365.832	0.18
366.04	0.33
366.248	0.24
366.456	0.27
366.664	0.23
366.872	0.21
367.079	0.25
367.287	0.22
367.495	0.24
367.703	0.22
367.911	0.21
368.118	0.25
368.326	0.24
368.534	0.19
368.742	0.32
368.949	0.17
369.157	0.19
369.365	0.3
369.572	0.22
369.78	0.2
369.988	0.29
370.195	0.32
370.403	0.26
370.61	0.21
370.818	0.26
371.026	0.36
371.233	0.23
371.441	0.31
371.648	0.26
371.856	0.28
372.063	0.25
372.271	0.22
372.478	0.17
372.685	0.23
372.893	0.31
373.1	0.23
373.308	0.22
373.515	0.36
373.722	0.31
373.93	0.25
374.137	0.25
374.344	0.34
374.552	0.3
374.759	0.27
374.966	0.24
375.173	0.25
375.381	0.31
375.588	0.23
375.795	0.2
376.002	0.23
376.209	0.2
376.417	0.26
376.624	0.29
376.831	0.32
377.038	0.23
377.245	0.18
377.452	0.22
377.659	0.28
377.866	0.23
378.073	0.23
378.28	0.25
378.487	0.31
378.694	0.31
378.901	0.24
379.108	0.21
379.315	0.29
379.522	0.36
379.729	0.28
379.936	0.23
380.143	0.25
380.35	0.3
380.557	0.26
380.763	0.24
380.97	0.25
381.177	0.25
381.384	0.29
381.591	0.21
381.797	0.3
382.004	0.31
382.211	0.3
382.418	0.19
382.624	0.29
382.831	0.31
383.038	0.26
383.244	0.27
383.451	0.27
383.658	0.32
383.864	0.27
384.071	0.23
384.277	0.37
384.484	0.29
384.69	0.38
384.897	0.23
385.103	0.23
385.31	0.23
385.516	0.24
385.723	0.23
385.929	0.29
386.136	0.29
386.342	0.3
386.549	0.26
386.755	0.32
386.961	0.29
387.168	0.29
387.374	0.3
387.58	0.36
387.787	0.27
387.993	0.29
388.199	0.28
388.406	0.29
388.612	0.27
388.818	0.29
389.024	0.23
389.231	0.29
389.437	0.39
389.643	0.32
389.849	0.3
390.055	0.26
390.261	0.28
390.467	0.33
390.674	0.26
390.88	0.28
391.086	0.36
391.292	0.26
391.498	0.3
391.704	0.36
391.91	0.27
392.116	0.3
392.322	0.22
392.528	0.32
392.734	0.32
392.94	0.31
393.146	0.3
393.352	0.35
393.557	0.28
393.763	0.28
393.969	0.34
394.175	0.32
394.381	0.34
394.587	0.24
394.792	0.3
394.998	0.34
395.204	0.33
395.41	0.25
395.615	0.32
395.821	0.31
396.027	0.33
396.233	0.27
396.438	0.34
396.644	0.37
396.85	0.33
397.055	0.26
397.261	0.33
397.466	0.46
397.672	0.36
397.878	0.36
398.083	0.35
398.289	0.3
398.494	0.39
398.7	0.38
398.905	0.26
399.111	0.43
399.316	0.28
399.522	0.34
399.727	0.3
399.932	0.32
400.138	0.33
400.343	0.35
400.549	0.35
400.754	0.35
400.959	0.36
401.165	0.32
401.37	0.39
401.575	0.45
401.78	0.33
401.986	0.34
402.191	0.37
402.396	0.39
402.601	0.42
402.807	0.41
403.012	0.36
403.217	0.42
403.422	0.41
403.627	0.41
403.832	0.39
404.037	0.42
404.243	0.48
404.448	0.41
404.653	0.42
404.858	0.46
405.063	0.43
405.268	0.35
405.473	0.44
405.678	0.39
405.883	0.68
406.088	0.52
406.293	0.41
406.498	0.46
406.703	0.53
406.907	0.46
407.112	0.42
407.317	0.55
407.522	0.55
407.727	0.47
407.932	0.55
408.136	0.62
408.341	0.51
408.546	0.56
408.751	0.57
408.956	0.59
409.16	0.67
409.365	0.59
409.57	0.55
409.774	0.61
409.979	0.67
410.184	0.65
410.388	0.63
410.593	0.74
410.798	0.73
411.002	0.76
411.207	0.82
411.411	0.76
411.616	0.7
411.82	0.82
412.025	0.83
412.229	0.84
412.434	0.92
412.638	0.96
412.843	0.87
413.047	0.93
413.252	0.89
413.456	0.97
413.66	1.01
413.865	0.98
414.069	1.14
414.273	1.04
414.478	1.09
414.682	1.13
414.886	1.21
415.091	1.15
415.295	1.2
415.499	1.32
415.703	1.32
415.908	1.4
416.112	1.28
416.316	1.55
416.52	1.53
416.724	1.51
416.929	1.52
417.133	1.77
417.337	1.65
417.541	1.66
417.745	1.75
417.949	1.85
418.153	1.89
418.357	1.96
418.561	2.09
418.765	2.1
418.969	2.25
419.173	2.35
419.377	2.26
419.581	2.53
419.785	2.47
419.989	2.45
420.193	2.67
420.397	2.66
420.601	2.85
420.804	2.91
421.008	2.9
421.212	3.11
421.416	3.12
421.62	3.11
421.823	3.15
422.027	3.4
422.231	3.29
422.435	3.3
422.638	3.35
422.842	3.48
423.046	3.53
423.249	3.77
423.453	3.76
423.657	3.91
423.86	3.98
424.064	4.08
424.268	4.23
424.471	4.18
424.675	4.45
424.878	4.52
425.082	4.62
425.285	4.91
425.489	4.82
425.692	4.95
425.896	5.01
426.099	5.11
426.303	5.39
426.506	5.42
426.71	5.64
426.913	5.9
427.116	6.01
427.32	6.01
427.523	6.07
427.726	6.48
427.93	6.43
428.133	6.78
428.336	6.85
428.54	7.11
428.743	7.34
428.946	7.56
429.149	7.48
429.353	7.55
429.556	7.64
429.759	7.68
429.962	7.85
430.165	7.98
430.368	7.74
430.571	7.78
430.775	7.86
430.978	7.85
431.181	7.79
431.384	7.92
431.587	8.08
431.79	8.33
431.993	8.31
432.196	8.65
432.399	9.06
432.602	9.14
432.805	9.17
433.008	9.69
433.211	9.48
433.414	9.98
433.616	10.01
433.819	9.86
434.022	10.17
434.225	10.36
434.428	10.31
434.631	10.76
434.833	10.57
435.036	10.75
435.239	10.9
435.442	11.05
435.645	11.18
435.847	11.19
436.05	11.58
436.253	11.84
436.455	11.77
436.658	11.64
436.861	11.98
437.063	12.1
437.266	12.09
437.468	12.37
437.671	12.68
437.874	12.79
438.076	12.53
438.279	13.09
438.481	13.08
438.684	14.01
438.886	13.56
439.089	13.61
439.291	13.79
439.494	14.2
439.696	14.31
439.899	14.82
440.101	15.21
440.303	15.3
440.506	16.04
440.708	15.85
440.91	16.05
441.113	16.32
441.315	16.5
441.517	16.33
441.72	16.83
441.922	16.46
442.124	16.42
442.326	16.83
442.529	16.96
442.731	16.94
442.933	17.2
443.135	16.98
443.337	16.96
443.539	17.62
443.742	17.2
443.944	17.93
444.146	17.64
444.348	17.74
444.55	17.4
444.752	17.8
444.954	17.72
445.156	17.56
445.358	18.11
445.56	18.32
445.762	18.1
445.964	18.43
446.166	18.19
446.368	18.25
446.57	18.33
446.772	17.85
446.974	17.74
447.175	17.97
447.377	17.63
447.579	18.01
447.781	17.91
447.983	17.54
448.184	17.17
448.386	17.63
448.588	17.07
448.79	17.06
448.991	17.42
449.193	17.54
449.395	16.73
449.597	16.38
449.798	16.35
450	15.96
450.202	15.91
450.403	15.9
450.605	15.87
450.806	15.41
451.008	15.16
451.21	15.1
451.411	14.67
451.613	13.82
451.814	14.29
452.016	14.16
452.217	13.42
452.419	13.48
452.62	13.24
452.821	12.89
453.023	12.76
453.224	12.35
453.426	12.1
453.627	11.26
453.828	11.45
454.03	11.48
454.231	11.42
454.432	11.31
454.634	11.02
454.835	10.67
455.036	10.68
455.238	10.23
455.439	10.01
455.64	9.75
455.841	9.63
456.042	9.74
456.244	9.45
456.445	9.14
456.646	8.81
456.847	8.82
457.048	8.7
457.249	8.71
457.45	8.44
457.651	7.89
457.852	7.78
458.054	7.4
458.255	7.46
458.456	7.66
458.657	7.39
458.858	6.9
459.058	6.82
459.259	6.97
459.46	6.61
459.661	6.56
459.862	6.66
460.063	6.47
460.264	6.43
460.465	6.17
460.666	6.28
460.866	5.88
461.067	5.65
461.268	5.7
461.469	5.55
461.67	5.5
461.87	5.32
462.071	5.39
462.272	5.32
462.473	5.27
462.673	5.36
462.874	5.36
463.075	5.27
463.275	5.26
463.476	5.25
463.676	5.25
463.877	5.05
464.078	5.04
464.278	5.1
464.479	5
464.679	4.85
464.88	4.78
465.08	4.78
465.281	4.59
465.481	4.38
465.682	4.28
465.882	4.28
466.083	4.31
466.283	4.13
466.483	3.94
466.684	3.87
466.884	3.67
467.085	3.78
467.285	3.86
467.485	3.73
467.686	3.59
467.886	3.53
468.086	3.48
468.286	3.45
468.487	3.54
468.687	3.32
468.887	3.36
469.087	3.46
469.287	3.37
469.488	3.17
469.688	3.29
469.888	3.27
470.088	3.27
470.288	3.18
470.488	3.18
470.688	3.03
470.888	2.91
471.088	2.72
471.288	2.91
471.488	2.8
471.688	2.79
471.888	2.74
472.088	2.92
472.288	2.84
472.488	2.65
472.688	2.6
472.888	2.68
473.088	2.66
473.288	2.62
473.488	2.56
473.688	2.73
473.887	2.54
474.087	2.48
474.287	2.52
474.487	2.45
474.687	2.47
474.886	2.46
475.086	2.41
475.286	2.35
475.486	2.36
475.685	2.29
475.885	2.22
476.085	2.32
476.284	2.32
476.484	2.32
476.684	2.24
476.883	2.35
477.083	2.28
477.282	2.14
477.482	2.24
477.681	2.21
477.881	2.13
478.08	2.13
478.28	2.1
478.479	2.15
478.679	2.18
478.878	2.12
479.078	2.06
479.277	2.17
479.477	2.08
479.676	2.07
479.875	2.06
480.075	1.97
480.274	2.08
480.473	2.12
480.673	2.03
480.872	2.17
481.071	2.09
481.271	2.12
481.47	2.03
481.669	2.01
481.868	2.03
482.067	2.05
482.267	1.96
482.466	2
482.665	1.98
482.864	1.99
483.063	1.99
483.262	2.06
483.461	2.1
483.661	2.12
483.86	2.02
484.059	2.08
484.258	2.08
484.457	2.04
484.656	2.05
484.855	2.15
485.054	1.92
485.253	2.05
485.452	1.97
485.651	2.07
485.849	2.07
486.048	2.04
486.247	2.05
486.446	2.16
486.645	2.06
486.844	2.09
487.043	2.07
487.241	2.11
487.44	2.06
487.639	2.16
487.838	2.16
488.037	2.11
488.235	2.24
488.434	2.17
488.633	2.07
488.831	2.24
489.03	2.27
489.229	2.22
489.427	2.23
489.626	2.33
489.825	2.28
490.023	2.29
490.222	2.31
490.42	2.35
490.619	2.41
490.817	2.4
491.016	2.33
491.214	2.42
491.413	2.41
491.611	2.36
491.81	2.44
492.008	2.44
492.207	2.54
492.405	2.54
492.604	2.49
492.802	2.55
493	2.6
493.199	2.6
493.397	2.64
493.595	2.72
493.794	2.65
493.992	2.75
494.19	2.76
494.388	2.83
494.587	2.73
494.785	2.79
494.983	2.72
495.181	2.88
495.379	2.93
495.578	2.96
495.776	2.93
495.974	2.93
496.172	2.97
496.37	3.11
496.568	3.08
496.766	3.07
496.964	3.17
497.162	3.17
497.36	3.19
497.558	3.24
497.756	3.29
497.954	3.3
498.152	3.31
498.35	3.45
498.548	3.35
498.746	3.41
498.944	3.42
499.142	3.41
499.34	3.51
499.538	3.63
499.736	3.48
499.933	3.66
500.131	3.62
500.329	3.75
500.527	3.76
500.725	3.86
500.922	3.9
501.12	3.87
501.318	3.93
501.516	3.92
501.713	4.01
501.911	3.98
502.109	3.92
502.306	4.04
502.504	3.99
