Data from Apollo_Calib_20240827__AbsoluteIrradiance__826__12-55-00-480.txt Node

Date: Wed Aug 28 12:55:00 BST 2024
User: biology
Spectrometer: FLMT08252
Trigger mode: 0
Integration Time (sec): 5.000000E-1
Scans to average: 5
Electric dark correction enabled: true
Nonlinearity correction enabled: false
Boxcar width: 0
XAxis mode: Wavelengths
Number of Pixels in Spectrum: 3648
>>>>>Begin Spectral Data<<<<<
179.588	-0
179.809	-0
180.03	-0
180.251	-0
180.473	-0
180.694	0
180.915	0
181.136	-0
181.357	0
181.578	0
181.799	-0
182.02	-0
182.241	-0
182.462	-0
182.683	0
182.904	-0
183.125	-0
183.346	0
183.567	0
183.788	0
184.009	0
184.23	0
184.451	0
184.672	0
184.892	0
185.113	0
185.334	0
185.555	0
185.776	0
185.996	0
186.217	0
186.438	0
186.659	0
186.879	0
187.1	0
187.321	0
187.541	0
187.762	0
187.983	0
188.203	0
188.424	0
188.644	0
188.865	0
189.086	0
189.306	0
189.527	0
189.747	0
189.968	0
190.188	0
190.409	0
190.629	0
190.849	0
191.07	0
191.29	0
191.511	0
191.731	0
191.951	0
192.172	0
192.392	0
192.612	0
192.833	0
193.053	0
193.273	0
193.493	0
193.714	0
193.934	0
194.154	0
194.374	0
194.594	0
194.815	0
195.035	0
195.255	0
195.475	0
195.695	0
195.915	0
196.135	0
196.355	0
196.575	0
196.795	0
197.015	0
197.235	0
197.455	0
197.675	0
197.895	0
198.115	0
198.335	0
198.555	0
198.775	0
198.995	0
199.214	0
199.434	0
199.654	0
199.874	0
200.094	3.74
200.313	2.5
200.533	1.62
200.753	1.35
200.973	3.81
201.192	3.41
201.412	1.26
201.632	1.99
201.851	3.8
202.071	1.68
202.291	1.35
202.51	1.67
202.73	2.08
202.95	1.44
203.169	0.99
203.389	1.69
203.608	2.39
203.828	1.68
204.047	1.62
204.267	2.35
204.486	2.03
204.706	2.05
204.925	1.47
205.145	1.35
205.364	2.17
205.583	2.5
205.803	1.51
206.022	1.08
206.242	2.11
206.461	1.52
206.68	1.08
206.9	1.46
207.119	2.52
207.338	2.05
207.557	1.08
207.777	0.98
207.996	1.58
208.215	1.88
208.434	1.1
208.654	0.79
208.873	1.59
209.092	2.13
209.311	1.09
209.53	0.94
209.749	1.19
209.968	1.02
210.187	0.78
210.407	0.75
210.626	0.92
210.845	1.76
211.064	0.86
211.283	0.57
211.502	1.62
211.721	1.05
211.94	1.06
212.159	1.26
212.377	1.61
212.596	1.36
212.815	1.07
213.034	1.43
213.253	1.33
213.472	1.26
213.691	0.91
213.91	0.55
214.128	0.62
214.347	1.56
214.566	0.42
214.785	0.64
215.003	1.2
215.222	1.07
215.441	1
215.66	0.59
215.878	0.84
216.097	1.07
216.316	0.63
216.534	0.89
216.753	0.91
216.972	0.83
217.19	0.91
217.409	0.6
217.627	0.69
217.846	0.78
218.064	0.98
218.283	0.64
218.501	1.4
218.72	0.97
218.938	0.59
219.157	0.45
219.375	1.04
219.594	1.03
219.812	0.24
220.031	0.45
220.249	1.22
220.467	1.08
220.686	0.55
220.904	0.54
221.122	0.51
221.341	1.3
221.559	0.82
221.777	0.32
221.995	0.72
222.214	0.97
222.432	0.63
222.65	0.85
222.868	0.69
223.086	0.84
223.305	0.99
223.523	0.51
223.741	0.89
223.959	0.79
224.177	0.24
224.395	0.38
224.613	0.72
224.831	1.07
225.049	0.19
225.267	0.51
225.485	0.7
225.703	0.51
225.921	0.53
226.139	0.51
226.357	0.75
226.575	0.75
226.793	0.38
227.011	1.64
227.229	0.71
227.447	0.85
227.665	0.5
227.883	0.41
228.1	0.58
228.318	0.71
228.536	0.37
228.754	0.38
228.972	0.81
229.189	0.68
229.407	0.6
229.625	0.5
229.843	0.83
230.06	0.77
230.278	0.44
230.496	0.6
230.713	0.51
230.931	0.77
231.149	0.41
231.366	0.28
231.584	0.55
231.801	1
232.019	0.52
232.236	0.39
232.454	0.37
232.671	0.65
232.889	0.4
233.106	0.43
233.324	0.67
233.541	0.46
233.759	0.46
233.976	0.35
234.194	0.53
234.411	0.41
234.628	0.38
234.846	0.4
235.063	0.43
235.28	0.43
235.498	0.42
235.715	0.26
235.932	0.7
236.149	0.56
236.367	0.36
236.584	0.49
236.801	0.4
237.018	0.8
237.236	0.55
237.453	0.3
237.67	0.64
237.887	0.57
238.104	0.38
238.321	0.33
238.538	0.35
238.755	0.58
238.973	0.3
239.19	0.49
239.407	0.44
239.624	0.57
239.841	0.26
240.058	0.35
240.275	0.47
240.492	0.47
240.709	0.4
240.925	0.45
241.142	0.43
241.359	0.27
241.576	0.29
241.793	0.31
242.01	0.37
242.227	0.67
242.444	0.59
242.66	0.59
242.877	0.44
243.094	0.45
243.311	0.41
243.527	0.36
243.744	0.54
243.961	0.52
244.178	0.29
244.394	0.37
244.611	0.57
244.828	0.66
245.044	0.31
245.261	0.36
245.477	0.47
245.694	0.52
245.911	0.31
246.127	0.4
246.344	0.52
246.56	0.5
246.777	0.34
246.993	0.39
247.21	0.48
247.426	0.55
247.643	0.24
247.859	0.3
248.076	0.34
248.292	0.69
248.508	0.26
248.725	0.43
248.941	0.41
249.157	0.61
249.374	0.23
249.59	0.36
249.806	0.45
250.023	0.49
250.239	0.27
250.455	0.27
250.671	0.43
250.888	0.45
251.104	0.49
251.32	0.25
251.536	0.37
251.752	0.36
251.969	0.38
252.185	0.36
252.401	0.63
252.617	0.45
252.833	0.33
253.049	0.37
253.265	0.42
253.481	0.42
253.697	0.31
253.913	0.29
254.129	0.42
254.345	0.41
254.561	0.32
254.777	0.35
254.993	0.5
255.209	0.45
255.425	0.28
255.641	0.26
255.857	0.47
256.073	0.43
256.288	0.18
256.504	0.3
256.72	0.45
256.936	0.61
257.152	0.33
257.367	0.29
257.583	0.43
257.799	0.55
258.015	0.32
258.23	0.28
258.446	0.52
258.662	0.35
258.877	0.32
259.093	0.22
259.309	0.36
259.524	0.41
259.74	0.3
259.955	0.19
260.171	0.37
260.387	0.43
260.602	0.38
260.818	0.41
261.033	0.22
261.249	0.37
261.464	0.27
261.68	0.29
261.895	0.39
262.11	0.46
262.326	0.3
262.541	0.22
262.757	0.43
262.972	0.41
263.187	0.36
263.403	0.45
263.618	0.5
263.833	0.35
264.049	0.27
264.264	0.38
264.479	0.36
264.694	0.46
264.91	0.26
265.125	0.26
265.34	0.45
265.555	0.55
265.77	0.38
265.986	0.28
266.201	0.4
266.416	0.42
266.631	0.26
266.846	0.29
267.061	0.52
267.276	0.45
267.491	0.17
267.706	0.35
267.921	0.34
268.136	0.38
268.351	0.32
268.566	0.17
268.781	0.44
268.996	0.43
269.211	0.25
269.426	0.2
269.641	0.3
269.856	0.45
270.071	0.27
270.285	0.2
270.5	0.4
270.715	0.39
270.93	0.3
271.145	0.3
271.359	0.36
271.574	0.31
271.789	0.32
272.004	0.29
272.218	0.34
272.433	0.4
272.648	0.24
272.862	0.36
273.077	0.38
273.292	0.33
273.506	0.25
273.721	0.3
273.936	0.34
274.15	0.42
274.365	0.22
274.579	0.4
274.794	0.45
275.008	0.33
275.223	0.21
275.437	0.29
275.652	0.41
275.866	0.36
276.081	0.27
276.295	0.31
276.509	0.35
276.724	0.32
276.938	0.33
277.153	0.34
277.367	0.4
277.581	0.26
277.796	0.31
278.01	0.22
278.224	0.39
278.438	0.48
278.653	0.2
278.867	0.25
279.081	0.09
279.295	0.24
279.51	0.35
279.724	0.17
279.938	0.4
280.152	0.37
280.366	0.24
280.58	0.27
280.794	0.39
281.008	0.32
281.222	0.33
281.437	0.46
281.651	0.33
281.865	0.43
282.079	0.27
282.293	0.12
282.507	0.24
282.721	0.3
282.935	0.26
283.148	0.16
283.362	0.21
283.576	0.23
283.79	0.26
284.004	0.21
284.218	0.41
284.432	0.27
284.646	0.29
284.859	0.19
285.073	0.27
285.287	0.32
285.501	0.26
285.714	0.25
285.928	0.28
286.142	0.3
286.356	0.21
286.569	0.24
286.783	0.39
286.997	0.34
287.21	0.27
287.424	0.26
287.637	0.28
287.851	0.24
288.065	0.3
288.278	0.23
288.492	0.23
288.705	0.27
288.919	0.31
289.132	0.18
289.346	0.36
289.559	0.19
289.773	0.19
289.986	0.3
290.2	0.26
290.413	0.37
290.626	0.25
290.84	0.21
291.053	0.29
291.267	0.35
291.48	0.26
291.693	0.24
291.906	0.18
292.12	0.3
292.333	0.21
292.546	0.25
292.76	0.3
292.973	0.31
293.186	0.27
293.399	0.2
293.612	0.32
293.826	0.27
294.039	0.29
294.252	0.22
294.465	0.38
294.678	0.35
294.891	0.24
295.104	0.2
295.317	0.26
295.53	0.29
295.743	0.24
295.956	0.25
296.169	0.38
296.382	0.32
296.595	0.23
296.808	0.25
297.021	0.33
297.234	0.34
297.447	0.24
297.66	0.26
297.873	0.32
298.086	0.3
298.299	0.23
298.511	0.13
298.724	0.22
298.937	0.2
299.15	0.19
299.363	0.25
299.575	0.28
299.788	0.29
300.001	0.26
300.213	0.17
300.426	0.24
300.639	0.26
300.852	0.19
301.064	0.25
301.277	0.36
301.489	0.27
301.702	0.28
301.915	0.25
302.127	0.24
302.34	0.25
302.552	0.27
302.765	0.18
302.977	0.34
303.19	0.23
303.402	0.22
303.615	0.22
303.827	0.26
304.04	0.25
304.252	0.26
304.464	0.18
304.677	0.41
304.889	0.27
305.102	0.22
305.314	0.19
305.526	0.24
305.739	0.3
305.951	0.23
306.163	0.22
306.375	0.33
306.588	0.28
306.8	0.23
307.012	0.16
307.224	0.27
307.436	0.35
307.649	0.17
307.861	0.24
308.073	0.31
308.285	0.22
308.497	0.19
308.709	0.18
308.921	0.24
309.133	0.33
309.346	0.23
309.558	0.23
309.77	0.27
309.982	0.35
310.194	0.23
310.406	0.19
310.617	0.34
310.829	0.3
311.041	0.3
311.253	0.21
311.465	0.26
311.677	0.21
311.889	0.24
312.101	0.21
312.313	0.3
312.524	0.33
312.736	0.17
312.948	0.24
313.16	0.36
313.372	0.29
313.583	0.31
313.795	0.26
314.007	0.24
314.218	0.31
314.43	0.28
314.642	0.17
314.853	0.17
315.065	0.34
315.277	0.25
315.488	0.24
315.7	0.3
315.912	0.28
316.123	0.19
316.335	0.21
316.546	0.34
316.758	0.21
316.969	0.22
317.181	0.24
317.392	0.25
317.604	0.35
317.815	0.19
318.026	0.2
318.238	0.2
318.449	0.29
318.661	0.18
318.872	0.18
319.083	0.22
319.295	0.3
319.506	0.2
319.717	0.26
319.929	0.28
320.14	0.23
320.351	0.22
320.562	0.21
320.774	0.27
320.985	0.25
321.196	0.24
321.407	0.2
321.618	0.3
321.829	0.29
322.041	0.26
322.252	0.24
322.463	0.29
322.674	0.27
322.885	0.18
323.096	0.22
323.307	0.23
323.518	0.28
323.729	0.17
323.94	0.2
324.151	0.25
324.362	0.32
324.573	0.23
324.784	0.2
324.995	0.33
325.206	0.28
325.417	0.2
325.628	0.17
325.838	0.24
326.049	0.26
326.26	0.26
326.471	0.2
326.682	0.29
326.892	0.26
327.103	0.13
327.314	0.19
327.525	0.31
327.735	0.21
327.946	0.21
328.157	0.22
328.368	0.3
328.578	0.23
328.789	0.3
328.999	0.23
329.21	0.2
329.421	0.26
329.631	0.24
329.842	0.17
330.052	0.28
330.263	0.24
330.473	0.28
330.684	0.21
330.894	0.26
331.105	0.26
331.315	0.25
331.526	0.13
331.736	0.35
331.947	0.28
332.157	0.21
332.367	0.17
332.578	0.3
332.788	0.36
332.999	0.28
333.209	0.22
333.419	0.21
333.629	0.28
333.84	0.27
334.05	0.23
334.26	0.34
334.47	0.23
334.681	0.3
334.891	0.21
335.101	0.32
335.311	0.36
335.521	0.26
335.732	0.21
335.942	0.34
336.152	0.23
336.362	0.28
336.572	0.26
336.782	0.29
336.992	0.23
337.202	0.2
337.412	0.19
337.622	0.26
337.832	0.26
338.042	0.28
338.252	0.18
338.462	0.23
338.672	0.24
338.882	0.21
339.092	0.26
339.302	0.33
339.511	0.29
339.721	0.19
339.931	0.17
340.141	0.33
340.351	0.31
340.561	0.26
340.77	0.23
340.98	0.33
341.19	0.28
341.4	0.21
341.609	0.21
341.819	0.19
342.029	0.18
342.238	0.26
342.448	0.16
342.658	0.28
342.867	0.25
343.077	0.25
343.286	0.24
343.496	0.28
343.706	0.34
343.915	0.15
344.125	0.26
344.334	0.26
344.544	0.17
344.753	0.24
344.963	0.21
345.172	0.22
345.381	0.2
345.591	0.18
345.8	0.23
346.01	0.37
346.219	0.31
346.428	0.18
346.638	0.2
346.847	0.25
347.056	0.34
347.266	0.23
347.475	0.2
347.684	0.28
347.893	0.29
348.103	0.26
348.312	0.18
348.521	0.24
348.73	0.26
348.94	0.23
349.149	0.2
349.358	0.24
349.567	0.22
349.776	0.16
349.985	0.19
350.194	0.28
350.403	0.31
350.612	0.11
350.821	0.19
351.03	0.25
351.239	0.2
351.448	0.26
351.657	0.2
351.866	0.37
352.075	0.26
352.284	0.25
352.493	0.17
352.702	0.3
352.911	0.26
353.12	0.23
353.329	0.21
353.538	0.27
353.746	0.25
353.955	0.22
354.164	0.23
354.373	0.24
354.582	0.28
354.79	0.23
354.999	0.22
355.208	0.24
355.416	0.36
355.625	0.16
355.834	0.17
356.042	0.26
356.251	0.23
356.46	0.15
356.668	0.25
356.877	0.36
357.085	0.28
357.294	0.13
357.503	0.24
357.711	0.23
357.92	0.45
358.128	0.24
358.337	0.19
358.545	0.27
358.754	0.2
358.962	0.27
359.17	0.23
359.379	0.27
359.587	0.23
359.796	0.23
360.004	0.29
360.212	0.26
360.421	0.31
360.629	0.2
360.837	0.22
361.046	0.31
361.254	0.4
361.462	0.22
361.67	0.21
361.879	0.28
362.087	0.32
362.295	0.29
362.503	0.22
362.711	0.17
362.92	0.2
363.128	0.2
363.336	0.21
363.544	0.17
363.752	0.22
363.96	0.24
364.168	0.23
364.376	0.26
364.584	0.25
364.792	0.34
365	0.24
365.208	0.25
365.416	0.28
365.624	0.29
365.832	0.2
366.04	0.27
366.248	0.24
366.456	0.25
366.664	0.25
366.872	0.23
367.079	0.19
367.287	0.23
367.495	0.25
367.703	0.22
367.911	0.23
368.118	0.26
368.326	0.24
368.534	0.16
368.742	0.29
368.949	0.2
369.157	0.23
369.365	0.27
369.572	0.26
369.78	0.2
369.988	0.28
370.195	0.27
370.403	0.29
370.61	0.24
370.818	0.24
371.026	0.38
371.233	0.21
371.441	0.26
371.648	0.19
371.856	0.27
372.063	0.25
372.271	0.22
372.478	0.21
372.685	0.21
372.893	0.31
373.1	0.25
373.308	0.21
373.515	0.36
373.722	0.33
373.93	0.23
374.137	0.3
374.344	0.34
374.552	0.31
374.759	0.3
374.966	0.27
375.173	0.21
375.381	0.33
375.588	0.2
375.795	0.15
376.002	0.28
376.209	0.2
376.417	0.24
376.624	0.28
376.831	0.31
377.038	0.24
377.245	0.15
377.452	0.18
377.659	0.26
377.866	0.28
378.073	0.18
378.28	0.22
378.487	0.32
378.694	0.3
378.901	0.25
379.108	0.22
379.315	0.29
379.522	0.33
379.729	0.26
379.936	0.25
380.143	0.28
380.35	0.31
380.557	0.2
380.763	0.25
380.97	0.27
381.177	0.25
381.384	0.27
381.591	0.21
381.797	0.28
382.004	0.3
382.211	0.23
382.418	0.23
382.624	0.27
382.831	0.31
383.038	0.28
383.244	0.28
383.451	0.3
383.658	0.28
383.864	0.27
384.071	0.22
384.277	0.32
384.484	0.27
384.69	0.29
384.897	0.2
385.103	0.25
385.31	0.22
385.516	0.22
385.723	0.2
385.929	0.25
386.136	0.25
386.342	0.26
386.549	0.21
386.755	0.34
386.961	0.32
387.168	0.23
387.374	0.2
387.58	0.33
387.787	0.29
387.993	0.32
388.199	0.22
388.406	0.25
388.612	0.25
388.818	0.21
389.024	0.2
389.231	0.24
389.437	0.38
389.643	0.32
389.849	0.22
390.055	0.31
390.261	0.31
390.467	0.31
390.674	0.22
390.88	0.33
391.086	0.27
391.292	0.26
391.498	0.33
391.704	0.34
391.91	0.28
392.116	0.23
392.322	0.2
392.528	0.34
392.734	0.31
392.94	0.38
393.146	0.28
393.352	0.31
393.557	0.27
393.763	0.31
393.969	0.3
394.175	0.27
394.381	0.3
394.587	0.26
394.792	0.33
394.998	0.34
395.204	0.35
395.41	0.29
395.615	0.3
395.821	0.28
396.027	0.35
396.233	0.26
396.438	0.33
396.644	0.38
396.85	0.34
397.055	0.33
397.261	0.27
397.466	0.33
397.672	0.35
397.878	0.33
398.083	0.34
398.289	0.31
398.494	0.41
398.7	0.37
398.905	0.23
399.111	0.42
399.316	0.29
399.522	0.32
399.727	0.32
399.932	0.4
400.138	0.34
400.343	0.39
400.549	0.35
400.754	0.35
400.959	0.38
401.165	0.35
401.37	0.38
401.575	0.44
401.78	0.4
401.986	0.33
402.191	0.33
402.396	0.37
402.601	0.41
402.807	0.39
403.012	0.36
403.217	0.41
403.422	0.41
403.627	0.44
403.832	0.33
404.037	0.43
404.243	0.42
404.448	0.36
404.653	0.4
404.858	0.39
405.063	0.45
405.268	0.41
405.473	0.4
405.678	0.43
405.883	0.65
406.088	0.47
406.293	0.37
406.498	0.44
406.703	0.52
406.907	0.48
407.112	0.44
407.317	0.48
407.522	0.56
407.727	0.47
407.932	0.55
408.136	0.63
408.341	0.54
408.546	0.54
408.751	0.56
408.956	0.59
409.16	0.63
409.365	0.58
409.57	0.56
409.774	0.65
409.979	0.64
410.184	0.64
410.388	0.55
410.593	0.74
410.798	0.76
411.002	0.69
411.207	0.79
411.411	0.79
411.616	0.71
411.82	0.76
412.025	0.78
412.229	0.81
412.434	1.01
412.638	0.85
412.843	0.87
413.047	0.96
413.252	0.93
413.456	0.99
413.66	1.03
413.865	0.99
414.069	1.15
414.273	1.07
414.478	1.05
414.682	1.13
414.886	1.21
415.091	1.12
415.295	1.16
415.499	1.39
415.703	1.35
415.908	1.39
416.112	1.34
416.316	1.51
416.52	1.45
416.724	1.48
416.929	1.57
417.133	1.84
417.337	1.58
417.541	1.75
417.745	1.75
417.949	1.87
418.153	1.9
418.357	1.9
418.561	2.15
418.765	2.1
418.969	2.26
419.173	2.29
419.377	2.32
419.581	2.55
419.785	2.52
419.989	2.5
420.193	2.64
420.397	2.69
420.601	2.85
420.804	2.96
421.008	2.95
421.212	3.14
421.416	3.13
421.62	3.09
421.823	3.14
422.027	3.36
422.231	3.4
422.435	3.3
422.638	3.37
422.842	3.49
423.046	3.48
423.249	3.76
423.453	3.73
423.657	3.9
423.86	3.97
424.064	4.08
424.268	4.28
424.471	4.34
424.675	4.54
424.878	4.54
425.082	4.59
425.285	4.9
425.489	4.88
425.692	5.05
425.896	5.06
426.099	5.27
426.303	5.41
426.506	5.44
426.71	5.6
426.913	5.94
427.116	6.03
427.32	6.01
427.523	6.12
427.726	6.4
427.93	6.49
428.133	6.79
428.336	6.94
428.54	7.05
428.743	7.34
428.946	7.62
429.149	7.54
429.353	7.53
429.556	7.69
429.759	7.7
429.962	7.79
430.165	8.04
430.368	7.7
430.571	7.77
430.775	7.81
430.978	7.74
431.181	7.87
431.384	7.99
431.587	7.99
431.79	8.46
431.993	8.3
432.196	8.64
432.399	8.99
432.602	9.16
432.805	9.34
433.008	9.81
433.211	9.68
433.414	10.02
433.616	9.99
433.819	10.05
434.022	10.03
434.225	10.37
434.428	10.41
434.631	10.85
434.833	10.59
435.036	10.83
435.239	11.05
435.442	11.04
435.645	11.24
435.847	11.29
436.05	11.64
436.253	11.86
436.455	11.8
436.658	11.72
436.861	11.97
437.063	12.17
437.266	12.16
437.468	12.53
437.671	12.76
437.874	12.79
438.076	12.57
438.279	13.21
438.481	13.17
438.684	13.94
438.886	13.48
439.089	13.82
439.291	13.82
439.494	14.12
439.696	14.43
439.899	14.85
440.101	15.31
440.303	15.56
440.506	16.13
440.708	15.98
440.91	16.14
441.113	16.31
441.315	16.47
441.517	16.22
441.72	16.75
441.922	16.56
442.124	16.46
442.326	16.79
442.529	17.09
442.731	17
442.933	17.41
443.135	17.11
443.337	17.18
443.539	17.58
443.742	17.36
443.944	18.01
444.146	17.68
444.348	17.78
444.55	17.5
444.752	17.86
444.954	17.76
445.156	17.75
445.358	18.07
445.56	18.28
445.762	18.14
445.964	18.61
446.166	18.33
446.368	18.23
446.57	18.32
446.772	17.95
446.974	17.83
447.175	18.02
447.377	17.88
447.579	18.13
447.781	17.86
447.983	17.66
448.184	17.38
448.386	17.53
448.588	17.13
448.79	17.19
448.991	17.4
449.193	17.48
449.395	16.76
449.597	16.49
449.798	16.33
450	15.89
450.202	15.97
450.403	15.97
450.605	15.79
450.806	15.43
451.008	15.34
451.21	15.11
451.411	14.72
451.613	13.81
451.814	14.2
452.016	14.21
452.217	13.55
452.419	13.53
452.62	13.15
452.821	12.99
453.023	12.9
453.224	12.43
453.426	12.11
453.627	11.37
453.828	11.49
454.03	11.6
454.231	11.49
454.432	11.23
454.634	11.11
454.835	10.73
455.036	10.65
455.238	10.27
455.439	9.97
455.64	9.76
455.841	9.65
456.042	9.77
456.244	9.46
456.445	9.07
456.646	8.87
456.847	8.73
457.048	8.77
457.249	8.75
457.45	8.52
457.651	7.9
457.852	7.86
458.054	7.47
458.255	7.43
458.456	7.57
458.657	7.37
458.858	6.93
459.058	6.86
459.259	6.92
459.46	6.54
459.661	6.54
459.862	6.6
460.063	6.43
460.264	6.52
460.465	6.11
460.666	6.2
460.866	5.96
461.067	5.63
461.268	5.71
461.469	5.69
461.67	5.52
461.87	5.37
462.071	5.34
462.272	5.29
462.473	5.25
462.673	5.47
462.874	5.31
463.075	5.16
463.275	5.2
463.476	5.29
463.676	5.16
463.877	5.09
464.078	5.11
464.278	5.12
464.479	4.95
464.679	4.86
464.88	4.79
465.08	4.79
465.281	4.64
465.481	4.39
465.682	4.26
465.882	4.33
466.083	4.26
466.283	4.09
466.483	4.07
466.684	3.8
466.884	3.67
467.085	3.76
467.285	3.85
467.485	3.71
467.686	3.59
467.886	3.56
468.086	3.5
468.286	3.5
468.487	3.51
468.687	3.39
468.887	3.34
469.087	3.41
469.287	3.38
469.488	3.15
469.688	3.32
469.888	3.33
470.088	3.26
470.288	3.11
470.488	3.15
470.688	2.98
470.888	2.92
471.088	2.8
471.288	2.9
471.488	2.83
471.688	2.86
471.888	2.76
472.088	2.9
472.288	2.78
472.488	2.65
472.688	2.61
472.888	2.69
473.088	2.71
473.288	2.57
473.488	2.52
473.688	2.68
473.887	2.51
474.087	2.49
474.287	2.47
474.487	2.43
474.687	2.55
474.886	2.47
475.086	2.38
475.286	2.47
475.486	2.32
475.685	2.28
475.885	2.23
476.085	2.35
476.284	2.25
476.484	2.28
476.684	2.31
476.883	2.38
477.083	2.23
477.282	2.18
477.482	2.26
477.681	2.16
477.881	2.1
478.08	2.13
478.28	2.1
478.479	2.14
478.679	2.18
478.878	2.09
479.078	2.09
479.277	2.14
479.477	2.07
479.676	2.06
479.875	2.05
480.075	1.98
480.274	2.09
480.473	2.09
480.673	2.09
480.872	2.13
481.071	2.11
481.271	2.08
481.47	2
481.669	2.03
481.868	2.03
482.067	2.05
482.267	1.93
482.466	1.99
482.665	2.01
482.864	1.93
483.063	1.98
483.262	2.06
483.461	2.04
483.661	2.11
483.86	2.04
484.059	2.11
484.258	2.07
484.457	2
484.656	2.07
484.855	2.15
485.054	1.98
485.253	2.04
485.452	1.99
485.651	2.12
485.849	2.03
486.048	2.04
486.247	2.07
486.446	2.15
486.645	2.04
486.844	2.11
487.043	2.11
487.241	2.16
487.44	2.1
487.639	2.17
487.838	2.16
488.037	2.14
488.235	2.26
488.434	2.17
488.633	2.07
488.831	2.22
489.03	2.27
489.229	2.27
489.427	2.25
489.626	2.29
489.825	2.32
490.023	2.31
490.222	2.25
490.42	2.36
490.619	2.39
490.817	2.41
491.016	2.37
491.214	2.43
491.413	2.44
491.611	2.38
491.81	2.4
492.008	2.49
492.207	2.53
492.405	2.55
492.604	2.44
492.802	2.56
493	2.62
493.199	2.63
493.397	2.63
493.595	2.65
493.794	2.66
493.992	2.81
494.19	2.71
494.388	2.83
494.587	2.73
494.785	2.83
494.983	2.73
495.181	2.85
495.379	2.91
495.578	2.97
495.776	2.93
495.974	2.9
496.172	2.94
496.37	3.06
496.568	3.07
496.766	3.09
496.964	3.14
497.162	3.17
497.36	3.17
497.558	3.29
497.756	3.29
497.954	3.31
498.152	3.37
498.35	3.44
498.548	3.39
498.746	3.39
498.944	3.43
499.142	3.41
499.34	3.55
499.538	3.6
499.736	3.46
499.933	3.64
500.131	3.65
500.329	3.75
500.527	3.77
500.725	3.84
500.922	3.82
501.12	3.86
501.318	3.91
501.516	3.88
501.713	4.01
501.911	3.99
502.109	3.91
502.306	4.07
502.504	3.98
502.701	4.04
