Data from Apollo_Calib_20240827__AbsoluteIrradiance__801__12-30-02-936.txt Node

Date: Wed Aug 28 12:30:02 BST 2024
User: biology
Spectrometer: FLMT08252
Trigger mode: 0
Integration Time (sec): 5.000000E-1
Scans to average: 5
Electric dark correction enabled: true
Nonlinearity correction enabled: false
Boxcar width: 0
XAxis mode: Wavelengths
Number of Pixels in Spectrum: 3648
>>>>>Begin Spectral Data<<<<<
179.588	-0
179.809	-0
180.03	-0
180.251	-0
180.473	-0
180.694	0
180.915	0
181.136	-0
181.357	0
181.578	-0
181.799	0
182.02	-0
182.241	-0
182.462	-0
182.683	0
182.904	-0
183.125	-0
183.346	0
183.567	0
183.788	0
184.009	0
184.23	0
184.451	0
184.672	0
184.892	0
185.113	0
185.334	0
185.555	0
185.776	0
185.996	0
186.217	0
186.438	0
186.659	0
186.879	0
187.1	0
187.321	0
187.541	0
187.762	0
187.983	0
188.203	0
188.424	0
188.644	0
188.865	0
189.086	0
189.306	0
189.527	0
189.747	0
189.968	0
190.188	0
190.409	0
190.629	0
190.849	0
191.07	0
191.29	0
191.511	0
191.731	0
191.951	0
192.172	0
192.392	0
192.612	0
192.833	0
193.053	0
193.273	0
193.493	0
193.714	0
193.934	0
194.154	0
194.374	0
194.594	0
194.815	0
195.035	0
195.255	0
195.475	0
195.695	0
195.915	0
196.135	0
196.355	0
196.575	0
196.795	0
197.015	0
197.235	0
197.455	0
197.675	0
197.895	0
198.115	0
198.335	0
198.555	0
198.775	0
198.995	0
199.214	0
199.434	0
199.654	0
199.874	0
200.094	4.13
200.313	2.04
200.533	2.03
200.753	1.83
200.973	3.7
201.192	3.4
201.412	1.12
201.632	1.64
201.851	3.39
202.071	1.55
202.291	1.36
202.51	1.32
202.73	2.32
202.95	2.14
203.169	1.26
203.389	1.9
203.608	1.98
203.828	1.93
204.047	1.3
204.267	2.04
204.486	2.09
204.706	1.97
204.925	1.64
205.145	1.26
205.364	2.12
205.583	2.61
205.803	1.36
206.022	1.06
206.242	1.73
206.461	1.16
206.68	1.29
206.9	1.67
207.119	2.32
207.338	2.3
207.557	1.17
207.777	1.14
207.996	1.1
208.215	2.23
208.434	1.02
208.654	0.9
208.873	1.61
209.092	2.07
209.311	1.06
209.53	1.01
209.749	1.29
209.968	1.07
210.187	1.21
210.407	0.49
210.626	1.36
210.845	1.68
211.064	1.25
211.283	0.68
211.502	1.53
211.721	0.86
211.94	1.16
212.159	1.36
212.377	1.31
212.596	1.6
212.815	1.27
213.034	1.12
213.253	1.66
213.472	1.29
213.691	0.89
213.91	0.73
214.128	0.56
214.347	1.54
214.566	0.57
214.785	0.5
215.003	1.32
215.222	1.13
215.441	0.89
215.66	0.5
215.878	1.02
216.097	1.01
216.316	0.7
216.534	0.87
216.753	1.19
216.972	0.93
217.19	0.8
217.409	0.72
217.627	0.8
217.846	0.81
218.064	0.83
218.283	0.54
218.501	1.23
218.72	1.18
218.938	0.58
219.157	0.64
219.375	1.05
219.594	1.01
219.812	0.48
220.031	0.63
220.249	1.18
220.467	1.05
220.686	0.74
220.904	0.43
221.122	0.61
221.341	1.16
221.559	0.87
221.777	0.37
221.995	0.81
222.214	1.02
222.432	0.61
222.65	0.71
222.868	0.93
223.086	0.8
223.305	0.96
223.523	0.54
223.741	1.17
223.959	0.68
224.177	0.31
224.395	0.6
224.613	0.77
224.831	0.9
225.049	0.36
225.267	0.53
225.485	0.7
225.703	0.52
225.921	0.53
226.139	0.55
226.357	0.81
226.575	0.67
226.793	0.39
227.011	1.5
227.229	0.82
227.447	0.76
227.665	0.41
227.883	0.25
228.1	0.67
228.318	0.74
228.536	0.28
228.754	0.45
228.972	0.65
229.189	0.82
229.407	0.49
229.625	0.6
229.843	0.88
230.06	0.82
230.278	0.5
230.496	0.61
230.713	0.67
230.931	0.81
231.149	0.53
231.366	0.35
231.584	0.61
231.801	1.03
232.019	0.43
232.236	0.34
232.454	0.42
232.671	0.58
232.889	0.43
233.106	0.32
233.324	0.74
233.541	0.62
233.759	0.5
233.976	0.39
234.194	0.56
234.411	0.53
234.628	0.42
234.846	0.43
235.063	0.53
235.28	0.49
235.498	0.5
235.715	0.33
235.932	0.73
236.149	0.46
236.367	0.31
236.584	0.56
236.801	0.39
237.018	0.56
237.236	0.4
237.453	0.29
237.67	0.66
237.887	0.51
238.104	0.47
238.321	0.32
238.538	0.38
238.755	0.69
238.973	0.3
239.19	0.57
239.407	0.58
239.624	0.54
239.841	0.39
240.058	0.29
240.275	0.43
240.492	0.39
240.709	0.46
240.925	0.36
241.142	0.53
241.359	0.4
241.576	0.32
241.793	0.4
242.01	0.42
242.227	0.61
242.444	0.47
242.66	0.61
242.877	0.55
243.094	0.37
243.311	0.47
243.527	0.45
243.744	0.57
243.961	0.52
244.178	0.37
244.394	0.49
244.611	0.62
244.828	0.69
245.044	0.35
245.261	0.38
245.477	0.47
245.694	0.67
245.911	0.31
246.127	0.44
246.344	0.61
246.56	0.65
246.777	0.35
246.993	0.44
247.21	0.54
247.426	0.57
247.643	0.31
247.859	0.27
248.076	0.32
248.292	0.66
248.508	0.33
248.725	0.42
248.941	0.47
249.157	0.57
249.374	0.35
249.59	0.33
249.806	0.4
250.023	0.47
250.239	0.31
250.455	0.34
250.671	0.44
250.888	0.4
251.104	0.43
251.32	0.38
251.536	0.46
251.752	0.41
251.969	0.38
252.185	0.41
252.401	0.63
252.617	0.36
252.833	0.41
253.049	0.41
253.265	0.4
253.481	0.49
253.697	0.37
253.913	0.33
254.129	0.42
254.345	0.46
254.561	0.35
254.777	0.32
254.993	0.52
255.209	0.43
255.425	0.42
255.641	0.31
255.857	0.48
256.073	0.45
256.288	0.27
256.504	0.28
256.72	0.41
256.936	0.58
257.152	0.35
257.367	0.3
257.583	0.43
257.799	0.47
258.015	0.35
258.23	0.25
258.446	0.6
258.662	0.38
258.877	0.34
259.093	0.28
259.309	0.41
259.524	0.45
259.74	0.33
259.955	0.25
260.171	0.39
260.387	0.39
260.602	0.49
260.818	0.37
261.033	0.32
261.249	0.35
261.464	0.28
261.68	0.24
261.895	0.45
262.11	0.46
262.326	0.35
262.541	0.21
262.757	0.44
262.972	0.39
263.187	0.37
263.403	0.38
263.618	0.51
263.833	0.34
264.049	0.3
264.264	0.3
264.479	0.42
264.694	0.51
264.91	0.23
265.125	0.25
265.34	0.47
265.555	0.57
265.77	0.35
265.986	0.3
266.201	0.41
266.416	0.56
266.631	0.3
266.846	0.35
267.061	0.4
267.276	0.41
267.491	0.2
267.706	0.38
267.921	0.4
268.136	0.4
268.351	0.34
268.566	0.28
268.781	0.4
268.996	0.43
269.211	0.34
269.426	0.26
269.641	0.35
269.856	0.47
270.071	0.21
270.285	0.26
270.5	0.46
270.715	0.44
270.93	0.3
271.145	0.36
271.359	0.49
271.574	0.28
271.789	0.31
272.004	0.26
272.218	0.29
272.433	0.42
272.648	0.31
272.862	0.44
273.077	0.37
273.292	0.29
273.506	0.31
273.721	0.22
273.936	0.37
274.15	0.44
274.365	0.27
274.579	0.35
274.794	0.36
275.008	0.35
275.223	0.25
275.437	0.29
275.652	0.36
275.866	0.36
276.081	0.3
276.295	0.43
276.509	0.34
276.724	0.29
276.938	0.35
277.153	0.35
277.367	0.39
277.581	0.29
277.796	0.25
278.01	0.24
278.224	0.42
278.438	0.53
278.653	0.25
278.867	0.29
279.081	0.4
279.295	0.32
279.51	0.36
279.724	0.2
279.938	0.35
280.152	0.34
280.366	0.24
280.58	0.27
280.794	0.48
281.008	0.33
281.222	0.33
281.437	0.47
281.651	0.31
281.865	0.42
282.079	0.25
282.293	0.15
282.507	0.28
282.721	0.28
282.935	0.27
283.148	0.17
283.362	0.28
283.576	0.22
283.79	0.27
284.004	0.25
284.218	0.43
284.432	0.28
284.646	0.26
284.859	0.24
285.073	0.24
285.287	0.34
285.501	0.3
285.714	0.29
285.928	0.31
286.142	0.32
286.356	0.25
286.569	0.26
286.783	0.42
286.997	0.38
287.21	0.28
287.424	0.31
287.637	0.25
287.851	0.32
288.065	0.35
288.278	0.31
288.492	0.32
288.705	0.28
288.919	0.29
289.132	0.17
289.346	0.35
289.559	0.16
289.773	0.18
289.986	0.25
290.2	0.27
290.413	0.37
290.626	0.28
290.84	0.23
291.053	0.27
291.267	0.35
291.48	0.29
291.693	0.26
291.906	0.18
292.12	0.27
292.333	0.22
292.546	0.24
292.76	0.34
292.973	0.27
293.186	0.26
293.399	0.27
293.612	0.32
293.826	0.29
294.039	0.27
294.252	0.21
294.465	0.38
294.678	0.28
294.891	0.29
295.104	0.22
295.317	0.22
295.53	0.24
295.743	0.22
295.956	0.27
296.169	0.33
296.382	0.3
296.595	0.21
296.808	0.25
297.021	0.32
297.234	0.29
297.447	0.26
297.66	0.28
297.873	0.34
298.086	0.32
298.299	0.23
298.511	0.18
298.724	0.28
298.937	0.24
299.15	0.2
299.363	0.25
299.575	0.36
299.788	0.28
300.001	0.29
300.213	0.25
300.426	0.26
300.639	0.2
300.852	0.2
301.064	0.31
301.277	0.33
301.489	0.32
301.702	0.27
301.915	0.23
302.127	0.29
302.34	0.28
302.552	0.25
302.765	0.18
302.977	0.34
303.19	0.17
303.402	0.23
303.615	0.23
303.827	0.22
304.04	0.23
304.252	0.3
304.464	0.27
304.677	0.42
304.889	0.29
305.102	0.23
305.314	0.22
305.526	0.29
305.739	0.29
305.951	0.18
306.163	0.24
306.375	0.37
306.588	0.23
306.8	0.21
307.012	0.2
307.224	0.29
307.436	0.31
307.649	0.18
307.861	0.27
308.073	0.33
308.285	0.28
308.497	0.19
308.709	0.2
308.921	0.28
309.133	0.32
309.346	0.24
309.558	0.25
309.77	0.33
309.982	0.36
310.194	0.24
310.406	0.23
310.617	0.37
310.829	0.26
311.041	0.27
311.253	0.24
311.465	0.24
311.677	0.26
311.889	0.2
312.101	0.24
312.313	0.29
312.524	0.4
312.736	0.21
312.948	0.23
313.16	0.34
313.372	0.31
313.583	0.25
313.795	0.26
314.007	0.25
314.218	0.33
314.43	0.28
314.642	0.21
314.853	0.18
315.065	0.35
315.277	0.28
315.488	0.25
315.7	0.3
315.912	0.28
316.123	0.31
316.335	0.25
316.546	0.38
316.758	0.25
316.969	0.21
317.181	0.25
317.392	0.25
317.604	0.31
317.815	0.2
318.026	0.21
318.238	0.26
318.449	0.28
318.661	0.18
318.872	0.18
319.083	0.23
319.295	0.32
319.506	0.2
319.717	0.2
319.929	0.28
320.14	0.27
320.351	0.27
320.562	0.18
320.774	0.28
320.985	0.26
321.196	0.23
321.407	0.19
321.618	0.32
321.829	0.29
322.041	0.24
322.252	0.26
322.463	0.25
322.674	0.33
322.885	0.22
323.096	0.22
323.307	0.3
323.518	0.29
323.729	0.25
323.94	0.24
324.151	0.25
324.362	0.27
324.573	0.26
324.784	0.22
324.995	0.31
325.206	0.29
325.417	0.2
325.628	0.24
325.838	0.24
326.049	0.29
326.26	0.28
326.471	0.22
326.682	0.29
326.892	0.26
327.103	0.19
327.314	0.2
327.525	0.31
327.735	0.26
327.946	0.25
328.157	0.16
328.368	0.32
328.578	0.26
328.789	0.29
328.999	0.24
329.21	0.25
329.421	0.31
329.631	0.23
329.842	0.2
330.052	0.26
330.263	0.28
330.473	0.3
330.684	0.2
330.894	0.25
331.105	0.27
331.315	0.27
331.526	0.12
331.736	0.35
331.947	0.29
332.157	0.26
332.367	0.19
332.578	0.33
332.788	0.34
332.999	0.26
333.209	0.23
333.419	0.21
333.629	0.31
333.84	0.25
334.05	0.24
334.26	0.3
334.47	0.25
334.681	0.31
334.891	0.2
335.101	0.29
335.311	0.38
335.521	0.24
335.732	0.21
335.942	0.33
336.152	0.29
336.362	0.26
336.572	0.32
336.782	0.31
336.992	0.22
337.202	0.25
337.412	0.24
337.622	0.27
337.832	0.23
338.042	0.23
338.252	0.24
338.462	0.23
338.672	0.25
338.882	0.23
339.092	0.2
339.302	0.34
339.511	0.3
339.721	0.24
339.931	0.15
340.141	0.28
340.351	0.28
340.561	0.28
340.77	0.28
340.98	0.29
341.19	0.29
341.4	0.21
341.609	0.17
341.819	0.21
342.029	0.22
342.238	0.26
342.448	0.21
342.658	0.26
342.867	0.24
343.077	0.22
343.286	0.24
343.496	0.29
343.706	0.32
343.915	0.2
344.125	0.25
344.334	0.28
344.544	0.19
344.753	0.21
344.963	0.27
345.172	0.17
345.381	0.23
345.591	0.18
345.8	0.28
346.01	0.34
346.219	0.32
346.428	0.11
346.638	0.22
346.847	0.25
347.056	0.34
347.266	0.23
347.475	0.24
347.684	0.33
347.893	0.3
348.103	0.26
348.312	0.2
348.521	0.25
348.73	0.27
348.94	0.26
349.149	0.21
349.358	0.23
349.567	0.19
349.776	0.19
349.985	0.2
350.194	0.31
350.403	0.31
350.612	0.15
350.821	0.18
351.03	0.28
351.239	0.19
351.448	0.25
351.657	0.25
351.866	0.36
352.075	0.27
352.284	0.25
352.493	0.21
352.702	0.28
352.911	0.29
353.12	0.32
353.329	0.19
353.538	0.26
353.746	0.24
353.955	0.21
354.164	0.29
354.373	0.21
354.582	0.28
354.79	0.22
354.999	0.25
355.208	0.24
355.416	0.38
355.625	0.22
355.834	0.22
356.042	0.23
356.251	0.21
356.46	0.17
356.668	0.23
356.877	0.38
357.085	0.27
357.294	0.15
357.503	0.23
357.711	0.25
357.92	0.36
358.128	0.24
358.337	0.21
358.545	0.27
358.754	0.2
358.962	0.28
359.17	0.25
359.379	0.23
359.587	0.26
359.796	0.22
360.004	0.3
360.212	0.26
360.421	0.3
360.629	0.27
360.837	0.22
361.046	0.35
361.254	0.39
361.462	0.23
361.67	0.21
361.879	0.32
362.087	0.3
362.295	0.2
362.503	0.2
362.711	0.19
362.92	0.24
363.128	0.21
363.336	0.19
363.544	0.2
363.752	0.25
363.96	0.25
364.168	0.18
364.376	0.26
364.584	0.26
364.792	0.28
365	0.26
365.208	0.28
365.416	0.26
365.624	0.3
365.832	0.21
366.04	0.32
366.248	0.25
366.456	0.24
366.664	0.25
366.872	0.25
367.079	0.25
367.287	0.26
367.495	0.27
367.703	0.25
367.911	0.25
368.118	0.24
368.326	0.26
368.534	0.18
368.742	0.32
368.949	0.19
369.157	0.21
369.365	0.28
369.572	0.26
369.78	0.2
369.988	0.3
370.195	0.26
370.403	0.28
370.61	0.2
370.818	0.26
371.026	0.37
371.233	0.21
371.441	0.24
371.648	0.22
371.856	0.27
372.063	0.26
372.271	0.21
372.478	0.25
372.685	0.22
372.893	0.32
373.1	0.21
373.308	0.19
373.515	0.37
373.722	0.35
373.93	0.25
374.137	0.27
374.344	0.31
374.552	0.26
374.759	0.29
374.966	0.25
375.173	0.22
375.381	0.35
375.588	0.24
375.795	0.2
376.002	0.21
376.209	0.23
376.417	0.26
376.624	0.21
376.831	0.29
377.038	0.23
377.245	0.15
377.452	0.21
377.659	0.23
377.866	0.25
378.073	0.23
378.28	0.22
378.487	0.26
378.694	0.29
378.901	0.23
379.108	0.26
379.315	0.32
379.522	0.38
379.729	0.27
379.936	0.26
380.143	0.25
380.35	0.3
380.557	0.3
380.763	0.28
380.97	0.24
381.177	0.29
381.384	0.28
381.591	0.2
381.797	0.29
382.004	0.33
382.211	0.3
382.418	0.19
382.624	0.34
382.831	0.29
383.038	0.21
383.244	0.3
383.451	0.2
383.658	0.3
383.864	0.24
384.071	0.24
384.277	0.34
384.484	0.27
384.69	0.32
384.897	0.25
385.103	0.31
385.31	0.22
385.516	0.22
385.723	0.22
385.929	0.31
386.136	0.23
386.342	0.28
386.549	0.25
386.755	0.32
386.961	0.36
387.168	0.27
387.374	0.29
387.58	0.31
387.787	0.3
387.993	0.26
388.199	0.25
388.406	0.24
388.612	0.32
388.818	0.23
389.024	0.25
389.231	0.31
389.437	0.41
389.643	0.29
389.849	0.27
390.055	0.29
390.261	0.3
390.467	0.28
390.674	0.28
390.88	0.31
391.086	0.37
391.292	0.28
391.498	0.37
391.704	0.34
391.91	0.28
392.116	0.3
392.322	0.2
392.528	0.37
392.734	0.29
392.94	0.3
393.146	0.29
393.352	0.31
393.557	0.27
393.763	0.28
393.969	0.34
394.175	0.3
394.381	0.31
394.587	0.26
394.792	0.27
394.998	0.33
395.204	0.33
395.41	0.26
395.615	0.31
395.821	0.32
396.027	0.34
396.233	0.25
396.438	0.38
396.644	0.38
396.85	0.32
397.055	0.33
397.261	0.36
397.466	0.43
397.672	0.35
397.878	0.39
398.083	0.35
398.289	0.3
398.494	0.39
398.7	0.38
398.905	0.26
399.111	0.42
399.316	0.28
399.522	0.35
399.727	0.31
399.932	0.32
400.138	0.34
400.343	0.35
400.549	0.3
400.754	0.34
400.959	0.38
401.165	0.38
401.37	0.33
401.575	0.38
401.78	0.39
401.986	0.36
402.191	0.35
402.396	0.42
402.601	0.41
402.807	0.4
403.012	0.38
403.217	0.47
403.422	0.42
403.627	0.36
403.832	0.38
404.037	0.48
404.243	0.41
404.448	0.42
404.653	0.4
404.858	0.49
405.063	0.49
405.268	0.38
405.473	0.38
405.678	0.43
405.883	0.62
406.088	0.53
406.293	0.36
406.498	0.45
406.703	0.5
406.907	0.47
407.112	0.45
407.317	0.53
407.522	0.59
407.727	0.49
407.932	0.51
408.136	0.63
408.341	0.53
408.546	0.61
408.751	0.58
408.956	0.63
409.16	0.68
409.365	0.63
409.57	0.55
409.774	0.6
409.979	0.67
410.184	0.67
410.388	0.59
410.593	0.78
410.798	0.71
411.002	0.72
411.207	0.84
411.411	0.84
411.616	0.75
411.82	0.78
412.025	0.81
412.229	0.85
412.434	1.03
412.638	0.85
412.843	0.89
413.047	1.01
413.252	0.93
413.456	0.94
413.66	1.07
413.865	1.06
414.069	1.18
414.273	1.13
414.478	1.1
414.682	1.19
414.886	1.25
415.091	1.16
415.295	1.25
415.499	1.47
415.703	1.36
415.908	1.45
416.112	1.38
416.316	1.54
416.52	1.53
416.724	1.52
416.929	1.61
417.133	1.83
417.337	1.75
417.541	1.73
417.745	1.87
417.949	1.94
418.153	2
418.357	1.99
418.561	2.22
418.765	2.12
418.969	2.36
419.173	2.39
419.377	2.41
419.581	2.68
419.785	2.6
419.989	2.58
420.193	2.75
420.397	2.89
420.601	3.04
420.804	3.11
421.008	3.05
421.212	3.32
421.416	3.25
421.62	3.25
421.823	3.3
422.027	3.46
422.231	3.43
422.435	3.46
422.638	3.49
422.842	3.67
423.046	3.72
423.249	3.96
423.453	3.97
423.657	4.13
423.86	4.15
424.064	4.31
424.268	4.4
424.471	4.4
424.675	4.66
424.878	4.8
425.082	4.79
425.285	5.14
425.489	5.08
425.692	5.22
425.896	5.28
426.099	5.43
426.303	5.58
426.506	5.71
426.71	5.92
426.913	6.19
427.116	6.3
427.32	6.34
427.523	6.42
427.726	6.61
427.93	6.75
428.133	7.07
428.336	7.19
428.54	7.39
428.743	7.61
428.946	7.85
429.149	7.83
429.353	7.96
429.556	7.97
429.759	8.05
429.962	8.12
430.165	8.28
430.368	7.99
430.571	7.96
430.775	8.18
430.978	8.07
431.181	8.24
431.384	8.12
431.587	8.25
431.79	8.76
431.993	8.73
432.196	8.99
432.399	9.28
432.602	9.44
432.805	9.36
433.008	9.96
433.211	9.97
433.414	10.28
433.616	10.22
433.819	10.18
434.022	10.35
434.225	10.64
434.428	10.73
434.631	10.96
434.833	10.76
435.036	11.02
435.239	11.24
435.442	11.3
435.645	11.43
435.847	11.59
436.05	11.9
436.253	12.08
436.455	12.06
436.658	12.04
436.861	12.44
437.063	12.42
437.266	12.41
437.468	12.8
437.671	13.12
437.874	13.14
438.076	12.99
438.279	13.4
438.481	13.57
438.684	14.26
438.886	13.89
439.089	14.14
439.291	14.16
439.494	14.52
439.696	14.74
439.899	15.31
440.101	15.53
440.303	15.77
440.506	16.43
440.708	16.24
440.91	16.52
441.113	16.62
441.315	17.03
441.517	16.66
441.72	17.2
441.922	16.8
442.124	16.74
442.326	17.27
442.529	17.34
442.731	17.39
442.933	17.63
443.135	17.45
443.337	17.48
443.539	18.04
443.742	17.52
443.944	18.4
444.146	17.98
444.348	18.03
444.55	17.85
444.752	18.01
444.954	18.06
445.156	17.95
445.358	18.44
445.56	18.64
445.762	18.41
445.964	18.81
446.166	18.55
446.368	18.53
446.57	18.46
446.772	18.16
446.974	18.04
447.175	18.28
447.377	17.85
447.579	18.38
447.781	18
447.983	17.79
448.184	17.29
448.386	17.73
448.588	17.18
448.79	17.19
448.991	17.48
449.193	17.52
449.395	16.74
449.597	16.51
449.798	16.46
450	16
450.202	15.8
450.403	15.82
450.605	15.71
450.806	15.35
451.008	15.27
451.21	14.94
451.411	14.61
451.613	13.85
451.814	14.08
452.016	14.14
452.217	13.44
452.419	13.25
452.62	12.94
452.821	12.75
453.023	12.61
453.224	12.23
453.426	11.8
453.627	11.07
453.828	11.32
454.03	11.24
454.231	11.32
454.432	11.03
454.634	10.84
454.835	10.65
455.036	10.42
455.238	10.07
455.439	9.85
455.64	9.51
455.841	9.38
456.042	9.46
456.244	9.21
456.445	8.88
456.646	8.59
456.847	8.54
457.048	8.52
457.249	8.5
457.45	8.33
457.651	7.71
457.852	7.62
458.054	7.27
458.255	7.23
458.456	7.36
458.657	7.22
458.858	6.71
459.058	6.61
459.259	6.66
459.46	6.42
459.661	6.37
459.862	6.47
460.063	6.36
460.264	6.3
460.465	6.05
460.666	6.08
460.866	5.79
461.067	5.48
461.268	5.56
461.469	5.52
461.67	5.4
461.87	5.25
462.071	5.22
462.272	5.06
462.473	5.09
462.673	5.26
462.874	5.13
463.075	5.13
463.275	5.18
463.476	5.24
463.676	5.12
463.877	4.91
464.078	4.94
464.278	4.99
464.479	4.9
464.679	4.68
464.88	4.71
465.08	4.66
465.281	4.48
465.481	4.32
465.682	4.1
465.882	4.29
466.083	4.03
466.283	4.09
466.483	3.92
466.684	3.77
466.884	3.68
467.085	3.72
467.285	3.8
467.485	3.63
467.686	3.6
467.886	3.44
468.086	3.39
468.286	3.38
468.487	3.47
468.687	3.27
468.887	3.22
469.087	3.35
469.287	3.23
469.488	3.03
469.688	3.22
469.888	3.2
470.088	3.12
470.288	3.04
470.488	3.02
470.688	2.89
470.888	2.81
471.088	2.76
471.288	2.8
471.488	2.78
471.688	2.77
471.888	2.65
472.088	2.84
472.288	2.68
472.488	2.6
472.688	2.57
472.888	2.63
473.088	2.62
473.288	2.49
473.488	2.42
473.688	2.62
473.887	2.48
474.087	2.42
474.287	2.43
474.487	2.33
474.687	2.4
474.886	2.42
475.086	2.29
475.286	2.32
475.486	2.31
475.685	2.2
475.885	2.19
476.085	2.32
476.284	2.21
476.484	2.3
476.684	2.17
476.883	2.26
477.083	2.21
477.282	2.13
477.482	2.22
477.681	2.13
477.881	2.04
478.08	2.11
478.28	2.03
478.479	2.09
478.679	2.21
478.878	2.05
479.078	2.04
479.277	2.09
479.477	2.09
479.676	2.03
479.875	2.01
480.075	1.95
480.274	2
480.473	2.08
480.673	1.99
480.872	2.08
481.071	2.05
481.271	2.07
481.47	2.02
481.669	2.02
481.868	1.95
482.067	1.96
482.267	1.97
482.466	1.93
482.665	1.96
482.864	1.96
483.063	1.96
483.262	2.03
483.461	2.06
483.661	2.08
483.86	1.98
484.059	2.08
484.258	2.01
484.457	2.01
484.656	2.04
484.855	2.1
485.054	1.93
485.253	1.98
485.452	1.96
485.651	2.07
485.849	2.05
486.048	2.01
486.247	2
486.446	2.08
486.645	2.04
486.844	2.04
487.043	2.05
487.241	2.09
487.44	2.11
487.639	2.13
487.838	2.12
488.037	2.1
488.235	2.24
488.434	2.17
488.633	2.03
488.831	2.29
489.03	2.19
489.229	2.24
489.427	2.2
489.626	2.28
489.825	2.32
490.023	2.28
490.222	2.24
490.42	2.32
490.619	2.36
490.817	2.38
491.016	2.36
491.214	2.42
491.413	2.42
491.611	2.37
491.81	2.4
492.008	2.48
492.207	2.58
492.405	2.5
492.604	2.47
492.802	2.54
493	2.59
493.199	2.64
493.397	2.61
493.595	2.73
493.794	2.62
493.992	2.79
494.19	2.75
494.388	2.84
494.587	2.73
494.785	2.79
494.983	2.72
495.181	2.85
495.379	2.88
495.578	2.99
495.776	2.97
495.974	2.9
496.172	2.95
496.37	3.07
496.568	3.09
496.766	3.07
496.964	3.2
497.162	3.19
497.36	3.26
497.558	3.27
497.756	3.32
497.954	3.32
498.152	3.35
498.35	3.45
498.548	3.37
498.746	3.41
498.944	3.4
499.142	3.43
499.34	3.54
499.538	3.63
499.736	3.55
499.933	3.63
500.131	3.65
500.329	3.78
500.527	3.8
500.725	3.86
500.922	3.89
501.12	3.87
501.318	3.98
501.516	3.92
501.713	4.03
501.911	3.98
502.109	3.95
502.306	4.08
502.504	3.99
502.701	4.11
