Data from Apollo_Calib_20240827__AbsoluteIrradiance__16__23-25-00-237.txt Node

Date: Tue Aug 27 23:25:00 BST 2024
User: biology
Spectrometer: FLMT08252
Trigger mode: 0
Integration Time (sec): 5.000000E-1
Scans to average: 5
Electric dark correction enabled: true
Nonlinearity correction enabled: false
Boxcar width: 0
XAxis mode: Wavelengths
Number of Pixels in Spectrum: 3648
>>>>>Begin Spectral Data<<<<<
179.588	-0
179.809	-0
180.03	-0
180.251	-0
180.473	-0
180.694	0
180.915	0
181.136	-0
181.357	-0
181.578	-0
181.799	-0
182.02	-0
182.241	0
182.462	-0
182.683	0
182.904	-0
183.125	0
183.346	0
183.567	0
183.788	0
184.009	0
184.23	0
184.451	0
184.672	0
184.892	0
185.113	0
185.334	0
185.555	0
185.776	0
185.996	0
186.217	0
186.438	0
186.659	0
186.879	0
187.1	0
187.321	0
187.541	0
187.762	0
187.983	0
188.203	0
188.424	0
188.644	0
188.865	0
189.086	0
189.306	0
189.527	0
189.747	0
189.968	0
190.188	0
190.409	0
190.629	0
190.849	0
191.07	0
191.29	0
191.511	0
191.731	0
191.951	0
192.172	0
192.392	0
192.612	0
192.833	0
193.053	0
193.273	0
193.493	0
193.714	0
193.934	0
194.154	0
194.374	0
194.594	0
194.815	0
195.035	0
195.255	0
195.475	0
195.695	0
195.915	0
196.135	0
196.355	0
196.575	0
196.795	0
197.015	0
197.235	0
197.455	0
197.675	0
197.895	0
198.115	0
198.335	0
198.555	0
198.775	0
198.995	0
199.214	0
199.434	0
199.654	0
199.874	0
200.094	3.72
200.313	2.28
200.533	1.95
200.753	1.7
200.973	3.1
201.192	2.99
201.412	1.68
201.632	1.85
201.851	3.36
202.071	1.91
202.291	1.89
202.51	1.76
202.73	2.83
202.95	2.09
203.169	1.79
203.389	1.71
203.608	2.17
203.828	1.16
204.047	2.06
204.267	2.05
204.486	1.72
204.706	2.07
204.925	1.5
205.145	1.26
205.364	2.28
205.583	2.49
205.803	1.35
206.022	1.34
206.242	1.84
206.461	1.69
206.68	1.8
206.9	1.87
207.119	2.14
207.338	1.99
207.557	1.5
207.777	1.53
207.996	1.25
208.215	2.1
208.434	1.49
208.654	1.35
208.873	1.09
209.092	2.06
209.311	1.16
209.53	1.36
209.749	1.16
209.968	1.1
210.187	1.31
210.407	1.16
210.626	0.93
210.845	1.74
211.064	1.32
211.283	1.04
211.502	1.74
211.721	1.2
211.94	1.14
212.159	1.41
212.377	1.27
212.596	1.37
212.815	1.33
213.034	1.08
213.253	1.33
213.472	1.4
213.691	1.14
213.91	0.87
214.128	0.85
214.347	1.31
214.566	0.69
214.785	0.64
215.003	1.21
215.222	1.01
215.441	1.04
215.66	0.82
215.878	0.84
216.097	1.13
216.316	0.69
216.534	0.96
216.753	0.96
216.972	0.93
217.19	0.73
217.409	0.75
217.627	0.72
217.846	0.76
218.064	0.86
218.283	0.69
218.501	1.26
218.72	1.24
218.938	0.61
219.157	0.72
219.375	1.04
219.594	0.89
219.812	0.5
220.031	0.62
220.249	1.28
220.467	1.05
220.686	0.8
220.904	0.53
221.122	0.76
221.341	1.06
221.559	0.88
221.777	0.49
221.995	0.88
222.214	0.72
222.432	0.71
222.65	0.84
222.868	0.95
223.086	0.8
223.305	0.82
223.523	0.77
223.741	1.03
223.959	0.58
224.177	0.47
224.395	0.65
224.613	0.89
224.831	0.78
225.049	0.54
225.267	0.61
225.485	0.83
225.703	0.76
225.921	0.6
226.139	0.6
226.357	0.72
226.575	0.66
226.793	0.66
227.011	1.16
227.229	0.77
227.447	0.9
227.665	0.51
227.883	0.53
228.1	0.69
228.318	0.72
228.536	0.42
228.754	0.5
228.972	0.64
229.189	0.64
229.407	0.49
229.625	0.68
229.843	0.69
230.06	0.67
230.278	0.65
230.496	0.58
230.713	0.61
230.931	0.62
231.149	0.53
231.366	0.37
231.584	0.57
231.801	0.85
232.019	0.45
232.236	0.51
232.454	0.4
232.671	0.53
232.889	0.59
233.106	0.56
233.324	0.57
233.541	0.54
233.759	0.54
233.976	0.5
234.194	0.52
234.411	0.52
234.628	0.51
234.846	0.53
235.063	0.5
235.28	0.59
235.498	0.51
235.715	0.38
235.932	0.73
236.149	0.49
236.367	0.44
236.584	0.57
236.801	0.43
237.018	0.64
237.236	0.58
237.453	0.33
237.67	0.63
237.887	0.55
238.104	0.49
238.321	0.5
238.538	0.36
238.755	0.67
238.973	0.38
239.19	0.49
239.407	0.57
239.624	0.59
239.841	0.41
240.058	0.4
240.275	0.58
240.492	0.5
240.709	0.49
240.925	0.44
241.142	0.47
241.359	0.42
241.576	0.36
241.793	0.42
242.01	0.46
242.227	0.56
242.444	0.48
242.66	0.64
242.877	0.56
243.094	0.52
243.311	0.51
243.527	0.45
243.744	0.5
243.961	0.59
244.178	0.41
244.394	0.47
244.611	0.57
244.828	0.59
245.044	0.33
245.261	0.4
245.477	0.49
245.694	0.6
245.911	0.42
246.127	0.48
246.344	0.54
246.56	0.48
246.777	0.43
246.993	0.49
247.21	0.48
247.426	0.48
247.643	0.43
247.859	0.32
248.076	0.37
248.292	0.56
248.508	0.36
248.725	0.51
248.941	0.46
249.157	0.55
249.374	0.43
249.59	0.46
249.806	0.45
250.023	0.49
250.239	0.4
250.455	0.36
250.671	0.41
250.888	0.37
251.104	0.43
251.32	0.39
251.536	0.35
251.752	0.35
251.969	0.4
252.185	0.47
252.401	0.5
252.617	0.4
252.833	0.4
253.049	0.43
253.265	0.37
253.481	0.41
253.697	0.41
253.913	0.35
254.129	0.39
254.345	0.39
254.561	0.37
254.777	0.4
254.993	0.38
255.209	0.42
255.425	0.37
255.641	0.38
255.857	0.39
256.073	0.36
256.288	0.31
256.504	0.32
256.72	0.47
256.936	0.56
257.152	0.4
257.367	0.37
257.583	0.41
257.799	0.42
258.015	0.41
258.23	0.43
258.446	0.6
258.662	0.4
258.877	0.36
259.093	0.37
259.309	0.36
259.524	0.43
259.74	0.38
259.955	0.31
260.171	0.4
260.387	0.4
260.602	0.48
260.818	0.47
261.033	0.3
261.249	0.42
261.464	0.31
261.68	0.28
261.895	0.46
262.11	0.48
262.326	0.35
262.541	0.29
262.757	0.4
262.972	0.36
263.187	0.35
263.403	0.33
263.618	0.44
263.833	0.37
264.049	0.27
264.264	0.39
264.479	0.35
264.694	0.41
264.91	0.23
265.125	0.34
265.34	0.4
265.555	0.54
265.77	0.43
265.986	0.35
266.201	0.42
266.416	0.48
266.631	0.39
266.846	0.35
267.061	0.44
267.276	0.37
267.491	0.23
267.706	0.36
267.921	0.37
268.136	0.37
268.351	0.36
268.566	0.26
268.781	0.44
268.996	0.41
269.211	0.4
269.426	0.27
269.641	0.3
269.856	0.34
270.071	0.29
270.285	0.25
270.5	0.41
270.715	0.38
270.93	0.33
271.145	0.41
271.359	0.39
271.574	0.26
271.789	0.36
272.004	0.33
272.218	0.3
272.433	0.38
272.648	0.26
272.862	0.4
273.077	0.36
273.292	0.41
273.506	0.29
273.721	0.25
273.936	0.44
274.15	0.36
274.365	0.33
274.579	0.47
274.794	0.32
275.008	0.41
275.223	0.25
275.437	0.26
275.652	0.49
275.866	0.38
276.081	0.31
276.295	0.41
276.509	0.33
276.724	0.34
276.938	0.31
277.153	0.29
277.367	0.38
277.581	0.36
277.796	0.31
278.01	0.23
278.224	0.39
278.438	0.34
278.653	0.21
278.867	0.27
279.081	0.19
279.295	0.33
279.51	0.3
279.724	0.21
279.938	0.37
280.152	0.36
280.366	0.32
280.58	0.28
280.794	0.39
281.008	0.3
281.222	0.4
281.437	0.44
281.651	0.37
281.865	0.36
282.079	0.27
282.293	0.23
282.507	0.26
282.721	0.28
282.935	0.29
283.148	0.22
283.362	0.27
283.576	0.26
283.79	0.3
284.004	0.31
284.218	0.32
284.432	0.28
284.646	0.29
284.859	0.26
285.073	0.29
285.287	0.32
285.501	0.31
285.714	0.29
285.928	0.31
286.142	0.29
286.356	0.32
286.569	0.28
286.783	0.4
286.997	0.36
287.21	0.31
287.424	0.31
287.637	0.34
287.851	0.31
288.065	0.31
288.278	0.26
288.492	0.33
288.705	0.33
288.919	0.26
289.132	0.26
289.346	0.31
289.559	0.21
289.773	0.25
289.986	0.3
290.2	0.29
290.413	0.31
290.626	0.3
290.84	0.27
291.053	0.3
291.267	0.41
291.48	0.27
291.693	0.3
291.906	0.21
292.12	0.26
292.333	0.25
292.546	0.27
292.76	0.33
292.973	0.33
293.186	0.29
293.399	0.27
293.612	0.33
293.826	0.27
294.039	0.23
294.252	0.28
294.465	0.28
294.678	0.27
294.891	0.3
295.104	0.26
295.317	0.27
295.53	0.27
295.743	0.24
295.956	0.26
296.169	0.32
296.382	0.27
296.595	0.25
296.808	0.21
297.021	0.35
297.234	0.27
297.447	0.25
297.66	0.29
297.873	0.34
298.086	0.3
298.299	0.25
298.511	0.21
298.724	0.26
298.937	0.2
299.15	0.23
299.363	0.33
299.575	0.31
299.788	0.34
300.001	0.24
300.213	0.24
300.426	0.23
300.639	0.21
300.852	0.24
301.064	0.32
301.277	0.32
301.489	0.33
301.702	0.3
301.915	0.31
302.127	0.3
302.34	0.26
302.552	0.28
302.765	0.25
302.977	0.31
303.19	0.21
303.402	0.27
303.615	0.24
303.827	0.23
304.04	0.24
304.252	0.29
304.464	0.26
304.677	0.35
304.889	0.28
305.102	0.26
305.314	0.2
305.526	0.28
305.739	0.28
305.951	0.26
306.163	0.25
306.375	0.3
306.588	0.27
306.8	0.26
307.012	0.2
307.224	0.22
307.436	0.31
307.649	0.21
307.861	0.28
308.073	0.3
308.285	0.29
308.497	0.19
308.709	0.21
308.921	0.29
309.133	0.28
309.346	0.25
309.558	0.29
309.77	0.34
309.982	0.31
310.194	0.3
310.406	0.21
310.617	0.32
310.829	0.29
311.041	0.3
311.253	0.25
311.465	0.26
311.677	0.26
311.889	0.27
312.101	0.26
312.313	0.28
312.524	0.27
312.736	0.24
312.948	0.21
313.16	0.32
313.372	0.27
313.583	0.26
313.795	0.23
314.007	0.23
314.218	0.27
314.43	0.22
314.642	0.21
314.853	0.19
315.065	0.32
315.277	0.22
315.488	0.28
315.7	0.3
315.912	0.28
316.123	0.24
316.335	0.24
316.546	0.33
316.758	0.21
316.969	0.23
317.181	0.26
317.392	0.24
317.604	0.27
317.815	0.19
318.026	0.24
318.238	0.22
318.449	0.27
318.661	0.21
318.872	0.21
319.083	0.24
319.295	0.29
319.506	0.21
319.717	0.26
319.929	0.3
320.14	0.28
320.351	0.27
320.562	0.22
320.774	0.27
320.985	0.26
321.196	0.21
321.407	0.22
321.618	0.33
321.829	0.26
322.041	0.3
322.252	0.28
322.463	0.26
322.674	0.23
322.885	0.23
323.096	0.23
323.307	0.24
323.518	0.21
323.729	0.23
323.94	0.27
324.151	0.21
324.362	0.27
324.573	0.26
324.784	0.18
324.995	0.29
325.206	0.31
325.417	0.26
325.628	0.22
325.838	0.24
326.049	0.24
326.26	0.32
326.471	0.26
326.682	0.26
326.892	0.29
327.103	0.15
327.314	0.19
327.525	0.35
327.735	0.28
327.946	0.29
328.157	0.22
328.368	0.3
328.578	0.26
328.789	0.26
328.999	0.25
329.21	0.27
329.421	0.25
329.631	0.23
329.842	0.21
330.052	0.22
330.263	0.32
330.473	0.25
330.684	0.24
330.894	0.24
331.105	0.27
331.315	0.24
331.526	0.19
331.736	0.37
331.947	0.26
332.157	0.25
332.367	0.19
332.578	0.25
332.788	0.31
332.999	0.3
333.209	0.29
333.419	0.22
333.629	0.24
333.84	0.28
334.05	0.25
334.26	0.32
334.47	0.37
334.681	0.28
334.891	0.23
335.101	0.26
335.311	0.31
335.521	0.22
335.732	0.2
335.942	0.33
336.152	0.26
336.362	0.3
336.572	0.28
336.782	0.29
336.992	0.24
337.202	0.22
337.412	0.26
337.622	0.3
337.832	0.23
338.042	0.26
338.252	0.22
338.462	0.25
338.672	0.27
338.882	0.3
339.092	0.26
339.302	0.33
339.511	0.31
339.721	0.25
339.931	0.25
340.141	0.34
340.351	0.35
340.561	0.26
340.77	0.25
340.98	0.24
341.19	0.29
341.4	0.24
341.609	0.23
341.819	0.26
342.029	0.23
342.238	0.27
342.448	0.22
342.658	0.29
342.867	0.26
343.077	0.27
343.286	0.25
343.496	0.25
343.706	0.27
343.915	0.22
344.125	0.24
344.334	0.28
344.544	0.19
344.753	0.19
344.963	0.24
345.172	0.26
345.381	0.21
345.591	0.23
345.8	0.23
346.01	0.33
346.219	0.3
346.428	0.13
346.638	0.26
346.847	0.26
347.056	0.29
347.266	0.2
347.475	0.28
347.684	0.26
347.893	0.26
348.103	0.23
348.312	0.21
348.521	0.22
348.73	0.25
348.94	0.25
349.149	0.27
349.358	0.23
349.567	0.22
349.776	0.18
349.985	0.25
350.194	0.27
350.403	0.24
350.612	0.17
350.821	0.25
351.03	0.21
351.239	0.2
351.448	0.23
351.657	0.22
351.866	0.31
352.075	0.24
352.284	0.33
352.493	0.2
352.702	0.24
352.911	0.26
353.12	0.23
353.329	0.24
353.538	0.29
353.746	0.27
353.955	0.25
354.164	0.26
354.373	0.23
354.582	0.26
354.79	0.24
354.999	0.29
355.208	0.28
355.416	0.31
355.625	0.2
355.834	0.25
356.042	0.26
356.251	0.23
356.46	0.23
356.668	0.25
356.877	0.31
357.085	0.27
357.294	0.2
357.503	0.24
357.711	0.22
357.92	0.38
358.128	0.21
358.337	0.24
358.545	0.29
358.754	0.23
358.962	0.31
359.17	0.27
359.379	0.27
359.587	0.26
359.796	0.25
360.004	0.3
360.212	0.27
360.421	0.3
360.629	0.23
360.837	0.19
361.046	0.23
361.254	0.38
361.462	0.27
361.67	0.24
361.879	0.31
362.087	0.3
362.295	0.28
362.503	0.23
362.711	0.24
362.92	0.24
363.128	0.18
363.336	0.18
363.544	0.18
363.752	0.25
363.96	0.25
364.168	0.22
364.376	0.25
364.584	0.24
364.792	0.29
365	0.26
365.208	0.23
365.416	0.29
365.624	0.27
365.832	0.23
366.04	0.29
366.248	0.24
366.456	0.25
366.664	0.27
366.872	0.27
367.079	0.21
367.287	0.25
367.495	0.3
367.703	0.25
367.911	0.24
368.118	0.19
368.326	0.24
368.534	0.23
368.742	0.3
368.949	0.21
369.157	0.22
369.365	0.28
369.572	0.27
369.78	0.2
369.988	0.28
370.195	0.26
370.403	0.25
370.61	0.23
370.818	0.29
371.026	0.34
371.233	0.24
371.441	0.27
371.648	0.24
371.856	0.27
372.063	0.25
372.271	0.24
372.478	0.26
372.685	0.22
372.893	0.27
373.1	0.25
373.308	0.27
373.515	0.3
373.722	0.31
373.93	0.23
374.137	0.29
374.344	0.33
374.552	0.28
374.759	0.25
374.966	0.25
375.173	0.23
375.381	0.3
375.588	0.25
375.795	0.22
376.002	0.24
376.209	0.28
376.417	0.28
376.624	0.29
376.831	0.29
377.038	0.24
377.245	0.18
377.452	0.28
377.659	0.29
377.866	0.22
378.073	0.28
378.28	0.24
378.487	0.28
378.694	0.28
378.901	0.27
379.108	0.24
379.315	0.32
379.522	0.31
379.729	0.26
379.936	0.22
380.143	0.29
380.35	0.32
380.557	0.24
380.763	0.27
380.97	0.23
381.177	0.25
381.384	0.29
381.591	0.28
381.797	0.27
382.004	0.31
382.211	0.32
382.418	0.31
382.624	0.3
382.831	0.3
383.038	0.25
383.244	0.31
383.451	0.26
383.658	0.3
383.864	0.26
384.071	0.24
384.277	0.3
384.484	0.22
384.69	0.33
384.897	0.26
385.103	0.24
385.31	0.24
385.516	0.24
385.723	0.21
385.929	0.21
386.136	0.27
386.342	0.29
386.549	0.25
386.755	0.38
386.961	0.33
387.168	0.29
387.374	0.3
387.58	0.27
387.787	0.27
387.993	0.3
388.199	0.27
388.406	0.25
388.612	0.28
388.818	0.28
389.024	0.27
389.231	0.28
389.437	0.4
389.643	0.31
389.849	0.31
390.055	0.26
390.261	0.32
390.467	0.29
390.674	0.26
390.88	0.31
391.086	0.27
391.292	0.28
391.498	0.36
391.704	0.32
391.91	0.29
392.116	0.27
392.322	0.26
392.528	0.36
392.734	0.25
392.94	0.3
393.146	0.25
393.352	0.29
393.557	0.27
393.763	0.27
393.969	0.3
394.175	0.26
394.381	0.36
394.587	0.27
394.792	0.24
394.998	0.35
395.204	0.36
395.41	0.29
395.615	0.29
395.821	0.27
396.027	0.35
396.233	0.28
396.438	0.32
396.644	0.41
396.85	0.37
397.055	0.31
397.261	0.37
397.466	0.41
397.672	0.34
397.878	0.34
398.083	0.34
398.289	0.31
398.494	0.4
398.7	0.38
398.905	0.3
399.111	0.39
399.316	0.32
399.522	0.38
399.727	0.36
399.932	0.35
400.138	0.34
400.343	0.37
400.549	0.37
400.754	0.37
400.959	0.34
401.165	0.35
401.37	0.36
401.575	0.44
401.78	0.35
401.986	0.37
402.191	0.35
402.396	0.36
402.601	0.42
402.807	0.38
403.012	0.41
403.217	0.39
403.422	0.38
403.627	0.44
403.832	0.37
404.037	0.46
404.243	0.46
404.448	0.38
404.653	0.43
404.858	0.44
405.063	0.45
405.268	0.44
405.473	0.39
405.678	0.42
405.883	0.62
406.088	0.51
406.293	0.41
406.498	0.48
406.703	0.5
406.907	0.45
407.112	0.46
407.317	0.51
407.522	0.55
407.727	0.54
407.932	0.56
408.136	0.61
408.341	0.56
408.546	0.58
408.751	0.56
408.956	0.6
409.16	0.67
409.365	0.6
409.57	0.62
409.774	0.62
409.979	0.71
410.184	0.66
410.388	0.65
410.593	0.75
410.798	0.72
411.002	0.74
411.207	0.87
411.411	0.8
411.616	0.78
411.82	0.84
412.025	0.85
412.229	0.89
412.434	0.93
412.638	0.94
412.843	0.86
413.047	0.91
413.252	0.93
413.456	1.01
413.66	1.08
413.865	1.05
414.069	1.18
414.273	1.14
414.478	1.13
414.682	1.15
414.886	1.22
415.091	1.14
415.295	1.21
415.499	1.38
415.703	1.3
415.908	1.43
416.112	1.38
416.316	1.56
416.52	1.53
416.724	1.57
416.929	1.61
417.133	1.8
417.337	1.69
417.541	1.75
417.745	1.79
417.949	1.99
418.153	1.98
418.357	1.99
418.561	2.19
418.765	2.14
418.969	2.3
419.173	2.44
419.377	2.41
419.581	2.56
419.785	2.6
419.989	2.64
420.193	2.76
420.397	2.92
420.601	3
420.804	3.03
421.008	3.1
421.212	3.18
421.416	3.2
421.62	3.23
421.823	3.36
422.027	3.52
422.231	3.43
422.435	3.43
422.638	3.56
422.842	3.65
423.046	3.66
423.249	3.88
423.453	3.87
423.657	4.16
423.86	4.17
424.064	4.28
424.268	4.41
424.471	4.41
424.675	4.68
424.878	4.69
425.082	4.86
425.285	5.12
425.489	5.1
425.692	5.28
425.896	5.24
426.099	5.37
426.303	5.57
426.506	5.79
426.71	5.95
426.913	6.08
427.116	6.24
427.32	6.26
427.523	6.35
427.726	6.61
427.93	6.75
428.133	7.04
428.336	7.17
428.54	7.34
428.743	7.61
428.946	7.78
429.149	7.81
429.353	7.87
429.556	8.04
429.759	8.05
429.962	8.15
430.165	8.25
430.368	8.02
430.571	7.99
430.775	8.09
430.978	8
431.181	8.07
431.384	8.2
431.587	8.26
431.79	8.57
431.993	8.69
432.196	8.89
432.399	9.35
432.602	9.31
432.805	9.49
433.008	10.14
433.211	9.95
433.414	10.11
433.616	10.23
433.819	10.19
434.022	10.46
434.225	10.51
434.428	10.64
434.631	10.98
434.833	10.8
435.036	11.04
435.239	11.2
435.442	11.35
435.645	11.44
435.847	11.53
436.05	11.85
436.253	12.01
436.455	12.1
436.658	11.96
436.861	12.22
437.063	12.48
437.266	12.51
437.468	12.67
437.671	13.03
437.874	13.06
438.076	13.02
438.279	13.46
438.481	13.36
438.684	14.23
438.886	13.79
439.089	14.17
439.291	14.09
439.494	14.53
439.696	14.63
439.899	15.11
440.101	15.47
440.303	15.82
440.506	16.56
440.708	16.22
440.91	16.26
441.113	16.69
441.315	16.88
441.517	16.73
441.72	17.17
441.922	16.83
442.124	16.72
442.326	17.15
442.529	17.41
442.731	17.46
442.933	17.63
443.135	17.49
443.337	17.47
443.539	17.95
443.742	17.68
443.944	18.26
444.146	17.96
444.348	17.96
444.55	18
444.752	18.07
444.954	18.2
445.156	18.01
445.358	18.61
445.56	18.66
445.762	18.38
445.964	18.86
446.166	18.53
446.368	18.6
446.57	18.55
446.772	18.28
446.974	17.9
447.175	18.22
447.377	18.05
447.579	18.4
447.781	17.92
447.983	17.87
448.184	17.42
448.386	17.78
448.588	17.22
448.79	17.28
448.991	17.55
449.193	17.66
449.395	16.92
449.597	16.58
449.798	16.43
450	16.11
450.202	15.94
450.403	15.98
450.605	15.79
450.806	15.44
451.008	15.44
451.21	15.18
451.411	14.65
451.613	13.93
451.814	14.09
452.016	14.22
452.217	13.36
452.419	13.45
452.62	13.23
452.821	12.85
453.023	12.73
453.224	12.39
453.426	11.83
453.627	11.29
453.828	11.28
454.03	11.42
454.231	11.39
454.432	11.24
454.634	10.99
454.835	10.64
455.036	10.48
455.238	10.22
455.439	9.92
455.64	9.7
455.841	9.5
456.042	9.59
456.244	9.27
456.445	9
456.646	8.7
456.847	8.68
457.048	8.57
457.249	8.59
457.45	8.23
457.651	7.81
457.852	7.7
458.054	7.39
458.255	7.24
458.456	7.34
458.657	7.3
458.858	6.82
459.058	6.73
459.259	6.68
459.46	6.52
459.661	6.48
459.862	6.47
460.063	6.36
460.264	6.26
460.465	6.06
460.666	6.06
460.866	5.77
461.067	5.48
461.268	5.6
461.469	5.6
461.67	5.38
461.87	5.23
462.071	5.25
462.272	5.23
462.473	5.17
462.673	5.24
462.874	5.19
463.075	5.17
463.275	5.17
463.476	5.2
463.676	5.1
463.877	5
464.078	4.92
464.278	4.91
464.479	4.87
464.679	4.79
464.88	4.71
465.08	4.65
465.281	4.55
465.481	4.41
465.682	4.22
465.882	4.11
466.083	4.1
466.283	4.06
466.483	3.95
466.684	3.87
466.884	3.68
467.085	3.74
467.285	3.73
467.485	3.71
467.686	3.56
467.886	3.5
468.086	3.44
468.286	3.3
468.487	3.43
468.687	3.31
468.887	3.24
469.087	3.31
469.287	3.28
469.488	3.02
469.688	3.26
469.888	3.17
470.088	3.11
470.288	3.08
470.488	3.03
470.688	2.87
470.888	2.91
471.088	2.76
471.288	2.79
471.488	2.76
471.688	2.75
471.888	2.72
472.088	2.85
472.288	2.7
472.488	2.68
472.688	2.55
472.888	2.64
473.088	2.6
473.288	2.51
473.488	2.45
473.688	2.55
473.887	2.49
474.087	2.48
474.287	2.44
474.487	2.33
474.687	2.49
474.886	2.36
475.086	2.33
475.286	2.33
475.486	2.28
475.685	2.25
475.885	2.24
476.085	2.23
476.284	2.26
476.484	2.22
476.684	2.21
476.883	2.28
477.083	2.18
477.282	2.13
477.482	2.16
477.681	2.17
477.881	2.04
478.08	2.13
478.28	2.06
478.479	2.06
478.679	2.1
478.878	2.03
479.078	2.03
479.277	2.08
479.477	2.06
479.676	2.05
479.875	1.99
480.075	1.99
480.274	2.02
480.473	2.04
480.673	2.02
480.872	2.08
481.071	2
481.271	2.08
481.47	1.98
481.669	1.97
481.868	1.96
482.067	1.98
482.267	1.94
482.466	1.97
482.665	1.96
482.864	1.99
483.063	1.94
483.262	1.97
483.461	2.07
483.661	2.04
483.86	2.02
484.059	2.04
484.258	2.08
484.457	2.03
484.656	2
484.855	2.07
485.054	1.95
485.253	1.96
485.452	1.99
485.651	2.04
485.849	2.01
486.048	1.96
486.247	2.02
486.446	2.07
486.645	2.05
486.844	2.08
487.043	2.02
487.241	2.05
487.44	2.1
487.639	2.11
487.838	2.12
488.037	2.07
488.235	2.18
488.434	2.15
488.633	2.04
488.831	2.24
489.03	2.23
489.229	2.23
489.427	2.19
489.626	2.27
489.825	2.28
490.023	2.29
490.222	2.27
490.42	2.3
490.619	2.35
490.817	2.34
491.016	2.36
491.214	2.4
491.413	2.39
491.611	2.39
491.81	2.41
492.008	2.45
492.207	2.52
492.405	2.48
492.604	2.46
492.802	2.52
493	2.58
493.199	2.59
493.397	2.64
493.595	2.63
493.794	2.66
493.992	2.78
494.19	2.71
494.388	2.81
494.587	2.71
494.785	2.8
494.983	2.75
495.181	2.85
495.379	2.9
495.578	2.93
495.776	2.94
495.974	2.9
496.172	2.98
496.37	3.07
496.568	3.11
496.766	3.01
496.964	3.18
497.162	3.19
497.36	3.22
497.558	3.21
497.756	3.25
497.954	3.29
498.152	3.36
498.35	3.43
498.548	3.33
498.746	3.39
498.944	3.4
499.142	3.41
499.34	3.51
499.538	3.63
499.736	3.49
499.933	3.62
500.131	3.6
500.329	3.8
500.527	3.72
500.725	3.76
500.922	3.82
501.12	3.83
501.318	3.93
501.516	3.89
501.713	3.96
501.911	4
502.109	3.97
502.306	4.09
502.504	3.98
502.701	4.12
