Data from Apollo_Calib_20240827__AbsoluteIrradiance__750__11-39-00-652.txt Node

Date: Wed Aug 28 11:39:00 BST 2024
User: biology
Spectrometer: FLMT08252
Trigger mode: 0
Integration Time (sec): 5.000000E-1
Scans to average: 5
Electric dark correction enabled: true
Nonlinearity correction enabled: false
Boxcar width: 0
XAxis mode: Wavelengths
Number of Pixels in Spectrum: 3648
>>>>>Begin Spectral Data<<<<<
179.588	-0
179.809	-0
180.03	-0
180.251	-0
180.473	-0
180.694	0
180.915	0
181.136	-0
181.357	0
181.578	-0
181.799	-0
182.02	-0
182.241	0
182.462	-0
182.683	0
182.904	-0
183.125	-0
183.346	0
183.567	0
183.788	0
184.009	0
184.23	0
184.451	0
184.672	0
184.892	0
185.113	0
185.334	0
185.555	0
185.776	0
185.996	0
186.217	0
186.438	0
186.659	0
186.879	0
187.1	0
187.321	0
187.541	0
187.762	0
187.983	0
188.203	0
188.424	0
188.644	0
188.865	0
189.086	0
189.306	0
189.527	0
189.747	0
189.968	0
190.188	0
190.409	0
190.629	0
190.849	0
191.07	0
191.29	0
191.511	0
191.731	0
191.951	0
192.172	0
192.392	0
192.612	0
192.833	0
193.053	0
193.273	0
193.493	0
193.714	0
193.934	0
194.154	0
194.374	0
194.594	0
194.815	0
195.035	0
195.255	0
195.475	0
195.695	0
195.915	0
196.135	0
196.355	0
196.575	0
196.795	0
197.015	0
197.235	0
197.455	0
197.675	0
197.895	0
198.115	0
198.335	0
198.555	0
198.775	0
198.995	0
199.214	0
199.434	0
199.654	0
199.874	0
200.094	3.06
200.313	0.36
200.533	1.36
200.753	0.77
200.973	2.75
201.192	2.27
201.412	0.46
201.632	0.78
201.851	2.38
202.071	0.96
202.291	1.02
202.51	0.62
202.73	2.14
202.95	1.24
203.169	0.27
203.389	1.14
203.608	1.12
203.828	0.79
204.047	0.6
204.267	1.29
204.486	1.66
204.706	1.33
204.925	1.03
205.145	0.79
205.364	1.43
205.583	1.69
205.803	0.84
206.022	0.45
206.242	1.12
206.461	0.91
206.68	0.76
206.9	1.2
207.119	1.68
207.338	1.43
207.557	0.5
207.777	0.54
207.996	0.77
208.215	1.28
208.434	0.64
208.654	0.37
208.873	0.71
209.092	1.53
209.311	0.58
209.53	0.54
209.749	0.89
209.968	0.49
210.187	0.68
210.407	0.11
210.626	1.03
210.845	1.08
211.064	0.68
211.283	0.43
211.502	1.01
211.721	0.61
211.94	0.57
212.159	0.99
212.377	0.95
212.596	1.04
212.815	0.85
213.034	1.05
213.253	0.82
213.472	0.95
213.691	0.38
213.91	0.41
214.128	0.55
214.347	1.24
214.566	0.01
214.785	0.3
215.003	0.82
215.222	0.54
215.441	0.57
215.66	0.24
215.878	0.66
216.097	0.8
216.316	0.31
216.534	0.48
216.753	0.72
216.972	0.52
217.19	0.52
217.409	0.44
217.627	0.54
217.846	0.56
218.064	0.51
218.283	0.46
218.501	1.06
218.72	0.85
218.938	0.36
219.157	0.32
219.375	0.8
219.594	0.54
219.812	0.25
220.031	0.33
220.249	0.78
220.467	0.94
220.686	0.33
220.904	0.21
221.122	0.4
221.341	0.8
221.559	0.53
221.777	0.24
221.995	0.48
222.214	0.65
222.432	0.51
222.65	0.67
222.868	0.48
223.086	0.58
223.305	0.62
223.523	0.36
223.741	0.8
223.959	0.35
224.177	0.18
224.395	0.44
224.613	0.55
224.831	0.64
225.049	0.4
225.267	0.3
225.485	0.43
225.703	0.44
225.921	0.32
226.139	0.26
226.357	0.63
226.575	0.44
226.793	0.33
227.011	1.07
227.229	0.35
227.447	0.57
227.665	0.44
227.883	0.04
228.1	0.54
228.318	0.53
228.536	0.13
228.754	0.19
228.972	0.43
229.189	0.5
229.407	0.28
229.625	0.33
229.843	0.66
230.06	0.57
230.278	0.31
230.496	0.44
230.713	0.5
230.931	0.46
231.149	0.36
231.366	0.06
231.584	0.35
231.801	0.72
232.019	0.18
232.236	0.15
232.454	0.33
232.671	0.48
232.889	0.35
233.106	0.24
233.324	0.47
233.541	0.42
233.759	0.4
233.976	0.23
234.194	0.4
234.411	0.23
234.628	0.2
234.846	0.4
235.063	0.29
235.28	0.39
235.498	0.3
235.715	0.14
235.932	0.42
236.149	0.27
236.367	0.25
236.584	0.41
236.801	0.22
237.018	0.41
237.236	0.35
237.453	0.14
237.67	0.6
237.887	0.35
238.104	0.29
238.321	0.11
238.538	0.24
238.755	0.49
238.973	0.12
239.19	0.36
239.407	0.36
239.624	0.38
239.841	0.12
240.058	0.22
240.275	0.41
240.492	0.37
240.709	0.4
240.925	0.27
241.142	0.29
241.359	0.18
241.576	0.16
241.793	0.2
242.01	0.25
242.227	0.43
242.444	0.3
242.66	0.46
242.877	0.33
243.094	0.37
243.311	0.29
243.527	0.3
243.744	0.28
243.961	0.43
244.178	0.22
244.394	0.31
244.611	0.46
244.828	0.5
245.044	0.16
245.261	0.26
245.477	0.34
245.694	0.37
245.911	0.23
246.127	0.3
246.344	0.43
246.56	0.37
246.777	0.23
246.993	0.21
247.21	0.28
247.426	0.4
247.643	0.27
247.859	0.19
248.076	0.23
248.292	0.58
248.508	0.18
248.725	0.38
248.941	0.38
249.157	0.37
249.374	0.1
249.59	0.29
249.806	0.27
250.023	0.48
250.239	0.14
250.455	0.13
250.671	0.22
250.888	0.29
251.104	0.3
251.32	0.24
251.536	0.28
251.752	0.25
251.969	0.29
252.185	0.3
252.401	0.49
252.617	0.34
252.833	0.21
253.049	0.25
253.265	0.28
253.481	0.3
253.697	0.19
253.913	0.2
254.129	0.28
254.345	0.28
254.561	0.17
254.777	0.16
254.993	0.3
255.209	0.19
255.425	0.23
255.641	0.19
255.857	0.35
256.073	0.24
256.288	0.12
256.504	0.21
256.72	0.32
256.936	0.36
257.152	0.2
257.367	0.16
257.583	0.26
257.799	0.39
258.015	0.2
258.23	0.22
258.446	0.41
258.662	0.24
258.877	0.19
259.093	0.18
259.309	0.3
259.524	0.27
259.74	0.21
259.955	0.11
260.171	0.25
260.387	0.31
260.602	0.28
260.818	0.23
261.033	0.19
261.249	0.19
261.464	0.24
261.68	0.04
261.895	0.23
262.11	0.26
262.326	0.21
262.541	0.14
262.757	0.27
262.972	0.32
263.187	0.26
263.403	0.24
263.618	0.32
263.833	0.25
264.049	0.18
264.264	0.21
264.479	0.25
264.694	0.38
264.91	0.19
265.125	0.21
265.34	0.39
265.555	0.35
265.77	0.22
265.986	0.18
266.201	0.28
266.416	0.35
266.631	0.2
266.846	0.21
267.061	0.32
267.276	0.27
267.491	0.11
267.706	0.28
267.921	0.33
268.136	0.25
268.351	0.25
268.566	0.17
268.781	0.36
268.996	0.34
269.211	0.22
269.426	0.11
269.641	0.23
269.856	0.33
270.071	0.12
270.285	0.16
270.5	0.28
270.715	0.34
270.93	0.19
271.145	0.25
271.359	0.31
271.574	0.11
271.789	0.19
272.004	0.18
272.218	0.22
272.433	0.28
272.648	0.14
272.862	0.27
273.077	0.27
273.292	0.18
273.506	0.06
273.721	0.21
273.936	0.26
274.15	0.25
274.365	0.12
274.579	0.27
274.794	0.34
275.008	0.29
275.223	0.19
275.437	0.19
275.652	0.32
275.866	0.29
276.081	0.25
276.295	0.29
276.509	0.2
276.724	0.21
276.938	0.22
277.153	0.2
277.367	0.3
277.581	0.19
277.796	0.14
278.01	0.14
278.224	0.29
278.438	0.31
278.653	0.17
278.867	0.18
279.081	0.27
279.295	0.21
279.51	0.22
279.724	0.13
279.938	0.26
280.152	0.26
280.366	0.12
280.58	0.18
280.794	0.27
281.008	0.26
281.222	0.3
281.437	0.31
281.651	0.27
281.865	0.28
282.079	0.18
282.293	0.14
282.507	0.14
282.721	0.2
282.935	0.16
283.148	0.1
283.362	0.17
283.576	0.09
283.79	0.18
284.004	0.11
284.218	0.32
284.432	0.2
284.646	0.16
284.859	0.16
285.073	0.23
285.287	0.27
285.501	0.2
285.714	0.15
285.928	0.22
286.142	0.22
286.356	0.16
286.569	0.22
286.783	0.31
286.997	0.24
287.21	0.22
287.424	0.18
287.637	0.16
287.851	0.17
288.065	0.23
288.278	0.18
288.492	0.18
288.705	0.18
288.919	0.19
289.132	0.12
289.346	0.23
289.559	0.13
289.773	0.13
289.986	0.18
290.2	0.2
290.413	0.19
290.626	0.19
290.84	0.17
291.053	0.19
291.267	0.25
291.48	0.18
291.693	0.17
291.906	0.13
292.12	0.18
292.333	0.13
292.546	0.15
292.76	0.29
292.973	0.19
293.186	0.19
293.399	0.15
293.612	0.2
293.826	0.16
294.039	0.16
294.252	0.19
294.465	0.22
294.678	0.21
294.891	0.17
295.104	0.13
295.317	0.14
295.53	0.21
295.743	0.21
295.956	0.18
296.169	0.27
296.382	0.24
296.595	0.15
296.808	0.11
297.021	0.31
297.234	0.21
297.447	0.2
297.66	0.21
297.873	0.24
298.086	0.26
298.299	0.12
298.511	0.19
298.724	0.19
298.937	0.14
299.15	0.14
299.363	0.17
299.575	0.2
299.788	0.21
300.001	0.15
300.213	0.12
300.426	0.12
300.639	0.14
300.852	0.12
301.064	0.2
301.277	0.27
301.489	0.19
301.702	0.22
301.915	0.16
302.127	0.19
302.34	0.19
302.552	0.22
302.765	0.13
302.977	0.19
303.19	0.13
303.402	0.15
303.615	0.18
303.827	0.14
304.04	0.17
304.252	0.18
304.464	0.14
304.677	0.29
304.889	0.25
305.102	0.16
305.314	0.13
305.526	0.22
305.739	0.19
305.951	0.16
306.163	0.14
306.375	0.24
306.588	0.16
306.8	0.14
307.012	0.1
307.224	0.18
307.436	0.26
307.649	0.11
307.861	0.18
308.073	0.19
308.285	0.14
308.497	0.18
308.709	0.16
308.921	0.19
309.133	0.28
309.346	0.15
309.558	0.15
309.77	0.22
309.982	0.22
310.194	0.19
310.406	0.15
310.617	0.26
310.829	0.2
311.041	0.19
311.253	0.14
311.465	0.16
311.677	0.18
311.889	0.17
312.101	0.12
312.313	0.23
312.524	0.22
312.736	0.14
312.948	0.16
313.16	0.24
313.372	0.23
313.583	0.21
313.795	0.11
314.007	0.13
314.218	0.22
314.43	0.19
314.642	0.17
314.853	0.09
315.065	0.25
315.277	0.13
315.488	0.17
315.7	0.2
315.912	0.2
316.123	0.16
316.335	0.18
316.546	0.28
316.758	0.15
316.969	0.13
317.181	0.15
317.392	0.18
317.604	0.21
317.815	0.15
318.026	0.15
318.238	0.16
318.449	0.19
318.661	0.09
318.872	0.12
319.083	0.16
319.295	0.23
319.506	0.14
319.717	0.15
319.929	0.21
320.14	0.17
320.351	0.2
320.562	0.1
320.774	0.18
320.985	0.16
321.196	0.13
321.407	0.09
321.618	0.2
321.829	0.17
322.041	0.19
322.252	0.14
322.463	0.2
322.674	0.19
322.885	0.13
323.096	0.16
323.307	0.23
323.518	0.18
323.729	0.13
323.94	0.16
324.151	0.17
324.362	0.16
324.573	0.17
324.784	0.14
324.995	0.22
325.206	0.16
325.417	0.14
325.628	0.14
325.838	0.17
326.049	0.17
326.26	0.19
326.471	0.17
326.682	0.15
326.892	0.17
327.103	0.07
327.314	0.13
327.525	0.24
327.735	0.2
327.946	0.18
328.157	0.14
328.368	0.17
328.578	0.14
328.789	0.23
328.999	0.13
329.21	0.15
329.421	0.19
329.631	0.14
329.842	0.13
330.052	0.2
330.263	0.23
330.473	0.21
330.684	0.15
330.894	0.17
331.105	0.19
331.315	0.15
331.526	0.1
331.736	0.25
331.947	0.15
332.157	0.19
332.367	0.11
332.578	0.18
332.788	0.29
332.999	0.25
333.209	0.19
333.419	0.1
333.629	0.19
333.84	0.19
334.05	0.14
334.26	0.24
334.47	0.16
334.681	0.2
334.891	0.16
335.101	0.17
335.311	0.25
335.521	0.17
335.732	0.13
335.942	0.2
336.152	0.18
336.362	0.19
336.572	0.18
336.782	0.2
336.992	0.17
337.202	0.14
337.412	0.12
337.622	0.23
337.832	0.18
338.042	0.15
338.252	0.1
338.462	0.13
338.672	0.19
338.882	0.18
339.092	0.2
339.302	0.23
339.511	0.19
339.721	0.14
339.931	0.12
340.141	0.25
340.351	0.24
340.561	0.19
340.77	0.16
340.98	0.19
341.19	0.17
341.4	0.13
341.609	0.13
341.819	0.15
342.029	0.1
342.238	0.17
342.448	0.16
342.658	0.19
342.867	0.18
343.077	0.14
343.286	0.22
343.496	0.18
343.706	0.21
343.915	0.14
344.125	0.17
344.334	0.2
344.544	0.16
344.753	0.15
344.963	0.15
345.172	0.1
345.381	0.15
345.591	0.11
345.8	0.12
346.01	0.22
346.219	0.23
346.428	0.02
346.638	0.13
346.847	0.17
347.056	0.23
347.266	0.09
347.475	0.17
347.684	0.21
347.893	0.21
348.103	0.2
348.312	0.15
348.521	0.14
348.73	0.17
348.94	0.19
349.149	0.16
349.358	0.18
349.567	0.16
349.776	0.09
349.985	0.15
350.194	0.2
350.403	0.23
350.612	0.09
350.821	0.15
351.03	0.18
351.239	0.14
351.448	0.17
351.657	0.13
351.866	0.24
352.075	0.21
352.284	0.26
352.493	0.09
352.702	0.25
352.911	0.21
353.12	0.17
353.329	0.14
353.538	0.22
353.746	0.19
353.955	0.11
354.164	0.19
354.373	0.17
354.582	0.18
354.79	0.13
354.999	0.22
355.208	0.17
355.416	0.23
355.625	0.11
355.834	0.13
356.042	0.17
356.251	0.19
356.46	0.16
356.668	0.18
356.877	0.26
357.085	0.23
357.294	0.05
357.503	0.19
357.711	0.13
357.92	0.28
358.128	0.17
358.337	0.1
358.545	0.16
358.754	0.12
358.962	0.21
359.17	0.16
359.379	0.16
359.587	0.18
359.796	0.12
360.004	0.22
360.212	0.17
360.421	0.23
360.629	0.15
360.837	0.15
361.046	0.2
361.254	0.27
361.462	0.15
361.67	0.12
361.879	0.17
362.087	0.25
362.295	0.15
362.503	0.14
362.711	0.13
362.92	0.15
363.128	0.11
363.336	0.11
363.544	0.14
363.752	0.15
363.96	0.15
364.168	0.12
364.376	0.17
364.584	0.16
364.792	0.23
365	0.16
365.208	0.18
365.416	0.17
365.624	0.18
365.832	0.14
366.04	0.21
366.248	0.19
366.456	0.16
366.664	0.16
366.872	0.14
367.079	0.16
367.287	0.14
367.495	0.18
367.703	0.14
367.911	0.15
368.118	0.14
368.326	0.16
368.534	0.14
368.742	0.21
368.949	0.14
369.157	0.16
369.365	0.18
369.572	0.13
369.78	0.12
369.988	0.22
370.195	0.14
370.403	0.22
370.61	0.17
370.818	0.16
371.026	0.26
371.233	0.14
371.441	0.18
371.648	0.16
371.856	0.18
372.063	0.14
372.271	0.16
372.478	0.15
372.685	0.1
372.893	0.24
373.1	0.17
373.308	0.13
373.515	0.24
373.722	0.21
373.93	0.15
374.137	0.18
374.344	0.23
374.552	0.24
374.759	0.2
374.966	0.14
375.173	0.19
375.381	0.26
375.588	0.15
375.795	0.09
376.002	0.17
376.209	0.11
376.417	0.16
376.624	0.14
376.831	0.19
377.038	0.17
377.245	0.07
377.452	0.16
377.659	0.18
377.866	0.1
378.073	0.17
378.28	0.14
378.487	0.21
378.694	0.24
378.901	0.15
379.108	0.16
379.315	0.24
379.522	0.28
379.729	0.2
379.936	0.13
380.143	0.19
380.35	0.19
380.557	0.18
380.763	0.15
380.97	0.19
381.177	0.2
381.384	0.23
381.591	0.14
381.797	0.2
382.004	0.18
382.211	0.21
382.418	0.16
382.624	0.25
382.831	0.22
383.038	0.19
383.244	0.19
383.451	0.18
383.658	0.21
383.864	0.16
384.071	0.12
384.277	0.27
384.484	0.17
384.69	0.25
384.897	0.16
385.103	0.15
385.31	0.14
385.516	0.18
385.723	0.15
385.929	0.2
386.136	0.16
386.342	0.2
386.549	0.17
386.755	0.27
386.961	0.24
387.168	0.18
387.374	0.17
387.58	0.22
387.787	0.22
387.993	0.23
388.199	0.17
388.406	0.13
388.612	0.18
388.818	0.17
389.024	0.16
389.231	0.21
389.437	0.25
389.643	0.21
389.849	0.18
390.055	0.21
390.261	0.22
390.467	0.2
390.674	0.13
390.88	0.17
391.086	0.27
391.292	0.15
391.498	0.25
391.704	0.19
391.91	0.18
392.116	0.22
392.322	0.1
392.528	0.21
392.734	0.19
392.94	0.23
393.146	0.19
393.352	0.23
393.557	0.19
393.763	0.24
393.969	0.21
394.175	0.2
394.381	0.2
394.587	0.13
394.792	0.19
394.998	0.27
395.204	0.25
395.41	0.18
395.615	0.22
395.821	0.24
396.027	0.25
396.233	0.16
396.438	0.21
396.644	0.2
396.85	0.21
397.055	0.19
397.261	0.23
397.466	0.21
397.672	0.21
397.878	0.25
398.083	0.24
398.289	0.12
398.494	0.3
398.7	0.27
398.905	0.13
399.111	0.3
399.316	0.2
399.522	0.26
399.727	0.23
399.932	0.19
400.138	0.23
400.343	0.26
400.549	0.23
400.754	0.26
400.959	0.26
401.165	0.24
401.37	0.28
401.575	0.34
401.78	0.25
401.986	0.26
402.191	0.27
402.396	0.24
402.601	0.23
402.807	0.3
403.012	0.22
403.217	0.28
403.422	0.28
403.627	0.27
403.832	0.25
404.037	0.35
404.243	0.33
404.448	0.24
404.653	0.29
404.858	0.32
405.063	0.31
405.268	0.25
405.473	0.26
405.678	0.27
405.883	0.41
406.088	0.35
406.293	0.23
406.498	0.31
406.703	0.34
406.907	0.3
407.112	0.27
407.317	0.39
407.522	0.41
407.727	0.27
407.932	0.35
408.136	0.42
408.341	0.32
408.546	0.4
408.751	0.38
408.956	0.36
409.16	0.47
409.365	0.37
409.57	0.4
409.774	0.4
409.979	0.45
410.184	0.43
410.388	0.42
410.593	0.5
410.798	0.51
411.002	0.5
411.207	0.6
411.411	0.55
411.616	0.55
411.82	0.55
412.025	0.56
412.229	0.56
412.434	0.64
412.638	0.57
412.843	0.59
413.047	0.63
413.252	0.65
413.456	0.65
413.66	0.75
413.865	0.69
414.069	0.78
414.273	0.76
414.478	0.74
414.682	0.8
414.886	0.81
415.091	0.82
415.295	0.79
415.499	0.99
415.703	0.96
415.908	1.04
416.112	0.93
416.316	1.14
416.52	1.03
416.724	1.03
416.929	1.15
417.133	1.29
417.337	1.16
417.541	1.24
417.745	1.27
417.949	1.41
418.153	1.39
418.357	1.4
418.561	1.6
418.765	1.51
418.969	1.62
419.173	1.71
419.377	1.71
419.581	1.84
419.785	1.83
419.989	1.77
420.193	1.97
420.397	2.02
420.601	2.14
420.804	2.2
421.008	2.16
421.212	2.29
421.416	2.29
421.62	2.29
421.823	2.36
422.027	2.5
422.231	2.46
422.435	2.48
422.638	2.52
422.842	2.62
423.046	2.61
423.249	2.81
423.453	2.81
423.657	2.94
423.86	2.98
424.064	3.1
424.268	3.17
424.471	3.21
424.675	3.3
424.878	3.35
425.082	3.42
425.285	3.7
425.489	3.64
425.692	3.66
425.896	3.71
426.099	3.89
426.303	3.96
426.506	4.08
426.71	4.21
426.913	4.46
427.116	4.5
427.32	4.45
427.523	4.51
427.726	4.79
427.93	4.73
428.133	4.99
428.336	5.08
428.54	5.24
428.743	5.32
428.946	5.49
429.149	5.52
429.353	5.56
429.556	5.62
429.759	5.58
429.962	5.65
430.165	5.81
430.368	5.54
430.571	5.64
430.775	5.63
430.978	5.62
431.181	5.6
431.384	5.73
431.587	5.72
431.79	6.02
431.993	5.95
432.196	6.23
432.399	6.5
432.602	6.57
432.805	6.52
433.008	6.93
433.211	6.84
433.414	7.1
433.616	7.08
433.819	7.07
434.022	7.21
434.225	7.3
434.428	7.37
434.631	7.66
434.833	7.5
435.036	7.63
435.239	7.72
435.442	7.77
435.645	8.01
435.847	7.92
436.05	8.18
436.253	8.24
436.455	8.39
436.658	8.32
436.861	8.5
437.063	8.59
437.266	8.56
437.468	8.78
437.671	9.07
437.874	9.1
438.076	8.83
438.279	9.18
438.481	9.21
438.684	9.78
438.886	9.6
439.089	9.73
439.291	9.76
439.494	10.05
439.696	10.22
439.899	10.63
440.101	10.92
440.303	11.04
440.506	11.6
440.708	11.4
440.91	11.61
441.113	11.67
441.315	11.91
441.517	11.87
441.72	12.11
441.922	11.81
442.124	11.8
442.326	12.22
442.529	12.3
442.731	12.25
442.933	12.53
443.135	12.37
443.337	12.45
443.539	12.74
443.742	12.54
443.944	13
444.146	12.84
444.348	12.76
444.55	12.8
444.752	12.93
444.954	12.93
445.156	12.87
445.358	13.24
445.56	13.36
445.762	13.17
445.964	13.5
446.166	13.23
446.368	13.21
446.57	13.34
446.772	13
446.974	12.95
447.175	13.19
447.377	12.83
447.579	13.14
447.781	12.94
447.983	12.69
448.184	12.4
448.386	12.72
448.588	12.32
448.79	12.3
448.991	12.56
449.193	12.53
449.395	11.96
449.597	11.78
449.798	11.68
450	11.36
450.202	11.3
450.403	11.14
450.605	11.21
450.806	10.94
451.008	10.84
451.21	10.61
451.411	10.27
451.613	9.71
451.814	9.84
452.016	9.95
452.217	9.37
452.419	9.35
452.62	9.01
452.821	8.86
453.023	8.79
453.224	8.53
453.426	8.27
453.627	7.77
453.828	7.78
454.03	7.84
454.231	7.81
454.432	7.61
454.634	7.52
454.835	7.19
455.036	7.23
455.238	6.96
455.439	6.82
455.64	6.39
455.841	6.4
456.042	6.54
456.244	6.23
456.445	6.09
456.646	5.86
456.847	5.77
457.048	5.76
457.249	5.81
457.45	5.62
457.651	5.19
457.852	5.05
458.054	4.94
458.255	4.9
458.456	5.01
458.657	4.8
458.858	4.6
459.058	4.58
459.259	4.53
459.46	4.32
459.661	4.3
459.862	4.49
460.063	4.29
460.264	4.24
460.465	3.97
460.666	4.14
460.866	3.88
461.067	3.74
461.268	3.81
461.469	3.77
461.67	3.63
461.87	3.57
462.071	3.57
462.272	3.47
462.473	3.42
462.673	3.65
462.874	3.52
463.075	3.46
463.275	3.49
463.476	3.46
463.676	3.49
463.877	3.34
464.078	3.34
464.278	3.4
464.479	3.38
464.679	3.13
464.88	3.23
465.08	3.25
465.281	2.99
465.481	2.94
465.682	2.76
465.882	2.89
466.083	2.84
466.283	2.74
466.483	2.6
466.684	2.52
466.884	2.46
467.085	2.44
467.285	2.51
467.485	2.45
467.686	2.4
467.886	2.32
468.086	2.28
468.286	2.3
468.487	2.31
468.687	2.19
468.887	2.1
469.087	2.26
469.287	2.18
469.488	2
469.688	2.16
469.888	2.11
470.088	2.1
470.288	2.08
470.488	1.97
470.688	1.93
470.888	1.87
471.088	1.75
471.288	1.89
471.488	1.85
471.688	1.8
471.888	1.74
472.088	1.87
472.288	1.82
472.488	1.71
472.688	1.66
472.888	1.68
473.088	1.66
473.288	1.65
473.488	1.65
473.688	1.72
473.887	1.64
474.087	1.56
474.287	1.62
474.487	1.56
474.687	1.66
474.886	1.5
475.086	1.55
475.286	1.52
475.486	1.54
475.685	1.47
475.885	1.44
476.085	1.5
476.284	1.47
476.484	1.46
476.684	1.47
476.883	1.52
477.083	1.48
477.282	1.4
477.482	1.46
477.681	1.46
477.881	1.36
478.08	1.38
478.28	1.34
478.479	1.45
478.679	1.44
478.878	1.35
479.078	1.34
479.277	1.38
479.477	1.36
479.676	1.31
479.875	1.35
480.075	1.31
480.274	1.35
480.473	1.35
480.673	1.34
480.872	1.43
481.071	1.41
481.271	1.38
481.47	1.33
481.669	1.33
481.868	1.29
482.067	1.35
482.267	1.28
482.466	1.29
482.665	1.29
482.864	1.3
483.063	1.27
483.262	1.34
483.461	1.39
483.661	1.4
483.86	1.34
484.059	1.4
484.258	1.33
484.457	1.39
484.656	1.37
484.855	1.39
485.054	1.28
485.253	1.34
485.452	1.29
485.651	1.38
485.849	1.37
486.048	1.33
486.247	1.37
486.446	1.43
486.645	1.4
486.844	1.37
487.043	1.32
487.241	1.44
487.44	1.4
487.639	1.46
487.838	1.45
488.037	1.45
488.235	1.52
488.434	1.49
488.633	1.36
488.831	1.53
489.03	1.49
489.229	1.52
489.427	1.51
489.626	1.55
489.825	1.58
490.023	1.56
490.222	1.54
490.42	1.58
490.619	1.63
490.817	1.63
491.016	1.58
491.214	1.7
491.413	1.62
491.611	1.64
491.81	1.63
492.008	1.71
492.207	1.72
492.405	1.75
492.604	1.66
492.802	1.74
493	1.82
493.199	1.81
493.397	1.83
493.595	1.83
493.794	1.82
493.992	1.95
494.19	1.89
494.388	1.95
494.587	1.91
494.785	1.92
494.983	1.88
495.181	2.01
495.379	2.05
495.578	2.06
495.776	2.04
495.974	2.03
496.172	2.09
496.37	2.18
496.568	2.16
496.766	2.13
496.964	2.23
497.162	2.22
497.36	2.23
497.558	2.28
497.756	2.31
497.954	2.28
498.152	2.34
498.35	2.46
498.548	2.33
498.746	2.38
498.944	2.4
499.142	2.43
499.34	2.51
499.538	2.53
499.736	2.45
499.933	2.57
500.131	2.6
500.329	2.67
500.527	2.62
500.725	2.75
500.922	2.75
501.12	2.72
501.318	2.8
501.516	2.79
501.713	2.84
501.911	2.78
502.109	2.77
502.306	2.88
502.504	2.87
502.701	2.91
502.899	2.92
503.097	3.09
503.294	3
503.492	3.09
