Data from Apollo_Calib_20240827__AbsoluteIrradiance__21__23-30-01-026.txt Node

Date: Tue Aug 27 23:30:01 BST 2024
User: biology
Spectrometer: FLMT08252
Trigger mode: 0
Integration Time (sec): 5.000000E-1
Scans to average: 5
Electric dark correction enabled: true
Nonlinearity correction enabled: false
Boxcar width: 0
XAxis mode: Wavelengths
Number of Pixels in Spectrum: 3648
>>>>>Begin Spectral Data<<<<<
179.588	-0
179.809	-0
180.03	-0
180.251	-0
180.473	-0
180.694	0
180.915	0
181.136	-0
181.357	0
181.578	-0
181.799	-0
182.02	-0
182.241	-0
182.462	-0
182.683	0
182.904	-0
183.125	-0
183.346	0
183.567	0
183.788	0
184.009	0
184.23	0
184.451	0
184.672	0
184.892	0
185.113	0
185.334	0
185.555	0
185.776	0
185.996	0
186.217	0
186.438	0
186.659	0
186.879	0
187.1	0
187.321	0
187.541	0
187.762	0
187.983	0
188.203	0
188.424	0
188.644	0
188.865	0
189.086	0
189.306	0
189.527	0
189.747	0
189.968	0
190.188	0
190.409	0
190.629	0
190.849	0
191.07	0
191.29	0
191.511	0
191.731	0
191.951	0
192.172	0
192.392	0
192.612	0
192.833	0
193.053	0
193.273	0
193.493	0
193.714	0
193.934	0
194.154	0
194.374	0
194.594	0
194.815	0
195.035	0
195.255	0
195.475	0
195.695	0
195.915	0
196.135	0
196.355	0
196.575	0
196.795	0
197.015	0
197.235	0
197.455	0
197.675	0
197.895	0
198.115	0
198.335	0
198.555	0
198.775	0
198.995	0
199.214	0
199.434	0
199.654	0
199.874	0
200.094	3.84
200.313	2.65
200.533	2.25
200.753	1.57
200.973	2.95
201.192	2.84
201.412	2.04
201.632	1.69
201.851	3.16
202.071	1.26
202.291	2.22
202.51	1.83
202.73	2.5
202.95	1.44
203.169	1.63
203.389	1.79
203.608	2.04
203.828	1.72
204.047	1.79
204.267	2.29
204.486	2.21
204.706	2.12
204.925	2
205.145	1.43
205.364	1.76
205.583	2.33
205.803	1.24
206.022	1.45
206.242	1.82
206.461	1.97
206.68	1.45
206.9	1.84
207.119	2.22
207.338	2.02
207.557	1.51
207.777	1.39
207.996	1.36
208.215	1.9
208.434	0.94
208.654	1
208.873	1.26
209.092	1.97
209.311	1.37
209.53	1.26
209.749	1.09
209.968	1.12
210.187	1.14
210.407	0.9
210.626	1.16
210.845	1.63
211.064	1.39
211.283	1.12
211.502	1.49
211.721	1.09
211.94	1.23
212.159	1.31
212.377	1.1
212.596	1.39
212.815	1.3
213.034	1.04
213.253	1.37
213.472	1.38
213.691	1.02
213.91	0.53
214.128	0.97
214.347	1.52
214.566	0.74
214.785	0.46
215.003	1.22
215.222	0.96
215.441	1.15
215.66	0.75
215.878	1.08
216.097	1.06
216.316	0.66
216.534	0.87
216.753	1.06
216.972	1.04
217.19	1
217.409	0.67
217.627	0.76
217.846	0.85
218.064	0.88
218.283	0.71
218.501	1.42
218.72	1.13
218.938	0.64
219.157	0.76
219.375	1.06
219.594	0.97
219.812	0.58
220.031	0.65
220.249	0.93
220.467	0.95
220.686	0.72
220.904	0.43
221.122	0.67
221.341	1.1
221.559	0.9
221.777	0.7
221.995	0.86
222.214	0.85
222.432	0.65
222.65	0.88
222.868	0.71
223.086	0.83
223.305	0.81
223.523	0.6
223.741	1.09
223.959	0.74
224.177	0.54
224.395	0.62
224.613	0.83
224.831	0.75
225.049	0.55
225.267	0.63
225.485	0.73
225.703	0.57
225.921	0.68
226.139	0.65
226.357	0.9
226.575	0.64
226.793	0.57
227.011	1.28
227.229	0.65
227.447	0.75
227.665	0.62
227.883	0.36
228.1	0.6
228.318	0.57
228.536	0.33
228.754	0.47
228.972	0.74
229.189	0.8
229.407	0.5
229.625	0.54
229.843	0.71
230.06	0.71
230.278	0.53
230.496	0.65
230.713	0.66
230.931	0.77
231.149	0.51
231.366	0.31
231.584	0.66
231.801	0.84
232.019	0.57
232.236	0.49
232.454	0.57
232.671	0.69
232.889	0.62
233.106	0.42
233.324	0.62
233.541	0.62
233.759	0.56
233.976	0.52
234.194	0.5
234.411	0.51
234.628	0.45
234.846	0.54
235.063	0.47
235.28	0.54
235.498	0.55
235.715	0.49
235.932	0.75
236.149	0.46
236.367	0.4
236.584	0.66
236.801	0.54
237.018	0.48
237.236	0.42
237.453	0.39
237.67	0.62
237.887	0.42
238.104	0.49
238.321	0.23
238.538	0.48
238.755	0.6
238.973	0.35
239.19	0.56
239.407	0.57
239.624	0.53
239.841	0.31
240.058	0.38
240.275	0.55
240.492	0.49
240.709	0.51
240.925	0.55
241.142	0.42
241.359	0.4
241.576	0.4
241.793	0.34
242.01	0.38
242.227	0.52
242.444	0.46
242.66	0.62
242.877	0.55
243.094	0.37
243.311	0.48
243.527	0.47
243.744	0.48
243.961	0.5
244.178	0.41
244.394	0.36
244.611	0.57
244.828	0.57
245.044	0.34
245.261	0.34
245.477	0.46
245.694	0.59
245.911	0.41
246.127	0.42
246.344	0.57
246.56	0.52
246.777	0.41
246.993	0.43
247.21	0.47
247.426	0.42
247.643	0.37
247.859	0.28
248.076	0.3
248.292	0.49
248.508	0.44
248.725	0.43
248.941	0.42
249.157	0.5
249.374	0.32
249.59	0.4
249.806	0.45
250.023	0.47
250.239	0.34
250.455	0.37
250.671	0.48
250.888	0.42
251.104	0.47
251.32	0.33
251.536	0.46
251.752	0.46
251.969	0.46
252.185	0.37
252.401	0.58
252.617	0.38
252.833	0.41
253.049	0.45
253.265	0.39
253.481	0.43
253.697	0.43
253.913	0.34
254.129	0.49
254.345	0.38
254.561	0.41
254.777	0.38
254.993	0.51
255.209	0.41
255.425	0.28
255.641	0.33
255.857	0.5
256.073	0.34
256.288	0.29
256.504	0.37
256.72	0.45
256.936	0.4
257.152	0.44
257.367	0.33
257.583	0.42
257.799	0.4
258.015	0.34
258.23	0.35
258.446	0.49
258.662	0.37
258.877	0.34
259.093	0.28
259.309	0.36
259.524	0.47
259.74	0.26
259.955	0.26
260.171	0.39
260.387	0.31
260.602	0.48
260.818	0.48
261.033	0.3
261.249	0.36
261.464	0.32
261.68	0.25
261.895	0.41
262.11	0.44
262.326	0.32
262.541	0.29
262.757	0.39
262.972	0.37
263.187	0.38
263.403	0.37
263.618	0.46
263.833	0.33
264.049	0.31
264.264	0.37
264.479	0.46
264.694	0.42
264.91	0.29
265.125	0.37
265.34	0.35
265.555	0.52
265.77	0.36
265.986	0.39
266.201	0.4
266.416	0.43
266.631	0.32
266.846	0.3
267.061	0.44
267.276	0.39
267.491	0.17
267.706	0.34
267.921	0.42
268.136	0.34
268.351	0.35
268.566	0.29
268.781	0.51
268.996	0.41
269.211	0.38
269.426	0.34
269.641	0.29
269.856	0.4
270.071	0.32
270.285	0.28
270.5	0.4
270.715	0.41
270.93	0.3
271.145	0.32
271.359	0.43
271.574	0.29
271.789	0.39
272.004	0.36
272.218	0.3
272.433	0.37
272.648	0.3
272.862	0.41
273.077	0.34
273.292	0.38
273.506	0.24
273.721	0.34
273.936	0.37
274.15	0.45
274.365	0.32
274.579	0.42
274.794	0.4
275.008	0.42
275.223	0.3
275.437	0.32
275.652	0.44
275.866	0.39
276.081	0.29
276.295	0.33
276.509	0.42
276.724	0.32
276.938	0.38
277.153	0.32
277.367	0.41
277.581	0.27
277.796	0.32
278.01	0.29
278.224	0.39
278.438	0.47
278.653	0.28
278.867	0.28
279.081	0.18
279.295	0.31
279.51	0.32
279.724	0.19
279.938	0.38
280.152	0.34
280.366	0.25
280.58	0.34
280.794	0.4
281.008	0.35
281.222	0.34
281.437	0.47
281.651	0.33
281.865	0.39
282.079	0.28
282.293	0.2
282.507	0.26
282.721	0.31
282.935	0.27
283.148	0.17
283.362	0.29
283.576	0.3
283.79	0.29
284.004	0.26
284.218	0.32
284.432	0.25
284.646	0.27
284.859	0.3
285.073	0.28
285.287	0.3
285.501	0.29
285.714	0.26
285.928	0.26
286.142	0.29
286.356	0.27
286.569	0.26
286.783	0.31
286.997	0.34
287.21	0.26
287.424	0.28
287.637	0.26
287.851	0.2
288.065	0.33
288.278	0.29
288.492	0.34
288.705	0.29
288.919	0.3
289.132	0.28
289.346	0.36
289.559	0.21
289.773	0.23
289.986	0.25
290.2	0.32
290.413	0.33
290.626	0.19
290.84	0.27
291.053	0.26
291.267	0.37
291.48	0.29
291.693	0.29
291.906	0.26
292.12	0.25
292.333	0.25
292.546	0.27
292.76	0.35
292.973	0.3
293.186	0.32
293.399	0.28
293.612	0.32
293.826	0.32
294.039	0.24
294.252	0.25
294.465	0.37
294.678	0.31
294.891	0.29
295.104	0.22
295.317	0.24
295.53	0.27
295.743	0.26
295.956	0.3
296.169	0.34
296.382	0.32
296.595	0.27
296.808	0.22
297.021	0.3
297.234	0.29
297.447	0.29
297.66	0.26
297.873	0.27
298.086	0.28
298.299	0.23
298.511	0.18
298.724	0.29
298.937	0.24
299.15	0.24
299.363	0.29
299.575	0.31
299.788	0.32
300.001	0.24
300.213	0.24
300.426	0.28
300.639	0.26
300.852	0.25
301.064	0.31
301.277	0.31
301.489	0.29
301.702	0.3
301.915	0.27
302.127	0.27
302.34	0.26
302.552	0.28
302.765	0.22
302.977	0.33
303.19	0.25
303.402	0.24
303.615	0.2
303.827	0.26
304.04	0.25
304.252	0.32
304.464	0.25
304.677	0.35
304.889	0.25
305.102	0.21
305.314	0.25
305.526	0.31
305.739	0.28
305.951	0.2
306.163	0.23
306.375	0.31
306.588	0.21
306.8	0.2
307.012	0.21
307.224	0.28
307.436	0.25
307.649	0.19
307.861	0.27
308.073	0.26
308.285	0.25
308.497	0.27
308.709	0.26
308.921	0.32
309.133	0.3
309.346	0.28
309.558	0.25
309.77	0.29
309.982	0.3
310.194	0.26
310.406	0.24
310.617	0.33
310.829	0.28
311.041	0.31
311.253	0.23
311.465	0.2
311.677	0.26
311.889	0.29
312.101	0.26
312.313	0.29
312.524	0.27
312.736	0.19
312.948	0.27
313.16	0.34
313.372	0.28
313.583	0.32
313.795	0.27
314.007	0.22
314.218	0.31
314.43	0.24
314.642	0.27
314.853	0.24
315.065	0.32
315.277	0.25
315.488	0.26
315.7	0.31
315.912	0.27
316.123	0.26
316.335	0.28
316.546	0.36
316.758	0.25
316.969	0.24
317.181	0.28
317.392	0.23
317.604	0.34
317.815	0.24
318.026	0.2
318.238	0.26
318.449	0.27
318.661	0.2
318.872	0.23
319.083	0.19
319.295	0.3
319.506	0.24
319.717	0.26
319.929	0.33
320.14	0.3
320.351	0.26
320.562	0.25
320.774	0.21
320.985	0.23
321.196	0.19
321.407	0.2
321.618	0.3
321.829	0.27
322.041	0.28
322.252	0.27
322.463	0.24
322.674	0.25
322.885	0.19
323.096	0.21
323.307	0.26
323.518	0.23
323.729	0.25
323.94	0.26
324.151	0.26
324.362	0.28
324.573	0.28
324.784	0.25
324.995	0.28
325.206	0.28
325.417	0.23
325.628	0.25
325.838	0.24
326.049	0.23
326.26	0.3
326.471	0.22
326.682	0.28
326.892	0.27
327.103	0.18
327.314	0.22
327.525	0.34
327.735	0.24
327.946	0.3
328.157	0.22
328.368	0.27
328.578	0.24
328.789	0.3
328.999	0.28
329.21	0.23
329.421	0.26
329.631	0.21
329.842	0.21
330.052	0.26
330.263	0.27
330.473	0.31
330.684	0.25
330.894	0.25
331.105	0.3
331.315	0.25
331.526	0.18
331.736	0.35
331.947	0.26
332.157	0.28
332.367	0.19
332.578	0.29
332.788	0.29
332.999	0.29
333.209	0.25
333.419	0.21
333.629	0.28
333.84	0.26
334.05	0.26
334.26	0.36
334.47	0.29
334.681	0.24
334.891	0.24
335.101	0.25
335.311	0.31
335.521	0.27
335.732	0.24
335.942	0.34
336.152	0.27
336.362	0.29
336.572	0.27
336.782	0.26
336.992	0.26
337.202	0.24
337.412	0.26
337.622	0.28
337.832	0.28
338.042	0.26
338.252	0.21
338.462	0.27
338.672	0.27
338.882	0.23
339.092	0.19
339.302	0.33
339.511	0.3
339.721	0.21
339.931	0.21
340.141	0.26
340.351	0.33
340.561	0.28
340.77	0.25
340.98	0.26
341.19	0.26
341.4	0.2
341.609	0.24
341.819	0.27
342.029	0.25
342.238	0.24
342.448	0.21
342.658	0.28
342.867	0.3
343.077	0.18
343.286	0.25
343.496	0.3
343.706	0.27
343.915	0.2
344.125	0.24
344.334	0.26
344.544	0.17
344.753	0.19
344.963	0.25
345.172	0.21
345.381	0.24
345.591	0.2
345.8	0.25
346.01	0.31
346.219	0.28
346.428	0.09
346.638	0.25
346.847	0.25
347.056	0.34
347.266	0.23
347.475	0.29
347.684	0.25
347.893	0.22
348.103	0.3
348.312	0.25
348.521	0.23
348.73	0.24
348.94	0.24
349.149	0.23
349.358	0.23
349.567	0.18
349.776	0.19
349.985	0.22
350.194	0.28
350.403	0.31
350.612	0.23
350.821	0.26
351.03	0.19
351.239	0.24
351.448	0.23
351.657	0.24
351.866	0.34
352.075	0.24
352.284	0.31
352.493	0.2
352.702	0.32
352.911	0.22
353.12	0.29
353.329	0.22
353.538	0.29
353.746	0.2
353.955	0.22
354.164	0.26
354.373	0.23
354.582	0.27
354.79	0.24
354.999	0.25
355.208	0.24
355.416	0.31
355.625	0.2
355.834	0.25
356.042	0.29
356.251	0.25
356.46	0.22
356.668	0.25
356.877	0.31
357.085	0.3
357.294	0.2
357.503	0.25
357.711	0.23
357.92	0.4
358.128	0.23
358.337	0.25
358.545	0.3
358.754	0.23
358.962	0.27
359.17	0.26
359.379	0.25
359.587	0.23
359.796	0.24
360.004	0.32
360.212	0.27
360.421	0.26
360.629	0.24
360.837	0.28
361.046	0.28
361.254	0.34
361.462	0.25
361.67	0.23
361.879	0.26
362.087	0.29
362.295	0.25
362.503	0.22
362.711	0.16
362.92	0.27
363.128	0.23
363.336	0.2
363.544	0.22
363.752	0.23
363.96	0.2
364.168	0.25
364.376	0.27
364.584	0.24
364.792	0.26
365	0.26
365.208	0.25
365.416	0.27
365.624	0.25
365.832	0.23
366.04	0.31
366.248	0.25
366.456	0.23
366.664	0.21
366.872	0.22
367.079	0.23
367.287	0.28
367.495	0.27
367.703	0.23
367.911	0.23
368.118	0.22
368.326	0.24
368.534	0.26
368.742	0.28
368.949	0.23
369.157	0.24
369.365	0.28
369.572	0.23
369.78	0.21
369.988	0.3
370.195	0.27
370.403	0.29
370.61	0.22
370.818	0.26
371.026	0.38
371.233	0.21
371.441	0.27
371.648	0.24
371.856	0.27
372.063	0.25
372.271	0.25
372.478	0.22
372.685	0.22
372.893	0.26
373.1	0.28
373.308	0.22
373.515	0.36
373.722	0.29
373.93	0.23
374.137	0.29
374.344	0.32
374.552	0.27
374.759	0.27
374.966	0.29
375.173	0.26
375.381	0.28
375.588	0.28
375.795	0.18
376.002	0.23
376.209	0.24
376.417	0.26
376.624	0.32
376.831	0.29
377.038	0.25
377.245	0.23
377.452	0.26
377.659	0.27
377.866	0.21
378.073	0.3
378.28	0.23
378.487	0.31
378.694	0.3
378.901	0.21
379.108	0.25
379.315	0.28
379.522	0.36
379.729	0.25
379.936	0.25
380.143	0.28
380.35	0.28
380.557	0.26
380.763	0.29
380.97	0.28
381.177	0.27
381.384	0.24
381.591	0.28
381.797	0.27
382.004	0.34
382.211	0.3
382.418	0.28
382.624	0.33
382.831	0.3
383.038	0.26
383.244	0.28
383.451	0.23
383.658	0.31
383.864	0.28
384.071	0.22
384.277	0.34
384.484	0.24
384.69	0.3
384.897	0.26
385.103	0.25
385.31	0.24
385.516	0.23
385.723	0.22
385.929	0.27
386.136	0.24
386.342	0.34
386.549	0.22
386.755	0.34
386.961	0.27
387.168	0.26
387.374	0.3
387.58	0.32
387.787	0.28
387.993	0.32
388.199	0.26
388.406	0.24
388.612	0.28
388.818	0.26
389.024	0.28
389.231	0.3
389.437	0.36
389.643	0.29
389.849	0.27
390.055	0.32
390.261	0.27
390.467	0.33
390.674	0.27
390.88	0.27
391.086	0.31
391.292	0.26
391.498	0.31
391.704	0.28
391.91	0.24
392.116	0.3
392.322	0.2
392.528	0.35
392.734	0.31
392.94	0.29
393.146	0.3
393.352	0.28
393.557	0.28
393.763	0.27
393.969	0.29
394.175	0.3
394.381	0.3
394.587	0.31
394.792	0.28
394.998	0.35
395.204	0.36
395.41	0.3
395.615	0.33
395.821	0.37
396.027	0.32
396.233	0.31
396.438	0.33
396.644	0.38
396.85	0.33
397.055	0.31
397.261	0.4
397.466	0.33
397.672	0.32
397.878	0.35
398.083	0.32
398.289	0.29
398.494	0.39
398.7	0.31
398.905	0.25
399.111	0.39
399.316	0.31
399.522	0.33
399.727	0.33
399.932	0.31
400.138	0.33
400.343	0.4
400.549	0.33
400.754	0.31
400.959	0.35
401.165	0.36
401.37	0.42
401.575	0.45
401.78	0.32
401.986	0.34
402.191	0.36
402.396	0.4
402.601	0.4
402.807	0.38
403.012	0.41
403.217	0.43
403.422	0.41
403.627	0.43
403.832	0.41
404.037	0.45
404.243	0.47
404.448	0.34
404.653	0.43
404.858	0.43
405.063	0.42
405.268	0.37
405.473	0.36
405.678	0.41
405.883	0.57
406.088	0.48
406.293	0.39
406.498	0.42
406.703	0.52
406.907	0.49
407.112	0.44
407.317	0.49
407.522	0.59
407.727	0.44
407.932	0.53
408.136	0.63
408.341	0.53
408.546	0.56
408.751	0.53
408.956	0.51
409.16	0.56
409.365	0.65
409.57	0.62
409.774	0.61
409.979	0.62
410.184	0.66
410.388	0.65
410.593	0.71
410.798	0.68
411.002	0.74
411.207	0.79
411.411	0.79
411.616	0.8
411.82	0.78
412.025	0.88
412.229	0.82
412.434	0.92
412.638	0.91
412.843	0.85
413.047	0.94
413.252	0.91
413.456	1
413.66	1.04
413.865	1
414.069	1.12
414.273	1.11
414.478	1.18
414.682	1.13
414.886	1.18
415.091	1.22
415.295	1.26
415.499	1.39
415.703	1.33
415.908	1.43
416.112	1.33
416.316	1.55
416.52	1.55
416.724	1.57
416.929	1.58
417.133	1.83
417.337	1.78
417.541	1.74
417.745	1.78
417.949	1.9
418.153	1.96
418.357	1.97
418.561	2.21
418.765	2.13
418.969	2.32
419.173	2.41
419.377	2.4
419.581	2.59
419.785	2.52
419.989	2.54
420.193	2.79
420.397	2.84
420.601	2.9
420.804	2.98
421.008	3.06
421.212	3.19
421.416	3.2
421.62	3.27
421.823	3.33
422.027	3.41
422.231	3.37
422.435	3.51
422.638	3.49
422.842	3.63
423.046	3.73
423.249	3.91
423.453	3.9
423.657	4.03
423.86	4.06
424.064	4.23
424.268	4.39
424.471	4.41
424.675	4.61
424.878	4.7
425.082	4.81
425.285	5.09
425.489	5.01
425.692	5.21
425.896	5.18
426.099	5.37
426.303	5.53
426.506	5.66
426.71	5.9
426.913	5.98
427.116	6.18
427.32	6.24
427.523	6.26
427.726	6.65
427.93	6.69
428.133	7.06
428.336	7.16
428.54	7.25
428.743	7.59
428.946	7.79
429.149	7.76
429.353	7.83
429.556	7.95
429.759	7.96
429.962	8.18
430.165	8.29
430.368	7.98
430.571	7.97
430.775	8.13
430.978	7.93
431.181	7.96
431.384	8.17
431.587	8.31
431.79	8.57
431.993	8.53
432.196	8.82
432.399	9.3
432.602	9.36
432.805	9.36
433.008	10.03
433.211	9.88
433.414	10.21
433.616	10.21
433.819	10.21
434.022	10.39
434.225	10.57
434.428	10.54
434.631	11.02
434.833	10.71
435.036	10.93
435.239	11.18
435.442	11.26
435.645	11.43
435.847	11.55
436.05	11.76
436.253	12.08
436.455	12.05
436.658	11.88
436.861	12.26
437.063	12.42
437.266	12.32
437.468	12.7
437.671	13.03
437.874	13.01
438.076	12.89
438.279	13.41
438.481	13.36
438.684	14.09
438.886	13.65
439.089	14.12
439.291	13.97
439.494	14.36
439.696	14.53
439.899	15.16
440.101	15.53
440.303	15.72
440.506	16.46
440.708	16.23
440.91	16.36
441.113	16.61
441.315	16.91
441.517	16.65
441.72	17.09
441.922	16.81
442.124	16.72
442.326	17.06
442.529	17.33
442.731	17.32
442.933	17.76
443.135	17.34
443.337	17.33
443.539	17.86
443.742	17.69
443.944	18.29
444.146	17.99
444.348	18.07
444.55	17.97
444.752	17.97
444.954	18.19
445.156	18.04
445.358	18.44
445.56	18.71
445.762	18.52
445.964	18.81
446.166	18.48
446.368	18.55
446.57	18.63
446.772	18.28
446.974	17.86
447.175	18.21
447.377	17.69
447.579	18.44
447.781	18.05
447.983	17.9
448.184	17.38
448.386	17.8
448.588	17.34
448.79	17.26
448.991	17.56
449.193	17.71
449.395	16.99
449.597	16.58
449.798	16.42
450	16.08
450.202	15.96
450.403	15.99
450.605	15.86
450.806	15.4
451.008	15.31
451.21	15.06
451.411	14.65
451.613	13.99
451.814	14.22
452.016	14.09
452.217	13.34
452.419	13.47
452.62	13.16
452.821	12.8
453.023	12.6
453.224	12.47
453.426	12.01
453.627	11.25
453.828	11.33
454.03	11.39
454.231	11.35
454.432	11.21
454.634	10.97
454.835	10.71
455.036	10.57
455.238	10.25
455.439	9.91
455.64	9.63
455.841	9.53
456.042	9.65
456.244	9.32
456.445	9.06
456.646	8.7
456.847	8.69
457.048	8.53
457.249	8.51
457.45	8.28
457.651	7.7
457.852	7.67
458.054	7.41
458.255	7.27
458.456	7.38
458.657	7.3
458.858	6.74
459.058	6.71
459.259	6.84
459.46	6.5
459.661	6.46
459.862	6.46
460.063	6.44
460.264	6.28
460.465	6.07
460.666	6.13
460.866	5.78
461.067	5.54
461.268	5.63
461.469	5.52
461.67	5.48
461.87	5.26
462.071	5.26
462.272	5.18
462.473	5.22
462.673	5.3
462.874	5.17
463.075	5.24
463.275	5.26
463.476	5.16
463.676	5.13
463.877	4.99
464.078	4.93
464.278	5.01
464.479	4.93
464.679	4.78
464.88	4.74
465.08	4.66
465.281	4.58
465.481	4.28
465.682	4.23
465.882	4.24
466.083	4.17
466.283	4
466.483	3.96
466.684	3.82
466.884	3.69
467.085	3.7
467.285	3.74
467.485	3.64
467.686	3.61
467.886	3.43
468.086	3.43
468.286	3.38
468.487	3.49
468.687	3.28
468.887	3.27
469.087	3.4
469.287	3.25
469.488	3.12
469.688	3.2
469.888	3.24
470.088	3.2
470.288	3.18
470.488	3.02
470.688	2.86
470.888	2.91
471.088	2.74
471.288	2.83
471.488	2.77
471.688	2.76
471.888	2.72
472.088	2.79
472.288	2.79
472.488	2.58
472.688	2.61
472.888	2.61
473.088	2.58
473.288	2.5
473.488	2.47
473.688	2.58
473.887	2.48
474.087	2.43
474.287	2.48
474.487	2.42
474.687	2.43
474.886	2.35
475.086	2.33
475.286	2.33
475.486	2.23
475.685	2.24
475.885	2.24
476.085	2.3
476.284	2.28
476.484	2.27
476.684	2.24
476.883	2.31
477.083	2.15
477.282	2.14
477.482	2.17
477.681	2.14
477.881	2.09
478.08	2.07
478.28	2.05
478.479	2.07
478.679	2.12
478.878	2.09
479.078	2.07
479.277	2.12
479.477	2.06
479.676	2.04
479.875	2.03
480.075	1.98
480.274	2.01
480.473	2.07
480.673	2
480.872	2.11
481.071	2.02
481.271	2.05
481.47	2.03
481.669	1.98
481.868	1.99
482.067	2
482.267	1.94
482.466	1.98
482.665	1.97
482.864	1.98
483.063	1.96
483.262	2
483.461	2.05
483.661	2.08
483.86	1.97
484.059	2.1
484.258	2.01
484.457	2.01
484.656	2.03
484.855	2.06
485.054	1.93
485.253	1.94
485.452	1.99
485.651	2.08
485.849	2.05
486.048	2.08
486.247	2.06
486.446	2.05
486.645	2.04
486.844	2.08
487.043	2.07
487.241	2.07
487.44	2.08
487.639	2.13
487.838	2.14
488.037	2.11
488.235	2.18
488.434	2.18
488.633	2.08
488.831	2.23
489.03	2.24
489.229	2.23
489.427	2.22
489.626	2.25
489.825	2.27
490.023	2.3
490.222	2.27
490.42	2.31
490.619	2.37
490.817	2.35
491.016	2.35
491.214	2.38
491.413	2.45
491.611	2.37
491.81	2.44
492.008	2.4
492.207	2.54
492.405	2.52
492.604	2.45
492.802	2.53
493	2.6
493.199	2.62
493.397	2.62
493.595	2.69
493.794	2.64
493.992	2.77
494.19	2.74
494.388	2.82
494.587	2.72
494.785	2.76
494.983	2.76
495.181	2.81
495.379	2.91
495.578	2.92
495.776	2.94
495.974	2.9
496.172	3
496.37	3.07
496.568	3.09
496.766	3.04
496.964	3.15
497.162	3.14
497.36	3.17
497.558	3.2
497.756	3.26
497.954	3.26
498.152	3.36
498.35	3.42
498.548	3.32
498.746	3.4
498.944	3.38
499.142	3.43
499.34	3.5
499.538	3.6
499.736	3.54
499.933	3.65
500.131	3.6
500.329	3.76
500.527	3.73
500.725	3.87
500.922	3.88
501.12	3.86
501.318	3.94
501.516	3.94
501.713	4
501.911	3.99
502.109	3.93
502.306	4.12
502.504	4
502.701	4.08
502.899	4.16
