Data from Apollo_Calib_20240827__AbsoluteIrradiance__896__14-05-01-921.txt Node

Date: Wed Aug 28 14:05:01 BST 2024
User: biology
Spectrometer: FLMT08252
Trigger mode: 0
Integration Time (sec): 5.000000E-1
Scans to average: 5
Electric dark correction enabled: true
Nonlinearity correction enabled: false
Boxcar width: 0
XAxis mode: Wavelengths
Number of Pixels in Spectrum: 3648
>>>>>Begin Spectral Data<<<<<
179.588	-0
179.809	-0
180.03	-0
180.251	-0
180.473	-0
180.694	0
180.915	0
181.136	-0
181.357	0
181.578	-0
181.799	0
182.02	-0
182.241	0
182.462	-0
182.683	0
182.904	-0
183.125	-0
183.346	0
183.567	0
183.788	0
184.009	0
184.23	0
184.451	0
184.672	0
184.892	0
185.113	0
185.334	0
185.555	0
185.776	0
185.996	0
186.217	0
186.438	0
186.659	0
186.879	0
187.1	0
187.321	0
187.541	0
187.762	0
187.983	0
188.203	0
188.424	0
188.644	0
188.865	0
189.086	0
189.306	0
189.527	0
189.747	0
189.968	0
190.188	0
190.409	0
190.629	0
190.849	0
191.07	0
191.29	0
191.511	0
191.731	0
191.951	0
192.172	0
192.392	0
192.612	0
192.833	0
193.053	0
193.273	0
193.493	0
193.714	0
193.934	0
194.154	0
194.374	0
194.594	0
194.815	0
195.035	0
195.255	0
195.475	0
195.695	0
195.915	0
196.135	0
196.355	0
196.575	0
196.795	0
197.015	0
197.235	0
197.455	0
197.675	0
197.895	0
198.115	0
198.335	0
198.555	0
198.775	0
198.995	0
199.214	0
199.434	0
199.654	0
199.874	0
200.094	4
200.313	2.29
200.533	1.63
200.753	1.52
200.973	3.71
201.192	3.16
201.412	1.08
201.632	1.78
201.851	3.28
202.071	1.62
202.291	1.38
202.51	1.3
202.73	2.72
202.95	1.55
203.169	1.47
203.389	1.48
203.608	1.88
203.828	2.09
204.047	1.47
204.267	2.26
204.486	2.06
204.706	2.17
204.925	1.79
205.145	1.53
205.364	2.26
205.583	2.3
205.803	1.31
206.022	0.93
206.242	1.99
206.461	1.86
206.68	1.59
206.9	1.54
207.119	2.56
207.338	2.16
207.557	1.09
207.777	1.1
207.996	1.46
208.215	2.23
208.434	1.03
208.654	0.95
208.873	1.34
209.092	2.25
209.311	1.21
209.53	1.27
209.749	1.21
209.968	0.83
210.187	0.88
210.407	0.64
210.626	1.11
210.845	1.72
211.064	0.99
211.283	0.82
211.502	1.61
211.721	1.24
211.94	1.03
212.159	1.36
212.377	1.25
212.596	1.75
212.815	1.17
213.034	1.24
213.253	1.41
213.472	1.26
213.691	0.9
213.91	0.62
214.128	0.75
214.347	1.55
214.566	0.39
214.785	0.38
215.003	1.28
215.222	1.24
215.441	0.96
215.66	0.55
215.878	0.91
216.097	1.23
216.316	0.64
216.534	0.69
216.753	1.22
216.972	0.89
217.19	0.76
217.409	0.54
217.627	0.68
217.846	0.72
218.064	0.92
218.283	0.46
218.501	1.49
218.72	1.16
218.938	0.53
219.157	0.79
219.375	1.01
219.594	1.03
219.812	0.5
220.031	0.54
220.249	1.17
220.467	1.29
220.686	0.66
220.904	0.49
221.122	0.68
221.341	1.16
221.559	0.88
221.777	0.34
221.995	0.81
222.214	0.96
222.432	0.55
222.65	0.79
222.868	0.75
223.086	0.64
223.305	0.93
223.523	0.52
223.741	1.26
223.959	0.86
224.177	0.29
224.395	0.47
224.613	0.96
224.831	1
225.049	0.37
225.267	0.55
225.485	0.78
225.703	0.62
225.921	0.53
226.139	0.57
226.357	0.78
226.575	0.73
226.793	0.48
227.011	1.63
227.229	0.81
227.447	0.9
227.665	0.51
227.883	0.26
228.1	0.55
228.318	0.75
228.536	0.28
228.754	0.47
228.972	0.69
229.189	0.68
229.407	0.52
229.625	0.57
229.843	0.76
230.06	0.65
230.278	0.5
230.496	0.56
230.713	0.68
230.931	0.71
231.149	0.5
231.366	0.29
231.584	0.51
231.801	1
232.019	0.59
232.236	0.35
232.454	0.54
232.671	0.65
232.889	0.36
233.106	0.38
233.324	0.72
233.541	0.56
233.759	0.49
233.976	0.41
234.194	0.5
234.411	0.57
234.628	0.37
234.846	0.4
235.063	0.58
235.28	0.58
235.498	0.47
235.715	0.36
235.932	0.72
236.149	0.54
236.367	0.35
236.584	0.52
236.801	0.42
237.018	0.79
237.236	0.46
237.453	0.3
237.67	0.68
237.887	0.5
238.104	0.43
238.321	0.29
238.538	0.36
238.755	0.82
238.973	0.27
239.19	0.48
239.407	0.53
239.624	0.62
239.841	0.24
240.058	0.29
240.275	0.61
240.492	0.55
240.709	0.36
240.925	0.36
241.142	0.45
241.359	0.34
241.576	0.3
241.793	0.45
242.01	0.42
242.227	0.7
242.444	0.43
242.66	0.65
242.877	0.54
243.094	0.41
243.311	0.46
243.527	0.31
243.744	0.5
243.961	0.53
244.178	0.46
244.394	0.37
244.611	0.52
244.828	0.64
245.044	0.34
245.261	0.42
245.477	0.55
245.694	0.6
245.911	0.32
246.127	0.38
246.344	0.55
246.56	0.51
246.777	0.38
246.993	0.37
247.21	0.48
247.426	0.53
247.643	0.36
247.859	0.27
248.076	0.31
248.292	0.75
248.508	0.3
248.725	0.51
248.941	0.43
249.157	0.53
249.374	0.34
249.59	0.38
249.806	0.47
250.023	0.52
250.239	0.31
250.455	0.37
250.671	0.37
250.888	0.52
251.104	0.5
251.32	0.27
251.536	0.43
251.752	0.38
251.969	0.44
252.185	0.4
252.401	0.68
252.617	0.49
252.833	0.34
253.049	0.38
253.265	0.4
253.481	0.39
253.697	0.31
253.913	0.26
254.129	0.41
254.345	0.47
254.561	0.29
254.777	0.29
254.993	0.4
255.209	0.42
255.425	0.29
255.641	0.29
255.857	0.42
256.073	0.4
256.288	0.3
256.504	0.35
256.72	0.42
256.936	0.53
257.152	0.32
257.367	0.26
257.583	0.43
257.799	0.53
258.015	0.3
258.23	0.36
258.446	0.59
258.662	0.41
258.877	0.32
259.093	0.29
259.309	0.39
259.524	0.47
259.74	0.26
259.955	0.15
260.171	0.4
260.387	0.37
260.602	0.38
260.818	0.39
261.033	0.32
261.249	0.38
261.464	0.27
261.68	0.29
261.895	0.4
262.11	0.48
262.326	0.35
262.541	0.23
262.757	0.46
262.972	0.37
263.187	0.37
263.403	0.36
263.618	0.39
263.833	0.43
264.049	0.26
264.264	0.33
264.479	0.39
264.694	0.52
264.91	0.18
265.125	0.29
265.34	0.41
265.555	0.56
265.77	0.37
265.986	0.29
266.201	0.4
266.416	0.44
266.631	0.3
266.846	0.3
267.061	0.43
267.276	0.44
267.491	0.19
267.706	0.38
267.921	0.37
268.136	0.41
268.351	0.3
268.566	0.22
268.781	0.5
268.996	0.42
269.211	0.3
269.426	0.21
269.641	0.3
269.856	0.51
270.071	0.26
270.285	0.21
270.5	0.45
270.715	0.4
270.93	0.29
271.145	0.33
271.359	0.46
271.574	0.24
271.789	0.27
272.004	0.23
272.218	0.34
272.433	0.39
272.648	0.26
272.862	0.41
273.077	0.35
273.292	0.33
273.506	0.29
273.721	0.28
273.936	0.43
274.15	0.48
274.365	0.23
274.579	0.35
274.794	0.45
275.008	0.41
275.223	0.23
275.437	0.27
275.652	0.4
275.866	0.45
276.081	0.39
276.295	0.39
276.509	0.32
276.724	0.38
276.938	0.32
277.153	0.36
277.367	0.36
277.581	0.33
277.796	0.29
278.01	0.22
278.224	0.39
278.438	0.48
278.653	0.23
278.867	0.25
279.081	0.14
279.295	0.29
279.51	0.27
279.724	0.14
279.938	0.38
280.152	0.43
280.366	0.22
280.58	0.28
280.794	0.43
281.008	0.38
281.222	0.35
281.437	0.47
281.651	0.33
281.865	0.45
282.079	0.22
282.293	0.13
282.507	0.21
282.721	0.32
282.935	0.27
283.148	0.22
283.362	0.32
283.576	0.25
283.79	0.23
284.004	0.26
284.218	0.44
284.432	0.21
284.646	0.23
284.859	0.25
285.073	0.25
285.287	0.28
285.501	0.31
285.714	0.25
285.928	0.37
286.142	0.31
286.356	0.23
286.569	0.26
286.783	0.47
286.997	0.33
287.21	0.28
287.424	0.3
287.637	0.29
287.851	0.28
288.065	0.34
288.278	0.23
288.492	0.3
288.705	0.32
288.919	0.29
289.132	0.17
289.346	0.33
289.559	0.19
289.773	0.23
289.986	0.24
290.2	0.29
290.413	0.35
290.626	0.24
290.84	0.23
291.053	0.29
291.267	0.38
291.48	0.26
291.693	0.28
291.906	0.23
292.12	0.29
292.333	0.27
292.546	0.19
292.76	0.43
292.973	0.33
293.186	0.32
293.399	0.23
293.612	0.31
293.826	0.3
294.039	0.25
294.252	0.24
294.465	0.36
294.678	0.27
294.891	0.24
295.104	0.22
295.317	0.26
295.53	0.31
295.743	0.27
295.956	0.2
296.169	0.33
296.382	0.29
296.595	0.22
296.808	0.21
297.021	0.37
297.234	0.37
297.447	0.25
297.66	0.31
297.873	0.41
298.086	0.35
298.299	0.22
298.511	0.2
298.724	0.3
298.937	0.18
299.15	0.19
299.363	0.21
299.575	0.32
299.788	0.29
300.001	0.21
300.213	0.25
300.426	0.21
300.639	0.24
300.852	0.18
301.064	0.3
301.277	0.35
301.489	0.3
301.702	0.26
301.915	0.25
302.127	0.25
302.34	0.3
302.552	0.33
302.765	0.22
302.977	0.33
303.19	0.26
303.402	0.22
303.615	0.23
303.827	0.28
304.04	0.23
304.252	0.25
304.464	0.25
304.677	0.43
304.889	0.31
305.102	0.21
305.314	0.2
305.526	0.28
305.739	0.3
305.951	0.2
306.163	0.18
306.375	0.4
306.588	0.22
306.8	0.22
307.012	0.22
307.224	0.29
307.436	0.35
307.649	0.13
307.861	0.29
308.073	0.29
308.285	0.23
308.497	0.19
308.709	0.21
308.921	0.27
309.133	0.33
309.346	0.2
309.558	0.22
309.77	0.3
309.982	0.34
310.194	0.29
310.406	0.22
310.617	0.4
310.829	0.25
311.041	0.27
311.253	0.19
311.465	0.26
311.677	0.27
311.889	0.2
312.101	0.2
312.313	0.34
312.524	0.34
312.736	0.17
312.948	0.22
313.16	0.37
313.372	0.32
313.583	0.32
313.795	0.2
314.007	0.25
314.218	0.33
314.43	0.22
314.642	0.18
314.853	0.13
315.065	0.33
315.277	0.25
315.488	0.25
315.7	0.29
315.912	0.29
316.123	0.2
316.335	0.23
316.546	0.36
316.758	0.24
316.969	0.27
317.181	0.23
317.392	0.27
317.604	0.35
317.815	0.21
318.026	0.22
318.238	0.24
318.449	0.26
318.661	0.17
318.872	0.18
319.083	0.21
319.295	0.28
319.506	0.22
319.717	0.24
319.929	0.31
320.14	0.26
320.351	0.27
320.562	0.18
320.774	0.32
320.985	0.33
321.196	0.22
321.407	0.17
321.618	0.32
321.829	0.3
322.041	0.26
322.252	0.24
322.463	0.29
322.674	0.29
322.885	0.2
323.096	0.24
323.307	0.21
323.518	0.26
323.729	0.22
323.94	0.24
324.151	0.26
324.362	0.26
324.573	0.27
324.784	0.26
324.995	0.31
325.206	0.3
325.417	0.24
325.628	0.17
325.838	0.24
326.049	0.28
326.26	0.26
326.471	0.16
326.682	0.29
326.892	0.29
327.103	0.18
327.314	0.23
327.525	0.36
327.735	0.29
327.946	0.25
328.157	0.15
328.368	0.32
328.578	0.26
328.789	0.33
328.999	0.26
329.21	0.22
329.421	0.34
329.631	0.23
329.842	0.2
330.052	0.25
330.263	0.34
330.473	0.33
330.684	0.25
330.894	0.25
331.105	0.28
331.315	0.27
331.526	0.21
331.736	0.31
331.947	0.27
332.157	0.29
332.367	0.21
332.578	0.26
332.788	0.33
332.999	0.32
333.209	0.22
333.419	0.17
333.629	0.29
333.84	0.28
334.05	0.22
334.26	0.31
334.47	0.3
334.681	0.28
334.891	0.16
335.101	0.33
335.311	0.37
335.521	0.28
335.732	0.23
335.942	0.3
336.152	0.28
336.362	0.23
336.572	0.25
336.782	0.25
336.992	0.23
337.202	0.24
337.412	0.25
337.622	0.29
337.832	0.23
338.042	0.22
338.252	0.2
338.462	0.26
338.672	0.27
338.882	0.2
339.092	0.25
339.302	0.33
339.511	0.3
339.721	0.24
339.931	0.19
340.141	0.29
340.351	0.34
340.561	0.28
340.77	0.28
340.98	0.28
341.19	0.3
341.4	0.22
341.609	0.17
341.819	0.27
342.029	0.21
342.238	0.26
342.448	0.26
342.658	0.32
342.867	0.2
343.077	0.23
343.286	0.24
343.496	0.33
343.706	0.33
343.915	0.19
344.125	0.22
344.334	0.29
344.544	0.18
344.753	0.21
344.963	0.21
345.172	0.21
345.381	0.19
345.591	0.19
345.8	0.27
346.01	0.33
346.219	0.29
346.428	0.13
346.638	0.25
346.847	0.27
347.056	0.35
347.266	0.19
347.475	0.22
347.684	0.28
347.893	0.28
348.103	0.3
348.312	0.23
348.521	0.26
348.73	0.27
348.94	0.27
349.149	0.23
349.358	0.26
349.567	0.21
349.776	0.17
349.985	0.24
350.194	0.29
350.403	0.34
350.612	0.18
350.821	0.2
351.03	0.29
351.239	0.23
351.448	0.28
351.657	0.21
351.866	0.34
352.075	0.26
352.284	0.3
352.493	0.18
352.702	0.32
352.911	0.26
353.12	0.23
353.329	0.2
353.538	0.28
353.746	0.22
353.955	0.19
354.164	0.3
354.373	0.21
354.582	0.32
354.79	0.26
354.999	0.3
355.208	0.21
355.416	0.35
355.625	0.18
355.834	0.2
356.042	0.26
356.251	0.19
356.46	0.16
356.668	0.25
356.877	0.36
357.085	0.28
357.294	0.17
357.503	0.25
357.711	0.22
357.92	0.43
358.128	0.26
358.337	0.21
358.545	0.24
358.754	0.21
358.962	0.31
359.17	0.18
359.379	0.26
359.587	0.26
359.796	0.26
360.004	0.35
360.212	0.28
360.421	0.33
360.629	0.21
360.837	0.19
361.046	0.3
361.254	0.35
361.462	0.24
361.67	0.22
361.879	0.28
362.087	0.32
362.295	0.24
362.503	0.21
362.711	0.19
362.92	0.26
363.128	0.25
363.336	0.22
363.544	0.18
363.752	0.27
363.96	0.25
364.168	0.2
364.376	0.26
364.584	0.27
364.792	0.34
365	0.28
365.208	0.24
365.416	0.27
365.624	0.3
365.832	0.17
366.04	0.39
366.248	0.28
366.456	0.24
366.664	0.23
366.872	0.27
367.079	0.27
367.287	0.21
367.495	0.27
367.703	0.23
367.911	0.21
368.118	0.22
368.326	0.26
368.534	0.16
368.742	0.33
368.949	0.21
369.157	0.24
369.365	0.31
369.572	0.2
369.78	0.2
369.988	0.27
370.195	0.28
370.403	0.28
370.61	0.21
370.818	0.22
371.026	0.36
371.233	0.2
371.441	0.27
371.648	0.22
371.856	0.22
372.063	0.28
372.271	0.19
372.478	0.19
372.685	0.25
372.893	0.33
373.1	0.24
373.308	0.19
373.515	0.38
373.722	0.31
373.93	0.23
374.137	0.27
374.344	0.37
374.552	0.32
374.759	0.27
374.966	0.23
375.173	0.22
375.381	0.29
375.588	0.25
375.795	0.21
376.002	0.24
376.209	0.23
376.417	0.25
376.624	0.26
376.831	0.24
377.038	0.26
377.245	0.19
377.452	0.24
377.659	0.28
377.866	0.29
378.073	0.23
378.28	0.25
378.487	0.35
378.694	0.34
378.901	0.26
379.108	0.25
379.315	0.28
379.522	0.41
379.729	0.24
379.936	0.25
380.143	0.29
380.35	0.28
380.557	0.24
380.763	0.25
380.97	0.27
381.177	0.31
381.384	0.28
381.591	0.27
381.797	0.33
382.004	0.27
382.211	0.31
382.418	0.23
382.624	0.26
382.831	0.34
383.038	0.25
383.244	0.27
383.451	0.27
383.658	0.33
383.864	0.29
384.071	0.22
384.277	0.36
384.484	0.28
384.69	0.34
384.897	0.2
385.103	0.25
385.31	0.27
385.516	0.26
385.723	0.25
385.929	0.27
386.136	0.24
386.342	0.3
386.549	0.22
386.755	0.31
386.961	0.3
387.168	0.24
387.374	0.26
387.58	0.33
387.787	0.31
387.993	0.31
388.199	0.27
388.406	0.24
388.612	0.27
388.818	0.26
389.024	0.22
389.231	0.27
389.437	0.42
389.643	0.32
389.849	0.28
390.055	0.23
390.261	0.3
390.467	0.37
390.674	0.24
390.88	0.3
391.086	0.32
391.292	0.22
391.498	0.33
391.704	0.34
391.91	0.31
392.116	0.25
392.322	0.18
392.528	0.32
392.734	0.28
392.94	0.34
393.146	0.29
393.352	0.33
393.557	0.28
393.763	0.27
393.969	0.34
394.175	0.24
394.381	0.32
394.587	0.22
394.792	0.28
394.998	0.38
395.204	0.36
395.41	0.26
395.615	0.31
395.821	0.34
396.027	0.33
396.233	0.3
396.438	0.36
396.644	0.4
396.85	0.33
397.055	0.3
397.261	0.33
397.466	0.3
397.672	0.31
397.878	0.35
398.083	0.39
398.289	0.28
398.494	0.39
398.7	0.39
398.905	0.21
399.111	0.44
399.316	0.28
399.522	0.37
399.727	0.32
399.932	0.4
400.138	0.33
400.343	0.36
400.549	0.34
400.754	0.34
400.959	0.37
401.165	0.37
401.37	0.36
401.575	0.47
401.78	0.36
401.986	0.4
402.191	0.4
402.396	0.38
402.601	0.42
402.807	0.41
403.012	0.38
403.217	0.41
403.422	0.4
403.627	0.42
403.832	0.35
404.037	0.46
404.243	0.45
404.448	0.37
404.653	0.41
404.858	0.47
405.063	0.46
405.268	0.4
405.473	0.38
405.678	0.45
405.883	0.66
406.088	0.51
406.293	0.39
406.498	0.42
406.703	0.56
406.907	0.46
407.112	0.41
407.317	0.48
407.522	0.59
407.727	0.5
407.932	0.52
408.136	0.69
408.341	0.53
408.546	0.57
408.751	0.59
408.956	0.53
409.16	0.67
409.365	0.61
409.57	0.63
409.774	0.64
409.979	0.69
410.184	0.7
410.388	0.64
410.593	0.77
410.798	0.76
411.002	0.71
411.207	0.83
411.411	0.8
411.616	0.77
411.82	0.79
412.025	0.84
412.229	0.84
412.434	1
412.638	0.89
412.843	0.9
413.047	0.97
413.252	0.93
413.456	1
413.66	1.08
413.865	1.06
414.069	1.14
414.273	1.1
414.478	1.1
414.682	1.18
414.886	1.24
415.091	1.2
415.295	1.24
415.499	1.45
415.703	1.36
415.908	1.45
416.112	1.34
416.316	1.6
416.52	1.58
416.724	1.58
416.929	1.57
417.133	1.89
417.337	1.7
417.541	1.77
417.745	1.85
417.949	1.98
418.153	2.05
418.357	2.06
418.561	2.35
418.765	2.24
418.969	2.4
419.173	2.41
419.377	2.43
419.581	2.66
419.785	2.66
419.989	2.63
420.193	2.8
420.397	2.93
420.601	3.03
420.804	3.23
421.008	3.12
421.212	3.36
421.416	3.28
421.62	3.31
421.823	3.41
422.027	3.53
422.231	3.58
422.435	3.51
422.638	3.59
422.842	3.72
423.046	3.8
423.249	3.97
423.453	3.97
423.657	4.15
423.86	4.23
424.064	4.37
424.268	4.59
424.471	4.57
424.675	4.72
424.878	4.82
425.082	5.02
425.285	5.32
425.489	5.18
425.692	5.33
425.896	5.3
426.099	5.55
426.303	5.65
426.506	5.79
426.71	6.06
426.913	6.27
427.116	6.43
427.32	6.4
427.523	6.49
427.726	6.82
427.93	6.87
428.133	7.2
428.336	7.38
428.54	7.55
428.743	7.76
428.946	7.97
429.149	8.08
429.353	8.09
429.556	8.06
429.759	8.07
429.962	8.23
430.165	8.43
430.368	8.03
430.571	8.15
430.775	8.23
430.978	8.18
431.181	8.2
431.384	8.25
431.587	8.46
431.79	8.76
431.993	8.78
432.196	8.94
432.399	9.4
432.602	9.5
432.805	9.58
433.008	10.14
433.211	10.01
433.414	10.35
433.616	10.46
433.819	10.31
434.022	10.43
434.225	10.77
434.428	10.67
434.631	11.13
434.833	11
435.036	11.14
435.239	11.42
435.442	11.41
435.645	11.63
435.847	11.69
436.05	11.95
436.253	12.25
436.455	12.25
436.658	12.04
436.861	12.41
437.063	12.51
437.266	12.46
437.468	12.94
437.671	13.19
437.874	13.2
438.076	13.07
438.279	13.52
438.481	13.62
438.684	14.34
438.886	13.93
439.089	14.14
439.291	14.29
439.494	14.63
439.696	14.78
439.899	15.3
440.101	15.73
440.303	15.87
440.506	16.67
440.708	16.43
440.91	16.62
441.113	16.67
441.315	17.03
441.517	16.83
441.72	17.3
441.922	16.97
442.124	16.84
442.326	17.31
442.529	17.57
442.731	17.41
442.933	17.84
443.135	17.49
443.337	17.39
443.539	18.18
443.742	17.84
443.944	18.33
444.146	18.01
444.348	18.15
444.55	18.04
444.752	18.25
444.954	18.2
445.156	18.08
445.358	18.5
445.56	18.78
445.762	18.5
445.964	18.8
446.166	18.48
446.368	18.64
446.57	18.6
446.772	18.25
446.974	17.92
447.175	18.3
447.377	18.03
447.579	18.29
447.781	18.08
447.983	17.74
448.184	17.48
448.386	17.68
448.588	17.17
448.79	17.23
448.991	17.48
449.193	17.49
449.395	16.88
449.597	16.48
449.798	16.44
450	16.01
450.202	15.9
450.403	15.78
450.605	15.68
450.806	15.31
451.008	15.23
451.21	14.92
451.411	14.59
451.613	13.72
451.814	13.99
452.016	14.01
452.217	13.22
452.419	13.18
452.62	12.89
452.821	12.63
453.023	12.56
453.224	12.18
453.426	11.75
453.627	10.97
453.828	11.13
454.03	11.3
454.231	11.08
454.432	11.04
454.634	10.66
454.835	10.47
455.036	10.33
455.238	9.9
455.439	9.75
455.64	9.54
455.841	9.3
456.042	9.5
456.244	9.12
456.445	8.87
456.646	8.56
456.847	8.46
457.048	8.43
457.249	8.51
457.45	8.29
457.651	7.72
457.852	7.54
458.054	7.21
458.255	7.12
458.456	7.21
458.657	7.06
458.858	6.69
459.058	6.61
459.259	6.69
459.46	6.37
459.661	6.33
459.862	6.48
460.063	6.33
460.264	6.2
460.465	5.99
460.666	6.03
460.866	5.67
461.067	5.53
461.268	5.58
461.469	5.47
461.67	5.36
461.87	5.22
462.071	5.16
462.272	5.1
462.473	5.14
462.673	5.26
462.874	5.15
463.075	5.03
463.275	5.06
463.476	5.16
463.676	5.01
463.877	4.9
464.078	4.9
464.278	4.92
464.479	4.76
464.679	4.71
464.88	4.66
465.08	4.69
465.281	4.48
465.481	4.23
465.682	4.08
465.882	4.16
466.083	4.03
466.283	3.98
466.483	3.9
466.684	3.64
466.884	3.55
467.085	3.61
467.285	3.76
467.485	3.55
467.686	3.47
467.886	3.42
468.086	3.34
468.286	3.37
468.487	3.44
468.687	3.27
468.887	3.17
469.087	3.36
469.287	3.22
469.488	3.04
469.688	3.14
469.888	3.21
470.088	3.14
470.288	3.04
470.488	3
470.688	2.85
470.888	2.8
471.088	2.58
471.288	2.74
471.488	2.75
471.688	2.79
471.888	2.66
472.088	2.79
472.288	2.7
472.488	2.62
472.688	2.57
472.888	2.58
473.088	2.58
473.288	2.51
473.488	2.4
473.688	2.58
473.887	2.46
474.087	2.4
474.287	2.41
474.487	2.38
474.687	2.45
474.886	2.36
475.086	2.25
475.286	2.33
475.486	2.25
475.685	2.26
475.885	2.2
476.085	2.25
476.284	2.28
476.484	2.29
476.684	2.18
476.883	2.3
477.083	2.18
477.282	2.11
477.482	2.21
477.681	2.15
477.881	2.07
478.08	2.07
478.28	2
478.479	2.08
478.679	2.14
478.878	2.08
479.078	2.01
479.277	2.11
479.477	2.07
479.676	2.06
479.875	1.97
480.075	1.93
480.274	2.01
480.473	2.02
480.673	2.04
480.872	2.13
481.071	2.06
481.271	2.06
481.47	1.99
481.669	1.97
481.868	1.97
482.067	1.95
482.267	1.88
482.466	1.94
482.665	1.95
482.864	1.93
483.063	1.94
483.262	2.01
483.461	2
483.661	2.05
483.86	2
484.059	2.03
484.258	2.07
484.457	2.02
484.656	2.03
484.855	2.11
485.054	1.96
485.253	1.99
485.452	1.96
485.651	2.08
485.849	1.99
486.048	1.97
486.247	2.02
486.446	2.09
486.645	2.04
486.844	2.08
487.043	2.08
487.241	2.09
487.44	2.08
487.639	2.11
487.838	2.11
488.037	2.11
488.235	2.24
488.434	2.17
488.633	2.03
488.831	2.22
489.03	2.2
489.229	2.22
489.427	2.18
489.626	2.3
489.825	2.32
490.023	2.3
490.222	2.27
490.42	2.27
490.619	2.37
490.817	2.38
491.016	2.35
491.214	2.41
491.413	2.41
491.611	2.37
491.81	2.35
492.008	2.45
492.207	2.57
492.405	2.51
492.604	2.49
492.802	2.57
493	2.61
493.199	2.56
493.397	2.63
493.595	2.67
493.794	2.66
493.992	2.76
494.19	2.74
494.388	2.82
494.587	2.72
494.785	2.77
494.983	2.72
495.181	2.88
495.379	2.9
495.578	2.94
495.776	2.94
495.974	2.95
496.172	2.97
496.37	3.09
496.568	3.07
496.766	3.07
496.964	3.2
497.162	3.18
497.36	3.22
497.558	3.24
497.756	3.33
497.954	3.29
498.152	3.37
498.35	3.45
498.548	3.35
498.746	3.38
498.944	3.39
499.142	3.45
499.34	3.53
499.538	3.68
499.736	3.52
499.933	3.67
500.131	3.68
500.329	3.78
500.527	3.78
500.725	3.86
500.922	3.9
501.12	3.88
501.318	3.96
501.516	3.93
501.713	4
501.911	4.02
502.109	3.99
502.306	4.08
502.504	4.03
502.701	4.13
502.899	4.22
