Data from Apollo_Calib_20240827__AbsoluteIrradiance__884__13-53-01-948.txt Node

Date: Wed Aug 28 13:53:01 BST 2024
User: biology
Spectrometer: FLMT08252
Trigger mode: 0
Integration Time (sec): 5.000000E-1
Scans to average: 5
Electric dark correction enabled: true
Nonlinearity correction enabled: false
Boxcar width: 0
XAxis mode: Wavelengths
Number of Pixels in Spectrum: 3648
>>>>>Begin Spectral Data<<<<<
179.588	-0
179.809	-0
180.03	-0
180.251	-0
180.473	-0
180.694	0
180.915	0
181.136	-0
181.357	0
181.578	-0
181.799	-0
182.02	-0
182.241	-0
182.462	-0
182.683	0
182.904	-0
183.125	-0
183.346	0
183.567	0
183.788	0
184.009	0
184.23	0
184.451	0
184.672	0
184.892	0
185.113	0
185.334	0
185.555	0
185.776	0
185.996	0
186.217	0
186.438	0
186.659	0
186.879	0
187.1	0
187.321	0
187.541	0
187.762	0
187.983	0
188.203	0
188.424	0
188.644	0
188.865	0
189.086	0
189.306	0
189.527	0
189.747	0
189.968	0
190.188	0
190.409	0
190.629	0
190.849	0
191.07	0
191.29	0
191.511	0
191.731	0
191.951	0
192.172	0
192.392	0
192.612	0
192.833	0
193.053	0
193.273	0
193.493	0
193.714	0
193.934	0
194.154	0
194.374	0
194.594	0
194.815	0
195.035	0
195.255	0
195.475	0
195.695	0
195.915	0
196.135	0
196.355	0
196.575	0
196.795	0
197.015	0
197.235	0
197.455	0
197.675	0
197.895	0
198.115	0
198.335	0
198.555	0
198.775	0
198.995	0
199.214	0
199.434	0
199.654	0
199.874	0
200.094	4.2
200.313	2.47
200.533	1.38
200.753	1.22
200.973	3.79
201.192	3.42
201.412	1.11
201.632	2.04
201.851	3.1
202.071	1.52
202.291	1.23
202.51	1.15
202.73	2.77
202.95	1.75
203.169	1.07
203.389	1.7
203.608	1.52
203.828	1.7
204.047	1.13
204.267	2.01
204.486	2.19
204.706	2.3
204.925	1.76
205.145	1.15
205.364	2.2
205.583	2.59
205.803	1.17
206.022	1.14
206.242	1.79
206.461	1.89
206.68	1.19
206.9	1.21
207.119	2.62
207.338	2.14
207.557	0.99
207.777	1.03
207.996	1.42
208.215	2.05
208.434	0.91
208.654	0.69
208.873	1.43
209.092	2.11
209.311	0.95
209.53	1.12
209.749	1.22
209.968	1.01
210.187	0.91
210.407	0.79
210.626	1.35
210.845	1.75
211.064	0.83
211.283	0.69
211.502	1.46
211.721	1.28
211.94	0.82
212.159	1.2
212.377	1.43
212.596	1.5
212.815	1.05
213.034	1.11
213.253	1.44
213.472	1.15
213.691	0.83
213.91	0.5
214.128	0.78
214.347	1.78
214.566	0.66
214.785	0.4
215.003	1.14
215.222	1.34
215.441	0.58
215.66	0.36
215.878	1.21
216.097	1.3
216.316	0.8
216.534	0.84
216.753	1.14
216.972	0.72
217.19	0.98
217.409	0.74
217.627	0.88
217.846	0.85
218.064	1.08
218.283	0.56
218.501	1.29
218.72	1.16
218.938	0.54
219.157	0.63
219.375	1.21
219.594	1.18
219.812	0.3
220.031	0.36
220.249	1.2
220.467	1.13
220.686	0.49
220.904	0.46
221.122	0.7
221.341	1.15
221.559	0.84
221.777	0.4
221.995	0.74
222.214	0.95
222.432	0.47
222.65	0.73
222.868	0.71
223.086	0.74
223.305	0.85
223.523	0.63
223.741	1.27
223.959	0.77
224.177	0.2
224.395	0.6
224.613	0.81
224.831	0.94
225.049	0.44
225.267	0.41
225.485	0.71
225.703	0.54
225.921	0.46
226.139	0.43
226.357	0.8
226.575	0.82
226.793	0.51
227.011	1.42
227.229	0.69
227.447	0.82
227.665	0.54
227.883	0.32
228.1	0.6
228.318	0.78
228.536	0.18
228.754	0.45
228.972	0.55
229.189	0.71
229.407	0.47
229.625	0.52
229.843	0.73
230.06	0.73
230.278	0.56
230.496	0.55
230.713	0.64
230.931	0.77
231.149	0.39
231.366	0.31
231.584	0.54
231.801	0.94
232.019	0.47
232.236	0.3
232.454	0.42
232.671	0.61
232.889	0.42
233.106	0.31
233.324	0.57
233.541	0.51
233.759	0.51
233.976	0.35
234.194	0.61
234.411	0.53
234.628	0.45
234.846	0.37
235.063	0.6
235.28	0.63
235.498	0.42
235.715	0.34
235.932	0.77
236.149	0.57
236.367	0.36
236.584	0.52
236.801	0.42
237.018	0.68
237.236	0.5
237.453	0.27
237.67	0.72
237.887	0.46
238.104	0.45
238.321	0.3
238.538	0.27
238.755	0.65
238.973	0.22
239.19	0.44
239.407	0.56
239.624	0.43
239.841	0.26
240.058	0.29
240.275	0.49
240.492	0.5
240.709	0.47
240.925	0.39
241.142	0.55
241.359	0.34
241.576	0.26
241.793	0.35
242.01	0.48
242.227	0.53
242.444	0.51
242.66	0.55
242.877	0.52
243.094	0.32
243.311	0.42
243.527	0.45
243.744	0.41
243.961	0.52
244.178	0.27
244.394	0.4
244.611	0.6
244.828	0.67
245.044	0.32
245.261	0.34
245.477	0.48
245.694	0.62
245.911	0.31
246.127	0.41
246.344	0.68
246.56	0.55
246.777	0.33
246.993	0.36
247.21	0.4
247.426	0.57
247.643	0.32
247.859	0.25
248.076	0.3
248.292	0.75
248.508	0.38
248.725	0.41
248.941	0.35
249.157	0.56
249.374	0.29
249.59	0.36
249.806	0.39
250.023	0.45
250.239	0.31
250.455	0.2
250.671	0.34
250.888	0.45
251.104	0.45
251.32	0.3
251.536	0.36
251.752	0.3
251.969	0.4
252.185	0.37
252.401	0.66
252.617	0.46
252.833	0.28
253.049	0.37
253.265	0.42
253.481	0.45
253.697	0.32
253.913	0.28
254.129	0.44
254.345	0.44
254.561	0.37
254.777	0.31
254.993	0.49
255.209	0.43
255.425	0.36
255.641	0.25
255.857	0.57
256.073	0.41
256.288	0.29
256.504	0.3
256.72	0.5
256.936	0.56
257.152	0.38
257.367	0.3
257.583	0.46
257.799	0.56
258.015	0.27
258.23	0.28
258.446	0.65
258.662	0.34
258.877	0.25
259.093	0.27
259.309	0.39
259.524	0.43
259.74	0.28
259.955	0.24
260.171	0.3
260.387	0.44
260.602	0.27
260.818	0.39
261.033	0.23
261.249	0.49
261.464	0.33
261.68	0.21
261.895	0.45
262.11	0.44
262.326	0.34
262.541	0.23
262.757	0.48
262.972	0.45
263.187	0.32
263.403	0.36
263.618	0.47
263.833	0.39
264.049	0.31
264.264	0.31
264.479	0.33
264.694	0.52
264.91	0.15
265.125	0.35
265.34	0.38
265.555	0.57
265.77	0.39
265.986	0.3
266.201	0.46
266.416	0.46
266.631	0.33
266.846	0.26
267.061	0.4
267.276	0.49
267.491	0.15
267.706	0.42
267.921	0.39
268.136	0.35
268.351	0.34
268.566	0.25
268.781	0.44
268.996	0.45
269.211	0.24
269.426	0.25
269.641	0.29
269.856	0.5
270.071	0.23
270.285	0.23
270.5	0.42
270.715	0.45
270.93	0.31
271.145	0.31
271.359	0.42
271.574	0.25
271.789	0.27
272.004	0.25
272.218	0.29
272.433	0.38
272.648	0.28
272.862	0.39
273.077	0.39
273.292	0.24
273.506	0.18
273.721	0.27
273.936	0.39
274.15	0.46
274.365	0.25
274.579	0.36
274.794	0.4
275.008	0.43
275.223	0.21
275.437	0.32
275.652	0.38
275.866	0.34
276.081	0.27
276.295	0.4
276.509	0.33
276.724	0.36
276.938	0.3
277.153	0.3
277.367	0.36
277.581	0.28
277.796	0.28
278.01	0.21
278.224	0.41
278.438	0.53
278.653	0.25
278.867	0.2
279.081	0.42
279.295	0.28
279.51	0.27
279.724	0.13
279.938	0.41
280.152	0.34
280.366	0.28
280.58	0.27
280.794	0.42
281.008	0.34
281.222	0.34
281.437	0.5
281.651	0.33
281.865	0.42
282.079	0.27
282.293	0.16
282.507	0.24
282.721	0.3
282.935	0.28
283.148	0.16
283.362	0.29
283.576	0.2
283.79	0.29
284.004	0.29
284.218	0.38
284.432	0.23
284.646	0.28
284.859	0.24
285.073	0.26
285.287	0.31
285.501	0.22
285.714	0.3
285.928	0.32
286.142	0.3
286.356	0.2
286.569	0.23
286.783	0.4
286.997	0.37
287.21	0.29
287.424	0.26
287.637	0.3
287.851	0.27
288.065	0.31
288.278	0.21
288.492	0.3
288.705	0.25
288.919	0.35
289.132	0.18
289.346	0.34
289.559	0.22
289.773	0.2
289.986	0.28
290.2	0.24
290.413	0.35
290.626	0.19
290.84	0.2
291.053	0.3
291.267	0.42
291.48	0.26
291.693	0.24
291.906	0.26
292.12	0.26
292.333	0.2
292.546	0.23
292.76	0.38
292.973	0.32
293.186	0.34
293.399	0.22
293.612	0.3
293.826	0.28
294.039	0.26
294.252	0.23
294.465	0.35
294.678	0.33
294.891	0.27
295.104	0.23
295.317	0.23
295.53	0.26
295.743	0.28
295.956	0.19
296.169	0.37
296.382	0.31
296.595	0.28
296.808	0.18
297.021	0.33
297.234	0.34
297.447	0.22
297.66	0.3
297.873	0.31
298.086	0.36
298.299	0.23
298.511	0.2
298.724	0.28
298.937	0.19
299.15	0.18
299.363	0.23
299.575	0.36
299.788	0.27
300.001	0.24
300.213	0.24
300.426	0.23
300.639	0.2
300.852	0.18
301.064	0.27
301.277	0.35
301.489	0.29
301.702	0.25
301.915	0.25
302.127	0.28
302.34	0.3
302.552	0.27
302.765	0.2
302.977	0.35
303.19	0.22
303.402	0.19
303.615	0.2
303.827	0.26
304.04	0.2
304.252	0.3
304.464	0.25
304.677	0.42
304.889	0.33
305.102	0.2
305.314	0.22
305.526	0.37
305.739	0.33
305.951	0.19
306.163	0.19
306.375	0.36
306.588	0.23
306.8	0.23
307.012	0.21
307.224	0.28
307.436	0.32
307.649	0.15
307.861	0.23
308.073	0.3
308.285	0.23
308.497	0.18
308.709	0.18
308.921	0.31
309.133	0.34
309.346	0.21
309.558	0.22
309.77	0.3
309.982	0.4
310.194	0.28
310.406	0.16
310.617	0.39
310.829	0.3
311.041	0.29
311.253	0.21
311.465	0.25
311.677	0.25
311.889	0.26
312.101	0.25
312.313	0.34
312.524	0.38
312.736	0.22
312.948	0.23
313.16	0.37
313.372	0.28
313.583	0.25
313.795	0.22
314.007	0.2
314.218	0.3
314.43	0.26
314.642	0.2
314.853	0.17
315.065	0.3
315.277	0.24
315.488	0.25
315.7	0.31
315.912	0.29
316.123	0.21
316.335	0.22
316.546	0.34
316.758	0.26
316.969	0.2
317.181	0.27
317.392	0.27
317.604	0.34
317.815	0.18
318.026	0.23
318.238	0.23
318.449	0.26
318.661	0.14
318.872	0.17
319.083	0.21
319.295	0.33
319.506	0.23
319.717	0.25
319.929	0.27
320.14	0.27
320.351	0.25
320.562	0.21
320.774	0.29
320.985	0.27
321.196	0.2
321.407	0.15
321.618	0.31
321.829	0.27
322.041	0.27
322.252	0.2
322.463	0.31
322.674	0.29
322.885	0.17
323.096	0.22
323.307	0.32
323.518	0.3
323.729	0.18
323.94	0.18
324.151	0.22
324.362	0.25
324.573	0.23
324.784	0.2
324.995	0.31
325.206	0.27
325.417	0.28
325.628	0.21
325.838	0.25
326.049	0.28
326.26	0.26
326.471	0.22
326.682	0.26
326.892	0.28
327.103	0.2
327.314	0.22
327.525	0.38
327.735	0.25
327.946	0.25
328.157	0.24
328.368	0.26
328.578	0.25
328.789	0.26
328.999	0.24
329.21	0.22
329.421	0.29
329.631	0.2
329.842	0.2
330.052	0.26
330.263	0.26
330.473	0.28
330.684	0.2
330.894	0.23
331.105	0.28
331.315	0.25
331.526	0.18
331.736	0.34
331.947	0.3
332.157	0.28
332.367	0.19
332.578	0.27
332.788	0.34
332.999	0.28
333.209	0.24
333.419	0.19
333.629	0.28
333.84	0.27
334.05	0.24
334.26	0.33
334.47	0.25
334.681	0.29
334.891	0.24
335.101	0.31
335.311	0.36
335.521	0.23
335.732	0.21
335.942	0.31
336.152	0.24
336.362	0.25
336.572	0.26
336.782	0.3
336.992	0.22
337.202	0.21
337.412	0.22
337.622	0.31
337.832	0.24
338.042	0.2
338.252	0.19
338.462	0.19
338.672	0.25
338.882	0.26
339.092	0.21
339.302	0.37
339.511	0.32
339.721	0.18
339.931	0.15
340.141	0.31
340.351	0.3
340.561	0.25
340.77	0.26
340.98	0.27
341.19	0.3
341.4	0.25
341.609	0.17
341.819	0.26
342.029	0.21
342.238	0.22
342.448	0.19
342.658	0.28
342.867	0.29
343.077	0.24
343.286	0.21
343.496	0.31
343.706	0.35
343.915	0.18
344.125	0.25
344.334	0.26
344.544	0.15
344.753	0.22
344.963	0.18
345.172	0.18
345.381	0.25
345.591	0.21
345.8	0.26
346.01	0.3
346.219	0.33
346.428	0.1
346.638	0.2
346.847	0.29
347.056	0.31
347.266	0.24
347.475	0.21
347.684	0.26
347.893	0.28
348.103	0.28
348.312	0.21
348.521	0.26
348.73	0.26
348.94	0.23
349.149	0.2
349.358	0.24
349.567	0.21
349.776	0.16
349.985	0.21
350.194	0.3
350.403	0.33
350.612	0.16
350.821	0.18
351.03	0.28
351.239	0.17
351.448	0.22
351.657	0.2
351.866	0.34
352.075	0.25
352.284	0.3
352.493	0.19
352.702	0.32
352.911	0.22
353.12	0.27
353.329	0.25
353.538	0.3
353.746	0.27
353.955	0.25
354.164	0.27
354.373	0.21
354.582	0.33
354.79	0.22
354.999	0.27
355.208	0.2
355.416	0.29
355.625	0.21
355.834	0.23
356.042	0.28
356.251	0.21
356.46	0.19
356.668	0.26
356.877	0.39
357.085	0.32
357.294	0.14
357.503	0.27
357.711	0.24
357.92	0.41
358.128	0.27
358.337	0.21
358.545	0.25
358.754	0.21
358.962	0.3
359.17	0.23
359.379	0.28
359.587	0.25
359.796	0.24
360.004	0.32
360.212	0.34
360.421	0.33
360.629	0.2
360.837	0.24
361.046	0.32
361.254	0.41
361.462	0.27
361.67	0.24
361.879	0.3
362.087	0.35
362.295	0.25
362.503	0.23
362.711	0.17
362.92	0.22
363.128	0.2
363.336	0.21
363.544	0.19
363.752	0.28
363.96	0.28
364.168	0.23
364.376	0.29
364.584	0.26
364.792	0.28
365	0.29
365.208	0.27
365.416	0.28
365.624	0.34
365.832	0.2
366.04	0.34
366.248	0.27
366.456	0.25
366.664	0.21
366.872	0.24
367.079	0.23
367.287	0.22
367.495	0.25
367.703	0.22
367.911	0.23
368.118	0.25
368.326	0.24
368.534	0.21
368.742	0.34
368.949	0.15
369.157	0.19
369.365	0.28
369.572	0.24
369.78	0.2
369.988	0.28
370.195	0.25
370.403	0.3
370.61	0.21
370.818	0.26
371.026	0.38
371.233	0.23
371.441	0.25
371.648	0.24
371.856	0.3
372.063	0.23
372.271	0.23
372.478	0.17
372.685	0.24
372.893	0.32
373.1	0.23
373.308	0.17
373.515	0.38
373.722	0.33
373.93	0.24
374.137	0.25
374.344	0.33
374.552	0.27
374.759	0.26
374.966	0.2
375.173	0.25
375.381	0.31
375.588	0.26
375.795	0.16
376.002	0.27
376.209	0.21
376.417	0.2
376.624	0.31
376.831	0.31
377.038	0.23
377.245	0.14
377.452	0.22
377.659	0.24
377.866	0.22
378.073	0.24
378.28	0.23
378.487	0.36
378.694	0.29
378.901	0.21
379.108	0.22
379.315	0.28
379.522	0.37
379.729	0.26
379.936	0.26
380.143	0.26
380.35	0.27
380.557	0.22
380.763	0.27
380.97	0.3
381.177	0.28
381.384	0.3
381.591	0.28
381.797	0.28
382.004	0.3
382.211	0.29
382.418	0.23
382.624	0.3
382.831	0.34
383.038	0.26
383.244	0.3
383.451	0.27
383.658	0.29
383.864	0.23
384.071	0.22
384.277	0.35
384.484	0.26
384.69	0.36
384.897	0.24
385.103	0.24
385.31	0.2
385.516	0.21
385.723	0.2
385.929	0.31
386.136	0.23
386.342	0.28
386.549	0.28
386.755	0.38
386.961	0.32
387.168	0.23
387.374	0.32
387.58	0.28
387.787	0.28
387.993	0.28
388.199	0.27
388.406	0.22
388.612	0.25
388.818	0.24
389.024	0.22
389.231	0.32
389.437	0.36
389.643	0.32
389.849	0.28
390.055	0.32
390.261	0.27
390.467	0.3
390.674	0.25
390.88	0.3
391.086	0.33
391.292	0.22
391.498	0.35
391.704	0.32
391.91	0.26
392.116	0.27
392.322	0.17
392.528	0.33
392.734	0.29
392.94	0.3
393.146	0.32
393.352	0.27
393.557	0.27
393.763	0.29
393.969	0.34
394.175	0.31
394.381	0.29
394.587	0.28
394.792	0.32
394.998	0.38
395.204	0.35
395.41	0.29
395.615	0.31
395.821	0.34
396.027	0.35
396.233	0.3
396.438	0.36
396.644	0.38
396.85	0.37
397.055	0.28
397.261	0.35
397.466	0.41
397.672	0.32
397.878	0.37
398.083	0.35
398.289	0.34
398.494	0.4
398.7	0.35
398.905	0.24
399.111	0.42
399.316	0.26
399.522	0.36
399.727	0.3
399.932	0.34
400.138	0.34
400.343	0.37
400.549	0.33
400.754	0.37
400.959	0.34
401.165	0.36
401.37	0.4
401.575	0.37
401.78	0.35
401.986	0.35
402.191	0.34
402.396	0.38
402.601	0.39
402.807	0.37
403.012	0.35
403.217	0.42
403.422	0.45
403.627	0.41
403.832	0.41
404.037	0.44
404.243	0.43
404.448	0.38
404.653	0.46
404.858	0.45
405.063	0.45
405.268	0.38
405.473	0.38
405.678	0.4
405.883	0.66
406.088	0.44
406.293	0.42
406.498	0.45
406.703	0.49
406.907	0.46
407.112	0.42
407.317	0.47
407.522	0.56
407.727	0.45
407.932	0.49
408.136	0.66
408.341	0.53
408.546	0.56
408.751	0.53
408.956	0.58
409.16	0.67
409.365	0.56
409.57	0.57
409.774	0.62
409.979	0.63
410.184	0.63
410.388	0.58
410.593	0.78
410.798	0.69
411.002	0.69
411.207	0.77
411.411	0.75
411.616	0.7
411.82	0.79
412.025	0.79
412.229	0.8
412.434	0.92
412.638	0.86
412.843	0.86
413.047	0.95
413.252	0.91
413.456	0.9
413.66	1.02
413.865	0.95
414.069	1.12
414.273	1.02
414.478	1.02
414.682	1.07
414.886	1.11
415.091	1.11
415.295	1.13
415.499	1.32
415.703	1.31
415.908	1.31
416.112	1.19
416.316	1.48
416.52	1.44
416.724	1.41
416.929	1.5
417.133	1.8
417.337	1.57
417.541	1.64
417.745	1.7
417.949	1.91
418.153	1.91
418.357	1.84
418.561	2.11
418.765	2.1
418.969	2.23
419.173	2.3
419.377	2.2
419.581	2.51
419.785	2.49
419.989	2.44
420.193	2.57
420.397	2.71
420.601	2.78
420.804	2.88
421.008	2.86
421.212	3.05
421.416	3
421.62	2.98
421.823	3.04
422.027	3.32
422.231	3.27
422.435	3.23
422.638	3.29
422.842	3.43
423.046	3.38
423.249	3.63
423.453	3.66
423.657	3.77
423.86	3.86
424.064	3.95
424.268	4.2
424.471	4.14
424.675	4.41
424.878	4.46
425.082	4.5
425.285	4.78
425.489	4.69
425.692	4.82
425.896	4.86
426.099	4.99
426.303	5.14
426.506	5.2
426.71	5.45
426.913	5.72
427.116	5.9
427.32	5.8
427.523	5.87
427.726	6.26
427.93	6.41
428.133	6.53
428.336	6.75
428.54	6.87
428.743	7.11
428.946	7.38
429.149	7.35
429.353	7.4
429.556	7.5
429.759	7.43
429.962	7.57
430.165	7.84
430.368	7.54
430.571	7.59
430.775	7.62
430.978	7.62
431.181	7.71
431.384	7.79
431.587	7.89
431.79	8.21
431.993	8.12
432.196	8.45
432.399	8.79
432.602	8.99
432.805	9.05
433.008	9.68
433.211	9.53
433.414	9.84
433.616	9.89
433.819	9.78
434.022	9.95
434.225	10.13
434.428	10.16
434.631	10.61
434.833	10.38
435.036	10.6
435.239	10.8
435.442	10.93
435.645	11.1
435.847	11.09
436.05	11.4
436.253	11.7
436.455	11.64
436.658	11.53
436.861	11.8
437.063	11.93
437.266	11.92
437.468	12.28
437.671	12.53
437.874	12.62
438.076	12.38
438.279	12.97
438.481	12.9
438.684	13.55
438.886	13.29
439.089	13.56
439.291	13.57
439.494	13.94
439.696	14.03
439.899	14.66
440.101	14.9
440.303	15.2
440.506	15.89
440.708	15.63
440.91	15.83
441.113	16.24
441.315	16.28
441.517	16.09
441.72	16.7
441.922	16.25
442.124	16.22
442.326	16.53
442.529	16.81
442.731	16.83
442.933	17.04
443.135	16.83
443.337	17
443.539	17.34
443.742	16.98
443.944	17.77
444.146	17.54
444.348	17.41
444.55	17.32
444.752	17.49
444.954	17.49
445.156	17.57
445.358	18.04
445.56	18.18
445.762	17.99
445.964	18.34
446.166	18.06
446.368	18.11
446.57	18.24
446.772	17.8
446.974	17.56
447.175	17.9
447.377	17.68
447.579	17.91
447.781	17.77
447.983	17.55
448.184	17.14
448.386	17.45
448.588	16.94
448.79	16.94
448.991	17.4
449.193	17.32
449.395	16.83
449.597	16.46
449.798	16.36
450	15.9
450.202	15.93
450.403	15.94
450.605	15.86
450.806	15.43
451.008	15.28
451.21	15.16
451.411	14.65
451.613	14.03
451.814	14.29
452.016	14.32
452.217	13.49
452.419	13.54
452.62	13.12
452.821	12.94
453.023	12.92
453.224	12.5
453.426	12.17
453.627	11.38
453.828	11.52
454.03	11.65
454.231	11.62
454.432	11.47
454.634	11.21
454.835	10.86
455.036	10.85
455.238	10.39
455.439	10.28
455.64	9.94
455.841	9.71
456.042	9.91
456.244	9.55
456.445	9.17
456.646	8.96
456.847	8.94
457.048	8.72
457.249	8.78
457.45	8.64
457.651	7.95
457.852	7.99
458.054	7.5
458.255	7.46
458.456	7.56
458.657	7.49
458.858	6.99
459.058	6.89
459.259	7.1
459.46	6.71
459.661	6.62
459.862	6.69
460.063	6.51
460.264	6.58
460.465	6.25
460.666	6.29
460.866	6.06
461.067	5.68
461.268	5.78
461.469	5.75
461.67	5.58
461.87	5.44
462.071	5.46
462.272	5.43
462.473	5.25
462.673	5.48
462.874	5.29
463.075	5.37
463.275	5.31
463.476	5.33
463.676	5.3
463.877	5.16
464.078	5.1
464.278	5.17
464.479	5.04
464.679	4.96
464.88	4.94
465.08	4.97
465.281	4.72
465.481	4.44
465.682	4.32
465.882	4.32
466.083	4.23
466.283	4.14
466.483	4.09
466.684	3.86
466.884	3.76
467.085	3.85
467.285	3.86
467.485	3.8
467.686	3.74
467.886	3.6
468.086	3.56
468.286	3.54
468.487	3.58
468.687	3.41
468.887	3.33
469.087	3.55
469.287	3.42
469.488	3.21
469.688	3.34
469.888	3.35
470.088	3.27
470.288	3.22
470.488	3.19
470.688	3.03
470.888	3
471.088	2.81
471.288	2.93
471.488	2.91
471.688	2.88
471.888	2.8
472.088	2.93
472.288	2.83
472.488	2.74
472.688	2.72
472.888	2.72
473.088	2.68
473.288	2.56
473.488	2.61
473.688	2.75
473.887	2.59
474.087	2.57
474.287	2.56
474.487	2.45
474.687	2.5
474.886	2.43
475.086	2.42
475.286	2.46
475.486	2.38
475.685	2.36
475.885	2.29
476.085	2.39
476.284	2.37
476.484	2.35
476.684	2.26
476.883	2.38
477.083	2.28
477.282	2.19
477.482	2.24
477.681	2.2
477.881	2.15
478.08	2.15
478.28	2.09
478.479	2.2
478.679	2.19
478.878	2.11
479.078	2.1
479.277	2.15
479.477	2.14
479.676	2.08
479.875	2.06
480.075	2.04
480.274	2.09
480.473	2.11
480.673	2.1
480.872	2.13
481.071	2.1
481.271	2.13
481.47	2.03
481.669	2.07
481.868	2.04
482.067	2.07
482.267	1.93
482.466	2
482.665	2
482.864	2.01
483.063	2
483.262	2.13
483.461	2.1
483.661	2.15
483.86	2.04
484.059	2.13
484.258	2.07
484.457	2.05
484.656	2.08
484.855	2.12
485.054	1.94
485.253	2.04
485.452	2.02
485.651	2.09
485.849	2.06
486.048	2.03
486.247	2.06
486.446	2.14
486.645	2.08
486.844	2.14
487.043	2.13
487.241	2.15
487.44	2.09
487.639	2.16
487.838	2.16
488.037	2.14
488.235	2.23
488.434	2.22
488.633	2.08
488.831	2.23
489.03	2.26
489.229	2.26
489.427	2.24
489.626	2.3
489.825	2.38
490.023	2.31
490.222	2.28
490.42	2.37
490.619	2.39
490.817	2.4
491.016	2.37
491.214	2.45
491.413	2.43
491.611	2.39
491.81	2.4
492.008	2.48
492.207	2.59
492.405	2.51
492.604	2.51
492.802	2.59
493	2.63
493.199	2.61
493.397	2.64
493.595	2.72
493.794	2.68
493.992	2.75
494.19	2.74
494.388	2.78
494.587	2.76
494.785	2.79
494.983	2.74
495.181	2.84
495.379	2.91
495.578	2.95
495.776	2.95
495.974	2.92
496.172	2.96
496.37	3.05
496.568	3.08
496.766	3.08
496.964	3.16
497.162	3.14
497.36	3.24
497.558	3.22
497.756	3.27
497.954	3.24
498.152	3.3
498.35	3.41
498.548	3.33
498.746	3.36
498.944	3.41
499.142	3.41
499.34	3.51
499.538	3.58
499.736	3.46
499.933	3.64
500.131	3.62
500.329	3.77
500.527	3.74
500.725	3.87
500.922	3.82
501.12	3.87
501.318	3.94
501.516	3.94
501.713	3.98
501.911	3.94
502.109	3.91
502.306	4.07
502.504	4
502.701	4.07
502.899	4.13
503.097	4.37
503.294	4.15
