Data from Apollo_Calib_20240827__AbsoluteIrradiance__51__00-00-02-555.txt Node

Date: Wed Aug 28 00:00:02 BST 2024
User: biology
Spectrometer: FLMT08252
Trigger mode: 0
Integration Time (sec): 5.000000E-1
Scans to average: 5
Electric dark correction enabled: true
Nonlinearity correction enabled: false
Boxcar width: 0
XAxis mode: Wavelengths
Number of Pixels in Spectrum: 3648
>>>>>Begin Spectral Data<<<<<
179.588	-0
179.809	-0
180.03	-0
180.251	-0
180.473	-0
180.694	0
180.915	0
181.136	-0
181.357	0
181.578	0
181.799	-0
182.02	-0
182.241	-0
182.462	-0
182.683	0
182.904	-0
183.125	-0
183.346	0
183.567	0
183.788	0
184.009	0
184.23	0
184.451	0
184.672	0
184.892	0
185.113	0
185.334	0
185.555	0
185.776	0
185.996	0
186.217	0
186.438	0
186.659	0
186.879	0
187.1	0
187.321	0
187.541	0
187.762	0
187.983	0
188.203	0
188.424	0
188.644	0
188.865	0
189.086	0
189.306	0
189.527	0
189.747	0
189.968	0
190.188	0
190.409	0
190.629	0
190.849	0
191.07	0
191.29	0
191.511	0
191.731	0
191.951	0
192.172	0
192.392	0
192.612	0
192.833	0
193.053	0
193.273	0
193.493	0
193.714	0
193.934	0
194.154	0
194.374	0
194.594	0
194.815	0
195.035	0
195.255	0
195.475	0
195.695	0
195.915	0
196.135	0
196.355	0
196.575	0
196.795	0
197.015	0
197.235	0
197.455	0
197.675	0
197.895	0
198.115	0
198.335	0
198.555	0
198.775	0
198.995	0
199.214	0
199.434	0
199.654	0
199.874	0
200.094	4.06
200.313	2.27
200.533	2.6
200.753	2.11
200.973	3.82
201.192	4.09
201.412	1.67
201.632	2.04
201.851	3.15
202.071	1.7
202.291	1.92
202.51	1.71
202.73	2.9
202.95	1.98
203.169	1.79
203.389	1.93
203.608	2.23
203.828	1.69
204.047	1.46
204.267	2.16
204.486	1.44
204.706	2.12
204.925	1.92
205.145	1.34
205.364	2.04
205.583	2.48
205.803	1.55
206.022	1.07
206.242	1.78
206.461	1.52
206.68	1.18
206.9	1.75
207.119	2.5
207.338	2.25
207.557	1.39
207.777	1.35
207.996	1.38
208.215	2.23
208.434	1.01
208.654	1.22
208.873	1.68
209.092	2.27
209.311	1.19
209.53	1.32
209.749	1.15
209.968	1.19
210.187	1.17
210.407	0.88
210.626	1.01
210.845	1.58
211.064	1.09
211.283	1.22
211.502	1.54
211.721	1.37
211.94	1.16
212.159	1.43
212.377	1.33
212.596	1.62
212.815	1.09
213.034	1.16
213.253	1.48
213.472	1.28
213.691	1.04
213.91	0.82
214.128	0.83
214.347	1.46
214.566	0.72
214.785	0.76
215.003	1.16
215.222	1.24
215.441	1.14
215.66	0.55
215.878	1.1
216.097	1.35
216.316	0.66
216.534	0.79
216.753	1.09
216.972	0.85
217.19	0.82
217.409	0.8
217.627	0.91
217.846	0.72
218.064	1.12
218.283	0.58
218.501	1.47
218.72	1.11
218.938	0.47
219.157	0.84
219.375	0.95
219.594	1.22
219.812	0.62
220.031	0.63
220.249	1.22
220.467	1.1
220.686	0.76
220.904	0.7
221.122	0.57
221.341	1.19
221.559	0.87
221.777	0.61
221.995	0.65
222.214	1.03
222.432	0.7
222.65	0.89
222.868	0.75
223.086	0.83
223.305	0.85
223.523	0.62
223.741	1.12
223.959	0.64
224.177	0.47
224.395	0.74
224.613	0.77
224.831	0.89
225.049	0.58
225.267	0.62
225.485	0.83
225.703	0.63
225.921	0.66
226.139	0.61
226.357	0.86
226.575	0.81
226.793	0.64
227.011	1.43
227.229	0.69
227.447	0.92
227.665	0.6
227.883	0.49
228.1	0.62
228.318	0.75
228.536	0.3
228.754	0.39
228.972	0.74
229.189	0.84
229.407	0.57
229.625	0.63
229.843	0.77
230.06	0.81
230.278	0.55
230.496	0.67
230.713	0.62
230.931	0.73
231.149	0.54
231.366	0.43
231.584	0.53
231.801	1.03
232.019	0.53
232.236	0.44
232.454	0.46
232.671	0.63
232.889	0.46
233.106	0.41
233.324	0.62
233.541	0.65
233.759	0.61
233.976	0.44
234.194	0.58
234.411	0.59
234.628	0.51
234.846	0.48
235.063	0.51
235.28	0.54
235.498	0.52
235.715	0.44
235.932	0.71
236.149	0.56
236.367	0.48
236.584	0.54
236.801	0.47
237.018	0.66
237.236	0.54
237.453	0.36
237.67	0.68
237.887	0.49
238.104	0.43
238.321	0.41
238.538	0.44
238.755	0.63
238.973	0.34
239.19	0.5
239.407	0.56
239.624	0.59
239.841	0.4
240.058	0.42
240.275	0.59
240.492	0.51
240.709	0.47
240.925	0.31
241.142	0.51
241.359	0.41
241.576	0.37
241.793	0.49
242.01	0.55
242.227	0.56
242.444	0.52
242.66	0.73
242.877	0.54
243.094	0.4
243.311	0.52
243.527	0.49
243.744	0.51
243.961	0.6
244.178	0.34
244.394	0.35
244.611	0.61
244.828	0.68
245.044	0.32
245.261	0.45
245.477	0.52
245.694	0.53
245.911	0.37
246.127	0.43
246.344	0.68
246.56	0.53
246.777	0.47
246.993	0.52
247.21	0.45
247.426	0.43
247.643	0.46
247.859	0.4
248.076	0.42
248.292	0.66
248.508	0.35
248.725	0.51
248.941	0.51
249.157	0.55
249.374	0.38
249.59	0.46
249.806	0.48
250.023	0.45
250.239	0.38
250.455	0.35
250.671	0.44
250.888	0.5
251.104	0.52
251.32	0.41
251.536	0.44
251.752	0.43
251.969	0.41
252.185	0.46
252.401	0.49
252.617	0.54
252.833	0.34
253.049	0.44
253.265	0.44
253.481	0.43
253.697	0.38
253.913	0.35
254.129	0.42
254.345	0.36
254.561	0.35
254.777	0.38
254.993	0.48
255.209	0.47
255.425	0.27
255.641	0.33
255.857	0.49
256.073	0.42
256.288	0.32
256.504	0.36
256.72	0.43
256.936	0.54
257.152	0.46
257.367	0.39
257.583	0.41
257.799	0.43
258.015	0.42
258.23	0.38
258.446	0.46
258.662	0.46
258.877	0.32
259.093	0.33
259.309	0.38
259.524	0.45
259.74	0.36
259.955	0.33
260.171	0.39
260.387	0.4
260.602	0.44
260.818	0.45
261.033	0.25
261.249	0.36
261.464	0.37
261.68	0.28
261.895	0.47
262.11	0.41
262.326	0.31
262.541	0.25
262.757	0.55
262.972	0.34
263.187	0.44
263.403	0.43
263.618	0.46
263.833	0.36
264.049	0.28
264.264	0.32
264.479	0.38
264.694	0.49
264.91	0.3
265.125	0.39
265.34	0.41
265.555	0.54
265.77	0.36
265.986	0.36
266.201	0.46
266.416	0.54
266.631	0.26
266.846	0.32
267.061	0.42
267.276	0.38
267.491	0.24
267.706	0.38
267.921	0.4
268.136	0.36
268.351	0.36
268.566	0.24
268.781	0.51
268.996	0.44
269.211	0.31
269.426	0.36
269.641	0.31
269.856	0.38
270.071	0.3
270.285	0.25
270.5	0.43
270.715	0.42
270.93	0.34
271.145	0.37
271.359	0.37
271.574	0.3
271.789	0.34
272.004	0.35
272.218	0.3
272.433	0.36
272.648	0.24
272.862	0.41
273.077	0.38
273.292	0.44
273.506	0.28
273.721	0.27
273.936	0.31
274.15	0.41
274.365	0.36
274.579	0.34
274.794	0.41
275.008	0.42
275.223	0.2
275.437	0.38
275.652	0.54
275.866	0.42
276.081	0.34
276.295	0.36
276.509	0.32
276.724	0.37
276.938	0.36
277.153	0.39
277.367	0.41
277.581	0.31
277.796	0.34
278.01	0.24
278.224	0.37
278.438	0.48
278.653	0.27
278.867	0.28
279.081	0.43
279.295	0.25
279.51	0.36
279.724	0.22
279.938	0.38
280.152	0.37
280.366	0.31
280.58	0.31
280.794	0.41
281.008	0.39
281.222	0.4
281.437	0.45
281.651	0.37
281.865	0.41
282.079	0.28
282.293	0.22
282.507	0.22
282.721	0.35
282.935	0.31
283.148	0.19
283.362	0.27
283.576	0.25
283.79	0.29
284.004	0.29
284.218	0.37
284.432	0.23
284.646	0.3
284.859	0.3
285.073	0.25
285.287	0.27
285.501	0.32
285.714	0.31
285.928	0.28
286.142	0.35
286.356	0.28
286.569	0.3
286.783	0.39
286.997	0.41
287.21	0.29
287.424	0.33
287.637	0.31
287.851	0.25
288.065	0.39
288.278	0.26
288.492	0.3
288.705	0.26
288.919	0.33
289.132	0.19
289.346	0.36
289.559	0.21
289.773	0.2
289.986	0.28
290.2	0.29
290.413	0.31
290.626	0.3
290.84	0.3
291.053	0.31
291.267	0.4
291.48	0.27
291.693	0.29
291.906	0.28
292.12	0.28
292.333	0.27
292.546	0.24
292.76	0.35
292.973	0.29
293.186	0.31
293.399	0.23
293.612	0.36
293.826	0.27
294.039	0.31
294.252	0.22
294.465	0.29
294.678	0.33
294.891	0.31
295.104	0.2
295.317	0.28
295.53	0.3
295.743	0.27
295.956	0.27
296.169	0.4
296.382	0.3
296.595	0.27
296.808	0.24
297.021	0.33
297.234	0.33
297.447	0.27
297.66	0.27
297.873	0.38
298.086	0.29
298.299	0.25
298.511	0.17
298.724	0.3
298.937	0.17
299.15	0.22
299.363	0.27
299.575	0.34
299.788	0.25
300.001	0.26
300.213	0.24
300.426	0.23
300.639	0.2
300.852	0.21
301.064	0.34
301.277	0.34
301.489	0.35
301.702	0.28
301.915	0.24
302.127	0.24
302.34	0.3
302.552	0.28
302.765	0.27
302.977	0.33
303.19	0.26
303.402	0.24
303.615	0.3
303.827	0.22
304.04	0.21
304.252	0.3
304.464	0.21
304.677	0.36
304.889	0.27
305.102	0.24
305.314	0.2
305.526	0.24
305.739	0.24
305.951	0.24
306.163	0.22
306.375	0.35
306.588	0.25
306.8	0.24
307.012	0.19
307.224	0.29
307.436	0.32
307.649	0.16
307.861	0.26
308.073	0.29
308.285	0.31
308.497	0.2
308.709	0.2
308.921	0.3
309.133	0.32
309.346	0.24
309.558	0.25
309.77	0.34
309.982	0.33
310.194	0.28
310.406	0.23
310.617	0.34
310.829	0.3
311.041	0.25
311.253	0.22
311.465	0.27
311.677	0.27
311.889	0.25
312.101	0.25
312.313	0.3
312.524	0.32
312.736	0.22
312.948	0.25
313.16	0.31
313.372	0.32
313.583	0.29
313.795	0.25
314.007	0.19
314.218	0.3
314.43	0.23
314.642	0.25
314.853	0.19
315.065	0.32
315.277	0.28
315.488	0.31
315.7	0.32
315.912	0.31
316.123	0.22
316.335	0.27
316.546	0.31
316.758	0.27
316.969	0.24
317.181	0.22
317.392	0.24
317.604	0.33
317.815	0.19
318.026	0.22
318.238	0.24
318.449	0.28
318.661	0.19
318.872	0.21
319.083	0.23
319.295	0.3
319.506	0.23
319.717	0.26
319.929	0.26
320.14	0.24
320.351	0.28
320.562	0.2
320.774	0.24
320.985	0.26
321.196	0.24
321.407	0.17
321.618	0.33
321.829	0.33
322.041	0.27
322.252	0.24
322.463	0.33
322.674	0.32
322.885	0.22
323.096	0.24
323.307	0.22
323.518	0.27
323.729	0.25
323.94	0.27
324.151	0.22
324.362	0.29
324.573	0.24
324.784	0.24
324.995	0.32
325.206	0.28
325.417	0.2
325.628	0.23
325.838	0.29
326.049	0.26
326.26	0.33
326.471	0.22
326.682	0.29
326.892	0.29
327.103	0.22
327.314	0.21
327.525	0.33
327.735	0.27
327.946	0.26
328.157	0.25
328.368	0.35
328.578	0.22
328.789	0.3
328.999	0.31
329.21	0.27
329.421	0.31
329.631	0.24
329.842	0.2
330.052	0.26
330.263	0.31
330.473	0.32
330.684	0.22
330.894	0.24
331.105	0.28
331.315	0.27
331.526	0.23
331.736	0.34
331.947	0.27
332.157	0.3
332.367	0.22
332.578	0.27
332.788	0.33
332.999	0.29
333.209	0.23
333.419	0.2
333.629	0.25
333.84	0.28
334.05	0.27
334.26	0.32
334.47	0.28
334.681	0.28
334.891	0.25
335.101	0.34
335.311	0.34
335.521	0.23
335.732	0.23
335.942	0.33
336.152	0.3
336.362	0.28
336.572	0.25
336.782	0.3
336.992	0.24
337.202	0.24
337.412	0.23
337.622	0.28
337.832	0.24
338.042	0.27
338.252	0.22
338.462	0.25
338.672	0.27
338.882	0.28
339.092	0.24
339.302	0.35
339.511	0.3
339.721	0.24
339.931	0.2
340.141	0.34
340.351	0.35
340.561	0.26
340.77	0.29
340.98	0.27
341.19	0.29
341.4	0.24
341.609	0.18
341.819	0.24
342.029	0.19
342.238	0.28
342.448	0.21
342.658	0.28
342.867	0.26
343.077	0.25
343.286	0.28
343.496	0.31
343.706	0.3
343.915	0.21
344.125	0.23
344.334	0.27
344.544	0.19
344.753	0.25
344.963	0.23
345.172	0.21
345.381	0.19
345.591	0.24
345.8	0.27
346.01	0.31
346.219	0.29
346.428	0.11
346.638	0.29
346.847	0.28
347.056	0.35
347.266	0.24
347.475	0.26
347.684	0.28
347.893	0.28
348.103	0.29
348.312	0.2
348.521	0.27
348.73	0.23
348.94	0.24
349.149	0.24
349.358	0.2
349.567	0.23
349.776	0.23
349.985	0.25
350.194	0.33
350.403	0.31
350.612	0.15
350.821	0.22
351.03	0.26
351.239	0.19
351.448	0.26
351.657	0.18
351.866	0.32
352.075	0.22
352.284	0.3
352.493	0.22
352.702	0.33
352.911	0.27
353.12	0.28
353.329	0.27
353.538	0.25
353.746	0.24
353.955	0.23
354.164	0.24
354.373	0.27
354.582	0.29
354.79	0.27
354.999	0.32
355.208	0.25
355.416	0.3
355.625	0.2
355.834	0.23
356.042	0.27
356.251	0.25
356.46	0.26
356.668	0.29
356.877	0.33
357.085	0.27
357.294	0.16
357.503	0.28
357.711	0.27
357.92	0.38
358.128	0.29
358.337	0.21
358.545	0.3
358.754	0.22
358.962	0.3
359.17	0.24
359.379	0.27
359.587	0.25
359.796	0.27
360.004	0.28
360.212	0.32
360.421	0.26
360.629	0.26
360.837	0.3
361.046	0.33
361.254	0.39
361.462	0.24
361.67	0.21
361.879	0.26
362.087	0.31
362.295	0.22
362.503	0.22
362.711	0.21
362.92	0.28
363.128	0.25
363.336	0.21
363.544	0.19
363.752	0.28
363.96	0.23
364.168	0.24
364.376	0.23
364.584	0.24
364.792	0.27
365	0.26
365.208	0.25
365.416	0.31
365.624	0.29
365.832	0.22
366.04	0.28
366.248	0.25
366.456	0.24
366.664	0.25
366.872	0.24
367.079	0.24
367.287	0.25
367.495	0.28
367.703	0.26
367.911	0.26
368.118	0.26
368.326	0.26
368.534	0.19
368.742	0.29
368.949	0.21
369.157	0.24
369.365	0.27
369.572	0.23
369.78	0.24
369.988	0.28
370.195	0.29
370.403	0.27
370.61	0.25
370.818	0.26
371.026	0.3
371.233	0.22
371.441	0.24
371.648	0.26
371.856	0.28
372.063	0.26
372.271	0.23
372.478	0.23
372.685	0.26
372.893	0.29
373.1	0.26
373.308	0.22
373.515	0.34
373.722	0.3
373.93	0.22
374.137	0.31
374.344	0.35
374.552	0.24
374.759	0.33
374.966	0.24
375.173	0.23
375.381	0.34
375.588	0.26
375.795	0.22
376.002	0.24
376.209	0.21
376.417	0.27
376.624	0.28
376.831	0.3
377.038	0.25
377.245	0.18
377.452	0.26
377.659	0.26
377.866	0.25
378.073	0.25
378.28	0.28
378.487	0.29
378.694	0.3
378.901	0.28
379.108	0.26
379.315	0.29
379.522	0.37
379.729	0.31
379.936	0.23
380.143	0.28
380.35	0.28
380.557	0.29
380.763	0.33
380.97	0.28
381.177	0.28
381.384	0.29
381.591	0.26
381.797	0.28
382.004	0.32
382.211	0.31
382.418	0.3
382.624	0.28
382.831	0.29
383.038	0.29
383.244	0.31
383.451	0.26
383.658	0.31
383.864	0.27
384.071	0.25
384.277	0.4
384.484	0.24
384.69	0.32
384.897	0.23
385.103	0.28
385.31	0.24
385.516	0.28
385.723	0.26
385.929	0.31
386.136	0.27
386.342	0.32
386.549	0.28
386.755	0.32
386.961	0.34
387.168	0.27
387.374	0.28
387.58	0.34
387.787	0.28
387.993	0.32
388.199	0.26
388.406	0.29
388.612	0.26
388.818	0.21
389.024	0.29
389.231	0.32
389.437	0.37
389.643	0.34
389.849	0.31
390.055	0.27
390.261	0.31
390.467	0.34
390.674	0.25
390.88	0.29
391.086	0.3
391.292	0.23
391.498	0.36
391.704	0.34
391.91	0.32
392.116	0.27
392.322	0.24
392.528	0.36
392.734	0.28
392.94	0.33
393.146	0.28
393.352	0.3
393.557	0.28
393.763	0.26
393.969	0.31
394.175	0.32
394.381	0.32
394.587	0.26
394.792	0.31
394.998	0.37
395.204	0.37
395.41	0.28
395.615	0.32
395.821	0.35
396.027	0.34
396.233	0.31
396.438	0.33
396.644	0.46
396.85	0.34
397.055	0.36
397.261	0.34
397.466	0.43
397.672	0.33
397.878	0.36
398.083	0.4
398.289	0.29
398.494	0.43
398.7	0.34
398.905	0.28
399.111	0.42
399.316	0.3
399.522	0.33
399.727	0.33
399.932	0.33
400.138	0.35
400.343	0.37
400.549	0.38
400.754	0.37
400.959	0.38
401.165	0.37
401.37	0.35
401.575	0.5
401.78	0.38
401.986	0.36
402.191	0.34
402.396	0.37
402.601	0.36
402.807	0.42
403.012	0.35
403.217	0.41
403.422	0.41
403.627	0.43
403.832	0.42
404.037	0.48
404.243	0.41
404.448	0.41
404.653	0.4
404.858	0.45
405.063	0.48
405.268	0.39
405.473	0.42
405.678	0.42
405.883	0.61
406.088	0.5
406.293	0.45
406.498	0.42
406.703	0.5
406.907	0.54
407.112	0.44
407.317	0.52
407.522	0.55
407.727	0.5
407.932	0.51
408.136	0.63
408.341	0.58
408.546	0.56
408.751	0.59
408.956	0.59
409.16	0.7
409.365	0.61
409.57	0.67
409.774	0.62
409.979	0.67
410.184	0.73
410.388	0.7
410.593	0.82
410.798	0.7
411.002	0.76
411.207	0.78
411.411	0.82
411.616	0.76
411.82	0.82
412.025	0.87
412.229	0.8
412.434	0.96
412.638	0.89
412.843	0.98
413.047	0.94
413.252	0.98
413.456	0.99
413.66	1.12
413.865	1.07
414.069	1.18
414.273	1.09
414.478	1.18
414.682	1.23
414.886	1.2
415.091	1.2
415.295	1.28
415.499	1.39
415.703	1.42
415.908	1.48
416.112	1.43
416.316	1.57
416.52	1.62
416.724	1.57
416.929	1.63
417.133	1.83
417.337	1.8
417.541	1.85
417.745	1.82
417.949	2
418.153	2.03
418.357	2.07
418.561	2.31
418.765	2.22
418.969	2.41
419.173	2.49
419.377	2.4
419.581	2.67
419.785	2.67
419.989	2.69
420.193	2.86
420.397	2.88
420.601	3.05
420.804	3.17
421.008	3.04
421.212	3.28
421.416	3.25
421.62	3.31
421.823	3.4
422.027	3.55
422.231	3.58
422.435	3.55
422.638	3.59
422.842	3.7
423.046	3.84
423.249	4.05
423.453	3.98
423.657	4.16
423.86	4.21
424.064	4.44
424.268	4.46
424.471	4.57
424.675	4.74
424.878	4.81
425.082	4.97
425.285	5.23
425.489	5.14
425.692	5.27
425.896	5.26
426.099	5.57
426.303	5.69
426.506	5.86
426.71	6.11
426.913	6.21
427.116	6.41
427.32	6.41
427.523	6.54
427.726	6.84
427.93	6.89
428.133	7.22
428.336	7.45
428.54	7.55
428.743	7.77
428.946	7.96
429.149	7.91
429.353	8.07
429.556	8.05
429.759	8.1
429.962	8.3
430.165	8.31
430.368	8.07
430.571	8.11
430.775	8.17
430.978	8.12
431.181	8.22
431.384	8.26
431.587	8.38
431.79	8.82
431.993	8.66
432.196	8.99
432.399	9.4
432.602	9.47
432.805	9.68
433.008	10.28
433.211	10.09
433.414	10.36
433.616	10.36
433.819	10.43
434.022	10.52
434.225	10.68
434.428	10.69
434.631	11.23
434.833	10.9
435.036	11.16
435.239	11.35
435.442	11.48
435.645	11.59
435.847	11.7
436.05	11.98
436.253	12.22
436.455	12.3
436.658	12.07
436.861	12.46
437.063	12.56
437.266	12.67
437.468	12.81
437.671	13.18
437.874	13.34
438.076	13.05
438.279	13.62
438.481	13.52
438.684	14.23
438.886	13.93
439.089	14.29
439.291	14.21
439.494	14.6
439.696	14.75
439.899	15.32
440.101	15.84
440.303	15.94
440.506	16.7
440.708	16.41
440.91	16.5
441.113	16.93
441.315	17.14
441.517	16.81
441.72	17.38
441.922	17.03
442.124	17.01
442.326	17.39
442.529	17.43
442.731	17.42
442.933	17.87
443.135	17.53
443.337	17.58
443.539	18.23
443.742	17.86
443.944	18.51
444.146	18.35
444.348	18.25
444.55	18.15
444.752	18.2
444.954	18.33
445.156	18.27
445.358	18.62
445.56	18.68
445.762	18.6
445.964	18.98
446.166	18.63
446.368	18.72
446.57	18.65
446.772	18.26
446.974	18.08
447.175	18.42
447.377	17.95
447.579	18.47
447.781	17.95
447.983	17.92
448.184	17.47
448.386	17.79
448.588	17.3
448.79	17.25
448.991	17.52
449.193	17.63
449.395	16.81
449.597	16.53
449.798	16.47
450	16.09
450.202	15.86
450.403	15.92
450.605	15.79
450.806	15.46
451.008	15.32
451.21	15.06
451.411	14.61
451.613	13.78
451.814	14.13
452.016	14.02
452.217	13.31
452.419	13.4
452.62	13.01
452.821	12.71
453.023	12.51
453.224	12.33
453.426	11.76
453.627	11.16
453.828	11.21
454.03	11.39
454.231	11.37
454.432	11.19
454.634	10.88
454.835	10.63
455.036	10.46
455.238	10.03
455.439	9.72
455.64	9.53
455.841	9.39
456.042	9.35
456.244	9.25
456.445	8.83
456.646	8.68
456.847	8.64
457.048	8.27
457.249	8.46
457.45	8.2
457.651	7.68
457.852	7.5
458.054	7.27
458.255	7.14
458.456	7.25
458.657	7.08
458.858	6.78
459.058	6.73
459.259	6.73
459.46	6.41
459.661	6.4
459.862	6.36
460.063	6.39
460.264	6.15
460.465	6.02
460.666	6.08
460.866	5.74
461.067	5.49
461.268	5.54
461.469	5.45
461.67	5.41
461.87	5.27
462.071	5.24
462.272	5.12
462.473	5.09
462.673	5.19
462.874	5.14
463.075	5.04
463.275	5.09
463.476	5.18
463.676	5.04
463.877	4.89
464.078	4.92
464.278	5.05
464.479	4.79
464.679	4.7
464.88	4.67
465.08	4.69
465.281	4.45
465.481	4.23
465.682	4.05
465.882	4.21
466.083	4.12
466.283	4.04
466.483	3.85
466.684	3.71
466.884	3.62
467.085	3.69
467.285	3.74
467.485	3.59
467.686	3.49
467.886	3.47
468.086	3.34
468.286	3.34
468.487	3.38
468.687	3.27
468.887	3.21
469.087	3.36
469.287	3.26
469.488	3.03
469.688	3.2
469.888	3.22
470.088	3.1
470.288	3.07
470.488	2.96
470.688	2.79
470.888	2.82
471.088	2.72
471.288	2.79
471.488	2.77
471.688	2.68
471.888	2.66
472.088	2.79
472.288	2.69
472.488	2.62
472.688	2.55
472.888	2.55
473.088	2.54
473.288	2.47
473.488	2.44
473.688	2.59
473.887	2.46
474.087	2.43
474.287	2.43
474.487	2.36
474.687	2.43
474.886	2.37
475.086	2.33
475.286	2.28
475.486	2.27
475.685	2.22
475.885	2.19
476.085	2.28
476.284	2.23
476.484	2.25
476.684	2.24
476.883	2.26
477.083	2.18
477.282	2.1
477.482	2.23
477.681	2.12
477.881	2.05
478.08	2.06
478.28	2.01
478.479	2.13
478.679	2.08
478.878	2.02
479.078	2.05
479.277	2.11
479.477	2.04
479.676	2.05
479.875	1.99
480.075	1.97
480.274	2.01
480.473	2.06
480.673	2.02
480.872	2.06
481.071	2.03
481.271	2.01
481.47	2.01
481.669	2.03
481.868	1.93
482.067	2.01
482.267	1.91
482.466	1.91
482.665	1.91
482.864	1.93
483.063	1.95
483.262	1.97
483.461	2.03
483.661	2.02
483.86	1.97
484.059	2.04
484.258	2.07
484.457	1.97
484.656	1.99
484.855	2.06
485.054	1.92
485.253	1.96
485.452	1.95
485.651	2.03
485.849	2
486.048	2.01
486.247	2.03
486.446	2.05
486.645	2.02
486.844	2.07
487.043	2.02
487.241	2.07
487.44	2.06
487.639	2.11
487.838	2.08
488.037	2.11
488.235	2.22
488.434	2.18
488.633	2.06
488.831	2.22
489.03	2.2
489.229	2.21
489.427	2.21
489.626	2.27
489.825	2.28
490.023	2.24
490.222	2.27
490.42	2.28
490.619	2.36
490.817	2.35
491.016	2.34
491.214	2.43
491.413	2.38
491.611	2.36
491.81	2.36
492.008	2.4
492.207	2.53
492.405	2.52
492.604	2.46
492.802	2.49
493	2.59
493.199	2.59
493.397	2.63
493.595	2.67
493.794	2.68
493.992	2.76
494.19	2.78
494.388	2.84
494.587	2.74
494.785	2.77
494.983	2.73
495.181	2.84
495.379	2.88
495.578	2.97
495.776	2.97
495.974	2.9
496.172	2.99
496.37	3.09
496.568	3.08
496.766	3.06
496.964	3.22
497.162	3.18
497.36	3.21
497.558	3.22
497.756	3.32
497.954	3.31
498.152	3.32
498.35	3.46
498.548	3.37
498.746	3.39
498.944	3.38
499.142	3.42
499.34	3.51
499.538	3.62
499.736	3.47
499.933	3.6
500.131	3.62
500.329	3.79
500.527	3.77
500.725	3.82
500.922	3.87
501.12	3.88
501.318	3.94
501.516	3.93
501.713	4.03
501.911	4.02
502.109	3.94
