Data from Apollo_Calib_20240827__AbsoluteIrradiance__806__12-35-00-524.txt Node

Date: Wed Aug 28 12:35:00 BST 2024
User: biology
Spectrometer: FLMT08252
Trigger mode: 0
Integration Time (sec): 5.000000E-1
Scans to average: 5
Electric dark correction enabled: true
Nonlinearity correction enabled: false
Boxcar width: 0
XAxis mode: Wavelengths
Number of Pixels in Spectrum: 3648
>>>>>Begin Spectral Data<<<<<
179.588	-0
179.809	-0
180.03	-0
180.251	-0
180.473	-0
180.694	0
180.915	0
181.136	-0
181.357	0
181.578	-0
181.799	0
182.02	-0
182.241	-0
182.462	-0
182.683	0
182.904	-0
183.125	-0
183.346	0
183.567	0
183.788	0
184.009	0
184.23	0
184.451	0
184.672	0
184.892	0
185.113	0
185.334	0
185.555	0
185.776	0
185.996	0
186.217	0
186.438	0
186.659	0
186.879	0
187.1	0
187.321	0
187.541	0
187.762	0
187.983	0
188.203	0
188.424	0
188.644	0
188.865	0
189.086	0
189.306	0
189.527	0
189.747	0
189.968	0
190.188	0
190.409	0
190.629	0
190.849	0
191.07	0
191.29	0
191.511	0
191.731	0
191.951	0
192.172	0
192.392	0
192.612	0
192.833	0
193.053	0
193.273	0
193.493	0
193.714	0
193.934	0
194.154	0
194.374	0
194.594	0
194.815	0
195.035	0
195.255	0
195.475	0
195.695	0
195.915	0
196.135	0
196.355	0
196.575	0
196.795	0
197.015	0
197.235	0
197.455	0
197.675	0
197.895	0
198.115	0
198.335	0
198.555	0
198.775	0
198.995	0
199.214	0
199.434	0
199.654	0
199.874	0
200.094	3.7
200.313	2.78
200.533	2.17
200.753	1.31
200.973	3.93
201.192	3.22
201.412	1.38
201.632	2.26
201.851	3.7
202.071	1.8
202.291	1.88
202.51	1.1
202.73	2.6
202.95	1.78
203.169	1.98
203.389	1.8
203.608	2.28
203.828	1.49
204.047	1.75
204.267	2.23
204.486	1.85
204.706	2.89
204.925	1.86
205.145	1.64
205.364	2.27
205.583	2.57
205.803	1.41
206.022	1.07
206.242	1.75
206.461	1.41
206.68	0.92
206.9	1.78
207.119	2.25
207.338	2.14
207.557	1.08
207.777	1.19
207.996	1.32
208.215	2.12
208.434	1.08
208.654	0.86
208.873	1.64
209.092	2.01
209.311	1.38
209.53	1.28
209.749	1.18
209.968	1.07
210.187	0.79
210.407	0.91
210.626	1.24
210.845	1.37
211.064	1.12
211.283	0.74
211.502	1.63
211.721	1.3
211.94	0.97
212.159	1.27
212.377	1.71
212.596	1.62
212.815	1.05
213.034	1.11
213.253	1.47
213.472	1.22
213.691	1.06
213.91	0.53
214.128	0.95
214.347	1.53
214.566	0.6
214.785	0.66
215.003	1.31
215.222	1.16
215.441	1.03
215.66	0.68
215.878	1.11
216.097	1.22
216.316	0.78
216.534	0.92
216.753	1.08
216.972	0.73
217.19	0.74
217.409	0.44
217.627	0.76
217.846	0.79
218.064	0.96
218.283	0.75
218.501	1.38
218.72	1.33
218.938	0.45
219.157	0.53
219.375	1.28
219.594	0.94
219.812	0.53
220.031	0.59
220.249	1.36
220.467	1.06
220.686	0.75
220.904	0.48
221.122	0.77
221.341	1.22
221.559	0.69
221.777	0.47
221.995	0.87
222.214	0.91
222.432	0.6
222.65	0.91
222.868	0.69
223.086	0.98
223.305	0.92
223.523	0.77
223.741	1.2
223.959	0.8
224.177	0.27
224.395	0.5
224.613	0.9
224.831	0.89
225.049	0.38
225.267	0.57
225.485	0.82
225.703	0.66
225.921	0.7
226.139	0.45
226.357	0.89
226.575	0.85
226.793	0.49
227.011	1.54
227.229	0.8
227.447	0.88
227.665	0.6
227.883	0.32
228.1	0.66
228.318	0.69
228.536	0.22
228.754	0.46
228.972	0.67
229.189	0.89
229.407	0.57
229.625	0.5
229.843	0.8
230.06	0.79
230.278	0.59
230.496	0.57
230.713	0.79
230.931	0.92
231.149	0.43
231.366	0.37
231.584	0.65
231.801	1.07
232.019	0.46
232.236	0.47
232.454	0.57
232.671	0.64
232.889	0.46
233.106	0.45
233.324	0.63
233.541	0.56
233.759	0.6
233.976	0.4
234.194	0.56
234.411	0.55
234.628	0.54
234.846	0.46
235.063	0.58
235.28	0.62
235.498	0.55
235.715	0.39
235.932	0.8
236.149	0.56
236.367	0.38
236.584	0.57
236.801	0.51
237.018	0.75
237.236	0.52
237.453	0.39
237.67	0.69
237.887	0.56
238.104	0.52
238.321	0.24
238.538	0.36
238.755	0.67
238.973	0.25
239.19	0.61
239.407	0.54
239.624	0.52
239.841	0.35
240.058	0.34
240.275	0.45
240.492	0.53
240.709	0.48
240.925	0.43
241.142	0.54
241.359	0.42
241.576	0.32
241.793	0.44
242.01	0.47
242.227	0.66
242.444	0.57
242.66	0.68
242.877	0.54
243.094	0.41
243.311	0.48
243.527	0.38
243.744	0.49
243.961	0.58
244.178	0.36
244.394	0.41
244.611	0.55
244.828	0.68
245.044	0.29
245.261	0.32
245.477	0.55
245.694	0.63
245.911	0.42
246.127	0.48
246.344	0.58
246.56	0.53
246.777	0.36
246.993	0.38
247.21	0.55
247.426	0.51
247.643	0.37
247.859	0.32
248.076	0.34
248.292	0.73
248.508	0.35
248.725	0.45
248.941	0.51
249.157	0.61
249.374	0.33
249.59	0.37
249.806	0.39
250.023	0.44
250.239	0.27
250.455	0.25
250.671	0.42
250.888	0.51
251.104	0.47
251.32	0.38
251.536	0.36
251.752	0.41
251.969	0.36
252.185	0.43
252.401	0.6
252.617	0.56
252.833	0.38
253.049	0.37
253.265	0.46
253.481	0.45
253.697	0.3
253.913	0.35
254.129	0.48
254.345	0.5
254.561	0.3
254.777	0.36
254.993	0.48
255.209	0.43
255.425	0.34
255.641	0.35
255.857	0.45
256.073	0.5
256.288	0.25
256.504	0.35
256.72	0.48
256.936	0.61
257.152	0.31
257.367	0.32
257.583	0.42
257.799	0.52
258.015	0.29
258.23	0.35
258.446	0.57
258.662	0.36
258.877	0.3
259.093	0.27
259.309	0.33
259.524	0.5
259.74	0.32
259.955	0.2
260.171	0.4
260.387	0.46
260.602	0.44
260.818	0.36
261.033	0.26
261.249	0.36
261.464	0.28
261.68	0.22
261.895	0.41
262.11	0.45
262.326	0.36
262.541	0.3
262.757	0.47
262.972	0.4
263.187	0.39
263.403	0.42
263.618	0.44
263.833	0.39
264.049	0.26
264.264	0.31
264.479	0.37
264.694	0.56
264.91	0.26
265.125	0.35
265.34	0.5
265.555	0.61
265.77	0.43
265.986	0.29
266.201	0.33
266.416	0.47
266.631	0.33
266.846	0.34
267.061	0.45
267.276	0.46
267.491	0.2
267.706	0.32
267.921	0.44
268.136	0.43
268.351	0.32
268.566	0.18
268.781	0.47
268.996	0.48
269.211	0.31
269.426	0.31
269.641	0.37
269.856	0.48
270.071	0.23
270.285	0.22
270.5	0.43
270.715	0.44
270.93	0.35
271.145	0.32
271.359	0.48
271.574	0.3
271.789	0.36
272.004	0.24
272.218	0.31
272.433	0.37
272.648	0.2
272.862	0.39
273.077	0.35
273.292	0.29
273.506	0.32
273.721	0.31
273.936	0.43
274.15	0.42
274.365	0.29
274.579	0.34
274.794	0.44
275.008	0.42
275.223	0.21
275.437	0.3
275.652	0.38
275.866	0.4
276.081	0.36
276.295	0.34
276.509	0.32
276.724	0.3
276.938	0.31
277.153	0.33
277.367	0.38
277.581	0.29
277.796	0.25
278.01	0.18
278.224	0.43
278.438	0.49
278.653	0.3
278.867	0.28
279.081	0.21
279.295	0.33
279.51	0.34
279.724	0.18
279.938	0.42
280.152	0.35
280.366	0.28
280.58	0.3
280.794	0.49
281.008	0.34
281.222	0.42
281.437	0.54
281.651	0.36
281.865	0.43
282.079	0.28
282.293	0.22
282.507	0.29
282.721	0.32
282.935	0.28
283.148	0.2
283.362	0.28
283.576	0.26
283.79	0.31
284.004	0.23
284.218	0.47
284.432	0.28
284.646	0.29
284.859	0.27
285.073	0.29
285.287	0.36
285.501	0.34
285.714	0.29
285.928	0.34
286.142	0.29
286.356	0.2
286.569	0.26
286.783	0.44
286.997	0.36
287.21	0.27
287.424	0.26
287.637	0.28
287.851	0.3
288.065	0.35
288.278	0.32
288.492	0.31
288.705	0.26
288.919	0.35
289.132	0.18
289.346	0.34
289.559	0.22
289.773	0.23
289.986	0.25
290.2	0.33
290.413	0.39
290.626	0.23
290.84	0.26
291.053	0.33
291.267	0.4
291.48	0.25
291.693	0.28
291.906	0.25
292.12	0.26
292.333	0.25
292.546	0.26
292.76	0.37
292.973	0.34
293.186	0.32
293.399	0.21
293.612	0.33
293.826	0.31
294.039	0.26
294.252	0.24
294.465	0.32
294.678	0.3
294.891	0.24
295.104	0.26
295.317	0.28
295.53	0.27
295.743	0.26
295.956	0.26
296.169	0.39
296.382	0.33
296.595	0.26
296.808	0.24
297.021	0.37
297.234	0.32
297.447	0.3
297.66	0.3
297.873	0.34
298.086	0.32
298.299	0.24
298.511	0.2
298.724	0.29
298.937	0.21
299.15	0.2
299.363	0.19
299.575	0.3
299.788	0.3
300.001	0.25
300.213	0.22
300.426	0.22
300.639	0.25
300.852	0.23
301.064	0.3
301.277	0.35
301.489	0.34
301.702	0.27
301.915	0.28
302.127	0.26
302.34	0.3
302.552	0.28
302.765	0.2
302.977	0.29
303.19	0.26
303.402	0.26
303.615	0.24
303.827	0.27
304.04	0.27
304.252	0.26
304.464	0.28
304.677	0.42
304.889	0.26
305.102	0.24
305.314	0.22
305.526	0.32
305.739	0.29
305.951	0.19
306.163	0.23
306.375	0.35
306.588	0.26
306.8	0.23
307.012	0.22
307.224	0.27
307.436	0.4
307.649	0.21
307.861	0.29
308.073	0.28
308.285	0.24
308.497	0.22
308.709	0.26
308.921	0.22
309.133	0.33
309.346	0.23
309.558	0.24
309.77	0.33
309.982	0.36
310.194	0.28
310.406	0.24
310.617	0.4
310.829	0.25
311.041	0.29
311.253	0.18
311.465	0.28
311.677	0.27
311.889	0.25
312.101	0.2
312.313	0.33
312.524	0.31
312.736	0.19
312.948	0.23
313.16	0.33
313.372	0.28
313.583	0.28
313.795	0.2
314.007	0.21
314.218	0.31
314.43	0.29
314.642	0.21
314.853	0.21
315.065	0.33
315.277	0.24
315.488	0.26
315.7	0.34
315.912	0.27
316.123	0.25
316.335	0.22
316.546	0.38
316.758	0.28
316.969	0.23
317.181	0.27
317.392	0.31
317.604	0.37
317.815	0.2
318.026	0.22
318.238	0.22
318.449	0.28
318.661	0.2
318.872	0.18
319.083	0.24
319.295	0.32
319.506	0.24
319.717	0.27
319.929	0.27
320.14	0.31
320.351	0.27
320.562	0.18
320.774	0.29
320.985	0.3
321.196	0.2
321.407	0.18
321.618	0.31
321.829	0.29
322.041	0.3
322.252	0.25
322.463	0.28
322.674	0.35
322.885	0.19
323.096	0.27
323.307	0.26
323.518	0.31
323.729	0.25
323.94	0.19
324.151	0.24
324.362	0.31
324.573	0.3
324.784	0.25
324.995	0.31
325.206	0.3
325.417	0.24
325.628	0.22
325.838	0.29
326.049	0.25
326.26	0.31
326.471	0.23
326.682	0.31
326.892	0.26
327.103	0.17
327.314	0.23
327.525	0.35
327.735	0.29
327.946	0.25
328.157	0.2
328.368	0.25
328.578	0.3
328.789	0.28
328.999	0.28
329.21	0.24
329.421	0.35
329.631	0.21
329.842	0.19
330.052	0.3
330.263	0.32
330.473	0.34
330.684	0.21
330.894	0.23
331.105	0.32
331.315	0.22
331.526	0.18
331.736	0.38
331.947	0.31
332.157	0.27
332.367	0.19
332.578	0.32
332.788	0.36
332.999	0.31
333.209	0.25
333.419	0.19
333.629	0.28
333.84	0.31
334.05	0.24
334.26	0.28
334.47	0.24
334.681	0.32
334.891	0.24
335.101	0.33
335.311	0.4
335.521	0.24
335.732	0.19
335.942	0.35
336.152	0.29
336.362	0.24
336.572	0.28
336.782	0.32
336.992	0.25
337.202	0.27
337.412	0.24
337.622	0.31
337.832	0.24
338.042	0.25
338.252	0.19
338.462	0.25
338.672	0.29
338.882	0.2
339.092	0.25
339.302	0.35
339.511	0.32
339.721	0.2
339.931	0.21
340.141	0.31
340.351	0.33
340.561	0.29
340.77	0.28
340.98	0.3
341.19	0.31
341.4	0.23
341.609	0.22
341.819	0.23
342.029	0.21
342.238	0.33
342.448	0.23
342.658	0.33
342.867	0.27
343.077	0.23
343.286	0.24
343.496	0.33
343.706	0.31
343.915	0.24
344.125	0.29
344.334	0.25
344.544	0.24
344.753	0.22
344.963	0.19
345.172	0.21
345.381	0.21
345.591	0.24
345.8	0.24
346.01	0.35
346.219	0.31
346.428	0.1
346.638	0.26
346.847	0.27
347.056	0.31
347.266	0.23
347.475	0.25
347.684	0.29
347.893	0.26
348.103	0.27
348.312	0.25
348.521	0.28
348.73	0.24
348.94	0.28
349.149	0.24
349.358	0.23
349.567	0.22
349.776	0.16
349.985	0.23
350.194	0.34
350.403	0.31
350.612	0.17
350.821	0.22
351.03	0.31
351.239	0.2
351.448	0.24
351.657	0.26
351.866	0.36
352.075	0.27
352.284	0.29
352.493	0.17
352.702	0.34
352.911	0.27
353.12	0.25
353.329	0.23
353.538	0.31
353.746	0.26
353.955	0.16
354.164	0.25
354.373	0.23
354.582	0.32
354.79	0.27
354.999	0.28
355.208	0.25
355.416	0.35
355.625	0.22
355.834	0.27
356.042	0.28
356.251	0.24
356.46	0.19
356.668	0.28
356.877	0.37
357.085	0.32
357.294	0.15
357.503	0.29
357.711	0.25
357.92	0.43
358.128	0.28
358.337	0.22
358.545	0.28
358.754	0.22
358.962	0.29
359.17	0.25
359.379	0.29
359.587	0.31
359.796	0.24
360.004	0.31
360.212	0.26
360.421	0.35
360.629	0.2
360.837	0.21
361.046	0.34
361.254	0.39
361.462	0.25
361.67	0.23
361.879	0.29
362.087	0.4
362.295	0.23
362.503	0.22
362.711	0.21
362.92	0.22
363.128	0.22
363.336	0.19
363.544	0.2
363.752	0.28
363.96	0.22
364.168	0.23
364.376	0.26
364.584	0.26
364.792	0.34
365	0.28
365.208	0.27
365.416	0.27
365.624	0.28
365.832	0.2
366.04	0.33
366.248	0.27
366.456	0.25
366.664	0.25
366.872	0.22
367.079	0.25
367.287	0.26
367.495	0.28
367.703	0.26
367.911	0.26
368.118	0.28
368.326	0.24
368.534	0.21
368.742	0.31
368.949	0.19
369.157	0.21
369.365	0.28
369.572	0.25
369.78	0.23
369.988	0.32
370.195	0.3
370.403	0.28
370.61	0.21
370.818	0.27
371.026	0.39
371.233	0.2
371.441	0.26
371.648	0.28
371.856	0.3
372.063	0.3
372.271	0.24
372.478	0.23
372.685	0.25
372.893	0.32
373.1	0.24
373.308	0.21
373.515	0.39
373.722	0.34
373.93	0.25
374.137	0.29
374.344	0.38
374.552	0.31
374.759	0.3
374.966	0.28
375.173	0.25
375.381	0.32
375.588	0.31
375.795	0.21
376.002	0.23
376.209	0.25
376.417	0.21
376.624	0.26
376.831	0.28
377.038	0.26
377.245	0.16
377.452	0.26
377.659	0.28
377.866	0.18
378.073	0.24
378.28	0.23
378.487	0.32
378.694	0.33
378.901	0.26
379.108	0.22
379.315	0.28
379.522	0.4
379.729	0.25
379.936	0.24
380.143	0.3
380.35	0.3
380.557	0.27
380.763	0.27
380.97	0.28
381.177	0.33
381.384	0.28
381.591	0.24
381.797	0.27
382.004	0.36
382.211	0.31
382.418	0.23
382.624	0.31
382.831	0.31
383.038	0.29
383.244	0.25
383.451	0.29
383.658	0.31
383.864	0.28
384.071	0.24
384.277	0.36
384.484	0.25
384.69	0.35
384.897	0.24
385.103	0.25
385.31	0.3
385.516	0.25
385.723	0.21
385.929	0.27
386.136	0.28
386.342	0.32
386.549	0.23
386.755	0.38
386.961	0.32
387.168	0.24
387.374	0.29
387.58	0.29
387.787	0.26
387.993	0.33
388.199	0.31
388.406	0.26
388.612	0.27
388.818	0.28
389.024	0.23
389.231	0.28
389.437	0.36
389.643	0.35
389.849	0.26
390.055	0.29
390.261	0.27
390.467	0.29
390.674	0.29
390.88	0.29
391.086	0.32
391.292	0.27
391.498	0.34
391.704	0.31
391.91	0.3
392.116	0.25
392.322	0.2
392.528	0.37
392.734	0.31
392.94	0.32
393.146	0.28
393.352	0.37
393.557	0.29
393.763	0.32
393.969	0.4
394.175	0.33
394.381	0.31
394.587	0.25
394.792	0.33
394.998	0.36
395.204	0.39
395.41	0.3
395.615	0.28
395.821	0.35
396.027	0.35
396.233	0.3
396.438	0.34
396.644	0.39
396.85	0.35
397.055	0.3
397.261	0.32
397.466	0.35
397.672	0.36
397.878	0.39
398.083	0.39
398.289	0.32
398.494	0.43
398.7	0.37
398.905	0.28
399.111	0.41
399.316	0.31
399.522	0.35
399.727	0.33
399.932	0.34
400.138	0.4
400.343	0.4
400.549	0.32
400.754	0.34
400.959	0.41
401.165	0.37
401.37	0.39
401.575	0.47
401.78	0.38
401.986	0.35
402.191	0.33
402.396	0.36
402.601	0.42
402.807	0.38
403.012	0.41
403.217	0.49
403.422	0.4
403.627	0.44
403.832	0.38
404.037	0.47
404.243	0.46
404.448	0.39
404.653	0.39
404.858	0.42
405.063	0.51
405.268	0.43
405.473	0.4
405.678	0.44
405.883	0.64
406.088	0.5
406.293	0.42
406.498	0.45
406.703	0.49
406.907	0.49
407.112	0.46
407.317	0.52
407.522	0.57
407.727	0.54
407.932	0.55
408.136	0.71
408.341	0.5
408.546	0.58
408.751	0.58
408.956	0.62
409.16	0.67
409.365	0.62
409.57	0.63
409.774	0.64
409.979	0.69
410.184	0.71
410.388	0.62
410.593	0.79
410.798	0.78
411.002	0.73
411.207	0.82
411.411	0.8
411.616	0.72
411.82	0.84
412.025	0.85
412.229	0.8
412.434	1.01
412.638	0.94
412.843	0.98
413.047	1
413.252	0.92
413.456	1.02
413.66	1.08
413.865	1.11
414.069	1.21
414.273	1.1
414.478	1.16
414.682	1.17
414.886	1.24
415.091	1.22
415.295	1.24
415.499	1.41
415.703	1.38
415.908	1.46
416.112	1.43
416.316	1.55
416.52	1.62
416.724	1.58
416.929	1.64
417.133	1.87
417.337	1.74
417.541	1.84
417.745	1.87
417.949	2.01
418.153	2.05
418.357	2.03
418.561	2.35
418.765	2.23
418.969	2.42
419.173	2.48
419.377	2.46
419.581	2.65
419.785	2.65
419.989	2.72
420.193	2.81
420.397	3.02
420.601	3.18
420.804	3.18
421.008	3.18
421.212	3.29
421.416	3.31
421.62	3.35
421.823	3.46
422.027	3.63
422.231	3.57
422.435	3.51
422.638	3.58
422.842	3.72
423.046	3.76
423.249	4.06
423.453	4.14
423.657	4.14
423.86	4.33
424.064	4.37
424.268	4.55
424.471	4.58
424.675	4.84
424.878	4.83
425.082	4.91
425.285	5.18
425.489	5.17
425.692	5.35
425.896	5.33
426.099	5.57
426.303	5.68
426.506	5.79
426.71	6.11
426.913	6.21
427.116	6.5
427.32	6.35
427.523	6.51
427.726	6.72
427.93	6.94
428.133	7.2
428.336	7.41
428.54	7.49
428.743	7.76
428.946	7.98
429.149	8.02
429.353	7.98
429.556	8.11
429.759	8.22
429.962	8.28
430.165	8.49
430.368	8.2
430.571	8.05
430.775	8.23
430.978	8.15
431.181	8.17
431.384	8.28
431.587	8.33
431.79	8.85
431.993	8.86
432.196	9.1
432.399	9.32
432.602	9.59
432.805	9.56
433.008	10.09
433.211	10.02
433.414	10.33
433.616	10.47
433.819	10.47
434.022	10.52
434.225	10.71
434.428	10.72
434.631	11.11
434.833	11.01
435.036	11.15
435.239	11.37
435.442	11.34
435.645	11.55
435.847	11.61
436.05	12
436.253	12.16
436.455	12.25
436.658	12.26
436.861	12.52
437.063	12.57
437.266	12.5
437.468	12.89
437.671	13.25
437.874	13.27
438.076	13.02
438.279	13.56
438.481	13.39
438.684	14.28
438.886	13.97
439.089	14.32
439.291	14.29
439.494	14.73
439.696	14.86
439.899	15.42
440.101	15.9
440.303	15.98
440.506	16.72
440.708	16.44
440.91	16.57
441.113	16.8
441.315	16.95
441.517	16.71
441.72	17.31
441.922	16.94
442.124	16.91
442.326	17.32
442.529	17.51
442.731	17.43
442.933	17.91
443.135	17.63
443.337	17.69
443.539	18.01
443.742	17.79
443.944	18.43
444.146	18.15
444.348	18.18
444.55	18.09
444.752	18.14
444.954	18.17
445.156	18.03
445.358	18.51
445.56	18.65
445.762	18.59
445.964	18.9
446.166	18.75
446.368	18.77
446.57	18.62
446.772	18.29
446.974	17.96
447.175	18.43
447.377	18.1
447.579	18.45
447.781	17.98
447.983	17.89
448.184	17.43
448.386	17.72
448.588	17.2
448.79	17.27
448.991	17.44
449.193	17.43
449.395	16.81
449.597	16.41
449.798	16.42
450	15.86
450.202	15.8
450.403	15.84
450.605	15.82
450.806	15.32
451.008	15.31
451.21	14.87
451.411	14.54
451.613	13.82
451.814	13.93
452.016	14.03
452.217	13.14
452.419	13.22
452.62	12.9
452.821	12.74
453.023	12.44
453.224	12.14
453.426	11.82
453.627	11.13
453.828	11.16
454.03	11.17
454.231	11.18
454.432	11.04
454.634	10.73
454.835	10.45
455.036	10.36
455.238	9.93
455.439	9.7
455.64	9.43
455.841	9.32
456.042	9.42
456.244	9.02
456.445	8.8
456.646	8.45
456.847	8.39
457.048	8.46
457.249	8.42
457.45	8.1
457.651	7.63
457.852	7.54
458.054	7.22
458.255	7.16
458.456	7.24
458.657	7.06
458.858	6.73
459.058	6.65
459.259	6.73
459.46	6.36
459.661	6.34
459.862	6.47
460.063	6.34
460.264	6.14
460.465	5.93
460.666	6.08
460.866	5.76
461.067	5.5
461.268	5.53
461.469	5.46
461.67	5.38
461.87	5.24
462.071	5.22
462.272	5.01
462.473	5.09
462.673	5.29
462.874	5.14
463.075	5.13
463.275	5.06
463.476	5.15
463.676	5.02
463.877	4.93
464.078	4.9
464.278	4.88
464.479	4.83
464.679	4.71
464.88	4.68
465.08	4.65
465.281	4.43
465.481	4.27
465.682	4.17
465.882	4.11
466.083	4.14
466.283	4.04
466.483	3.86
466.684	3.67
466.884	3.69
467.085	3.63
467.285	3.69
467.485	3.6
467.686	3.52
467.886	3.38
468.086	3.3
468.286	3.35
468.487	3.45
468.687	3.24
468.887	3.2
469.087	3.3
469.287	3.15
469.488	3.06
469.688	3.18
469.888	3.12
470.088	3.11
470.288	2.99
470.488	3.02
470.688	2.78
470.888	2.79
471.088	2.64
471.288	2.83
471.488	2.76
471.688	2.77
471.888	2.6
472.088	2.77
472.288	2.69
472.488	2.6
472.688	2.52
472.888	2.58
473.088	2.58
473.288	2.49
473.488	2.49
473.688	2.62
473.887	2.51
474.087	2.44
474.287	2.44
474.487	2.38
474.687	2.41
474.886	2.37
475.086	2.26
475.286	2.29
475.486	2.36
475.685	2.24
475.885	2.24
476.085	2.3
476.284	2.26
476.484	2.27
476.684	2.21
476.883	2.29
477.083	2.17
477.282	2.15
477.482	2.2
477.681	2.17
477.881	2.04
478.08	2.08
478.28	2.06
478.479	2.09
478.679	2.16
478.878	2.07
479.078	2.03
479.277	2.09
479.477	2.05
479.676	1.99
479.875	2.02
480.075	1.95
480.274	2
480.473	2.06
480.673	2.02
480.872	2.11
481.071	2.06
481.271	2.03
481.47	1.94
481.669	2
481.868	1.96
482.067	1.99
482.267	1.93
482.466	1.95
482.665	1.95
482.864	1.92
483.063	1.95
483.262	2.05
483.461	2.03
483.661	2.09
483.86	2.01
484.059	2.03
484.258	2.04
484.457	2.02
484.656	2.01
484.855	2.06
485.054	1.92
485.253	2.01
485.452	1.96
485.651	2.07
485.849	2.03
486.048	1.98
486.247	1.99
486.446	2.1
486.645	2
486.844	2.03
487.043	2.06
487.241	2.1
487.44	2.08
487.639	2.14
487.838	2.13
488.037	2.09
488.235	2.25
488.434	2.19
488.633	2.05
488.831	2.24
489.03	2.26
489.229	2.24
489.427	2.23
489.626	2.3
489.825	2.27
490.023	2.31
490.222	2.29
490.42	2.32
490.619	2.39
490.817	2.35
491.016	2.36
491.214	2.42
491.413	2.43
491.611	2.42
491.81	2.38
492.008	2.44
492.207	2.54
492.405	2.55
492.604	2.45
492.802	2.54
493	2.61
493.199	2.62
493.397	2.68
493.595	2.68
493.794	2.68
493.992	2.79
494.19	2.79
494.388	2.8
494.587	2.76
494.785	2.79
494.983	2.76
495.181	2.87
495.379	2.9
495.578	2.94
495.776	2.94
495.974	2.98
496.172	2.99
496.37	3.1
496.568	3.13
496.766	3.12
496.964	3.15
497.162	3.18
497.36	3.21
497.558	3.27
497.756	3.3
497.954	3.28
498.152	3.33
498.35	3.44
498.548	3.35
498.746	3.42
498.944	3.41
499.142	3.45
499.34	3.55
499.538	3.63
499.736	3.52
499.933	3.64
500.131	3.62
500.329	3.77
500.527	3.76
500.725	3.83
500.922	3.89
501.12	3.89
501.318	3.94
501.516	4
501.713	4.01
501.911	3.98
502.109	3.94
502.306	4.08
502.504	4.06
502.701	4.13
