Data from Apollo_Calib_20240827__AbsoluteIrradiance__782__12-11-00-579.txt Node

Date: Wed Aug 28 12:11:00 BST 2024
User: biology
Spectrometer: FLMT08252
Trigger mode: 0
Integration Time (sec): 5.000000E-1
Scans to average: 5
Electric dark correction enabled: true
Nonlinearity correction enabled: false
Boxcar width: 0
XAxis mode: Wavelengths
Number of Pixels in Spectrum: 3648
>>>>>Begin Spectral Data<<<<<
179.588	-0
179.809	-0
180.03	-0
180.251	-0
180.473	-0
180.694	0
180.915	0
181.136	-0
181.357	0
181.578	-0
181.799	0
182.02	-0
182.241	-0
182.462	-0
182.683	0
182.904	-0
183.125	-0
183.346	0
183.567	0
183.788	0
184.009	0
184.23	0
184.451	0
184.672	0
184.892	0
185.113	0
185.334	0
185.555	0
185.776	0
185.996	0
186.217	0
186.438	0
186.659	0
186.879	0
187.1	0
187.321	0
187.541	0
187.762	0
187.983	0
188.203	0
188.424	0
188.644	0
188.865	0
189.086	0
189.306	0
189.527	0
189.747	0
189.968	0
190.188	0
190.409	0
190.629	0
190.849	0
191.07	0
191.29	0
191.511	0
191.731	0
191.951	0
192.172	0
192.392	0
192.612	0
192.833	0
193.053	0
193.273	0
193.493	0
193.714	0
193.934	0
194.154	0
194.374	0
194.594	0
194.815	0
195.035	0
195.255	0
195.475	0
195.695	0
195.915	0
196.135	0
196.355	0
196.575	0
196.795	0
197.015	0
197.235	0
197.455	0
197.675	0
197.895	0
198.115	0
198.335	0
198.555	0
198.775	0
198.995	0
199.214	0
199.434	0
199.654	0
199.874	0
200.094	3.78
200.313	1.97
200.533	1.87
200.753	1.81
200.973	3.84
201.192	3.26
201.412	1.3
201.632	2.16
201.851	3.31
202.071	1.92
202.291	1.35
202.51	1.47
202.73	2.94
202.95	1.96
203.169	1.23
203.389	1.87
203.608	2.45
203.828	1.66
204.047	1.81
204.267	2.25
204.486	2.23
204.706	2.45
204.925	1.68
205.145	1.53
205.364	2.52
205.583	2.58
205.803	1.3
206.022	1.14
206.242	1.86
206.461	1.29
206.68	1.4
206.9	1.7
207.119	2.51
207.338	1.87
207.557	1.59
207.777	1.35
207.996	1.24
208.215	1.84
208.434	1.22
208.654	0.79
208.873	1.69
209.092	2.12
209.311	1.14
209.53	1.27
209.749	0.99
209.968	1.09
210.187	1.18
210.407	0.63
210.626	1.17
210.845	1.62
211.064	1.15
211.283	0.86
211.502	1.61
211.721	1.2
211.94	0.95
212.159	1.13
212.377	1.4
212.596	1.58
212.815	1.38
213.034	0.93
213.253	1.45
213.472	1.58
213.691	1.01
213.91	0.77
214.128	1.01
214.347	1.27
214.566	0.6
214.785	0.53
215.003	1.24
215.222	1.17
215.441	1.08
215.66	0.57
215.878	1.18
216.097	1.21
216.316	0.59
216.534	0.87
216.753	1.14
216.972	0.81
217.19	0.82
217.409	0.71
217.627	0.88
217.846	0.81
218.064	1.03
218.283	0.59
218.501	1.37
218.72	1.42
218.938	0.64
219.157	0.72
219.375	1.14
219.594	1.1
219.812	0.72
220.031	0.53
220.249	1.24
220.467	1.18
220.686	0.62
220.904	0.58
221.122	0.78
221.341	1.13
221.559	0.7
221.777	0.45
221.995	0.92
222.214	0.82
222.432	0.62
222.65	0.88
222.868	0.79
223.086	0.92
223.305	1
223.523	0.64
223.741	1.16
223.959	0.6
224.177	0.41
224.395	0.51
224.613	0.82
224.831	1.01
225.049	0.4
225.267	0.73
225.485	0.72
225.703	0.6
225.921	0.66
226.139	0.52
226.357	0.87
226.575	0.85
226.793	0.61
227.011	1.62
227.229	0.72
227.447	0.96
227.665	0.52
227.883	0.33
228.1	0.53
228.318	0.86
228.536	0.36
228.754	0.39
228.972	0.8
229.189	0.93
229.407	0.46
229.625	0.56
229.843	0.87
230.06	0.86
230.278	0.62
230.496	0.67
230.713	0.68
230.931	0.74
231.149	0.34
231.366	0.29
231.584	0.58
231.801	1.04
232.019	0.37
232.236	0.44
232.454	0.54
232.671	0.71
232.889	0.47
233.106	0.35
233.324	0.7
233.541	0.62
233.759	0.58
233.976	0.39
234.194	0.55
234.411	0.55
234.628	0.4
234.846	0.55
235.063	0.53
235.28	0.54
235.498	0.45
235.715	0.37
235.932	0.74
236.149	0.64
236.367	0.34
236.584	0.59
236.801	0.5
237.018	0.81
237.236	0.45
237.453	0.32
237.67	0.7
237.887	0.42
238.104	0.49
238.321	0.38
238.538	0.47
238.755	0.84
238.973	0.32
239.19	0.58
239.407	0.64
239.624	0.52
239.841	0.46
240.058	0.4
240.275	0.55
240.492	0.52
240.709	0.49
240.925	0.43
241.142	0.5
241.359	0.43
241.576	0.3
241.793	0.31
242.01	0.44
242.227	0.56
242.444	0.6
242.66	0.63
242.877	0.42
243.094	0.45
243.311	0.5
243.527	0.42
243.744	0.58
243.961	0.5
244.178	0.26
244.394	0.55
244.611	0.57
244.828	0.73
245.044	0.42
245.261	0.38
245.477	0.5
245.694	0.56
245.911	0.4
246.127	0.47
246.344	0.72
246.56	0.47
246.777	0.4
246.993	0.47
247.21	0.54
247.426	0.32
247.643	0.36
247.859	0.34
248.076	0.39
248.292	0.7
248.508	0.35
248.725	0.46
248.941	0.41
249.157	0.6
249.374	0.42
249.59	0.42
249.806	0.51
250.023	0.67
250.239	0.37
250.455	0.29
250.671	0.41
250.888	0.57
251.104	0.44
251.32	0.3
251.536	0.42
251.752	0.36
251.969	0.48
252.185	0.34
252.401	0.64
252.617	0.48
252.833	0.34
253.049	0.31
253.265	0.45
253.481	0.51
253.697	0.32
253.913	0.4
254.129	0.53
254.345	0.41
254.561	0.4
254.777	0.32
254.993	0.52
255.209	0.35
255.425	0.38
255.641	0.37
255.857	0.52
256.073	0.49
256.288	0.28
256.504	0.3
256.72	0.45
256.936	0.56
257.152	0.33
257.367	0.31
257.583	0.36
257.799	0.51
258.015	0.36
258.23	0.3
258.446	0.61
258.662	0.32
258.877	0.3
259.093	0.27
259.309	0.37
259.524	0.49
259.74	0.33
259.955	0.29
260.171	0.41
260.387	0.38
260.602	0.41
260.818	0.4
261.033	0.22
261.249	0.3
261.464	0.31
261.68	0.29
261.895	0.46
262.11	0.53
262.326	0.36
262.541	0.23
262.757	0.49
262.972	0.53
263.187	0.39
263.403	0.44
263.618	0.48
263.833	0.4
264.049	0.25
264.264	0.31
264.479	0.35
264.694	0.58
264.91	0.25
265.125	0.36
265.34	0.46
265.555	0.61
265.77	0.41
265.986	0.31
266.201	0.4
266.416	0.53
266.631	0.32
266.846	0.29
267.061	0.41
267.276	0.4
267.491	0.19
267.706	0.42
267.921	0.39
268.136	0.39
268.351	0.44
268.566	0.23
268.781	0.45
268.996	0.44
269.211	0.35
269.426	0.21
269.641	0.34
269.856	0.47
270.071	0.25
270.285	0.28
270.5	0.41
270.715	0.48
270.93	0.35
271.145	0.32
271.359	0.49
271.574	0.3
271.789	0.35
272.004	0.28
272.218	0.3
272.433	0.42
272.648	0.25
272.862	0.43
273.077	0.35
273.292	0.36
273.506	0.27
273.721	0.31
273.936	0.37
274.15	0.43
274.365	0.31
274.579	0.36
274.794	0.41
275.008	0.44
275.223	0.21
275.437	0.4
275.652	0.43
275.866	0.35
276.081	0.3
276.295	0.35
276.509	0.42
276.724	0.36
276.938	0.35
277.153	0.33
277.367	0.42
277.581	0.27
277.796	0.24
278.01	0.23
278.224	0.44
278.438	0.44
278.653	0.3
278.867	0.24
279.081	0.2
279.295	0.27
279.51	0.31
279.724	0.22
279.938	0.41
280.152	0.4
280.366	0.3
280.58	0.4
280.794	0.43
281.008	0.44
281.222	0.42
281.437	0.48
281.651	0.41
281.865	0.46
282.079	0.35
282.293	0.19
282.507	0.28
282.721	0.35
282.935	0.3
283.148	0.23
283.362	0.29
283.576	0.26
283.79	0.23
284.004	0.22
284.218	0.45
284.432	0.31
284.646	0.31
284.859	0.32
285.073	0.3
285.287	0.28
285.501	0.3
285.714	0.23
285.928	0.34
286.142	0.33
286.356	0.28
286.569	0.26
286.783	0.43
286.997	0.41
287.21	0.3
287.424	0.27
287.637	0.25
287.851	0.25
288.065	0.36
288.278	0.29
288.492	0.3
288.705	0.31
288.919	0.31
289.132	0.21
289.346	0.38
289.559	0.23
289.773	0.22
289.986	0.3
290.2	0.27
290.413	0.36
290.626	0.26
290.84	0.26
291.053	0.29
291.267	0.42
291.48	0.29
291.693	0.31
291.906	0.23
292.12	0.34
292.333	0.23
292.546	0.27
292.76	0.42
292.973	0.29
293.186	0.31
293.399	0.21
293.612	0.36
293.826	0.27
294.039	0.27
294.252	0.28
294.465	0.34
294.678	0.3
294.891	0.26
295.104	0.24
295.317	0.18
295.53	0.27
295.743	0.3
295.956	0.26
296.169	0.41
296.382	0.36
296.595	0.25
296.808	0.22
297.021	0.37
297.234	0.38
297.447	0.27
297.66	0.32
297.873	0.37
298.086	0.32
298.299	0.2
298.511	0.19
298.724	0.26
298.937	0.24
299.15	0.22
299.363	0.27
299.575	0.31
299.788	0.26
300.001	0.21
300.213	0.25
300.426	0.23
300.639	0.23
300.852	0.24
301.064	0.31
301.277	0.38
301.489	0.34
301.702	0.3
301.915	0.23
302.127	0.3
302.34	0.27
302.552	0.27
302.765	0.22
302.977	0.33
303.19	0.18
303.402	0.23
303.615	0.25
303.827	0.25
304.04	0.26
304.252	0.32
304.464	0.22
304.677	0.41
304.889	0.26
305.102	0.22
305.314	0.23
305.526	0.33
305.739	0.31
305.951	0.2
306.163	0.27
306.375	0.37
306.588	0.26
306.8	0.23
307.012	0.19
307.224	0.3
307.436	0.32
307.649	0.14
307.861	0.26
308.073	0.31
308.285	0.23
308.497	0.18
308.709	0.18
308.921	0.29
309.133	0.36
309.346	0.24
309.558	0.24
309.77	0.29
309.982	0.34
310.194	0.28
310.406	0.23
310.617	0.36
310.829	0.32
311.041	0.28
311.253	0.2
311.465	0.29
311.677	0.28
311.889	0.25
312.101	0.25
312.313	0.3
312.524	0.34
312.736	0.19
312.948	0.22
313.16	0.39
313.372	0.31
313.583	0.3
313.795	0.24
314.007	0.22
314.218	0.39
314.43	0.24
314.642	0.19
314.853	0.19
315.065	0.35
315.277	0.22
315.488	0.3
315.7	0.32
315.912	0.33
316.123	0.26
316.335	0.21
316.546	0.37
316.758	0.23
316.969	0.25
317.181	0.21
317.392	0.29
317.604	0.32
317.815	0.26
318.026	0.2
318.238	0.24
318.449	0.29
318.661	0.2
318.872	0.21
319.083	0.28
319.295	0.3
319.506	0.25
319.717	0.25
319.929	0.29
320.14	0.29
320.351	0.27
320.562	0.23
320.774	0.33
320.985	0.24
321.196	0.19
321.407	0.19
321.618	0.28
321.829	0.29
322.041	0.3
322.252	0.28
322.463	0.29
322.674	0.28
322.885	0.2
323.096	0.26
323.307	0.27
323.518	0.28
323.729	0.22
323.94	0.24
324.151	0.25
324.362	0.28
324.573	0.26
324.784	0.24
324.995	0.3
325.206	0.33
325.417	0.26
325.628	0.24
325.838	0.23
326.049	0.31
326.26	0.28
326.471	0.22
326.682	0.31
326.892	0.28
327.103	0.21
327.314	0.21
327.525	0.37
327.735	0.21
327.946	0.26
328.157	0.21
328.368	0.35
328.578	0.27
328.789	0.32
328.999	0.33
329.21	0.28
329.421	0.36
329.631	0.27
329.842	0.16
330.052	0.25
330.263	0.32
330.473	0.28
330.684	0.27
330.894	0.3
331.105	0.28
331.315	0.28
331.526	0.2
331.736	0.33
331.947	0.31
332.157	0.24
332.367	0.18
332.578	0.31
332.788	0.33
332.999	0.3
333.209	0.26
333.419	0.22
333.629	0.31
333.84	0.27
334.05	0.23
334.26	0.32
334.47	0.31
334.681	0.3
334.891	0.24
335.101	0.31
335.311	0.36
335.521	0.25
335.732	0.24
335.942	0.34
336.152	0.26
336.362	0.31
336.572	0.25
336.782	0.32
336.992	0.2
337.202	0.23
337.412	0.23
337.622	0.27
337.832	0.26
338.042	0.27
338.252	0.23
338.462	0.22
338.672	0.25
338.882	0.24
339.092	0.19
339.302	0.35
339.511	0.33
339.721	0.22
339.931	0.2
340.141	0.31
340.351	0.34
340.561	0.29
340.77	0.3
340.98	0.29
341.19	0.31
341.4	0.23
341.609	0.19
341.819	0.26
342.029	0.23
342.238	0.27
342.448	0.24
342.658	0.31
342.867	0.23
343.077	0.28
343.286	0.25
343.496	0.26
343.706	0.36
343.915	0.21
344.125	0.23
344.334	0.26
344.544	0.23
344.753	0.24
344.963	0.19
345.172	0.22
345.381	0.25
345.591	0.22
345.8	0.27
346.01	0.36
346.219	0.29
346.428	0.16
346.638	0.23
346.847	0.28
347.056	0.32
347.266	0.24
347.475	0.25
347.684	0.34
347.893	0.3
348.103	0.27
348.312	0.24
348.521	0.24
348.73	0.3
348.94	0.29
349.149	0.24
349.358	0.27
349.567	0.24
349.776	0.2
349.985	0.22
350.194	0.32
350.403	0.32
350.612	0.17
350.821	0.24
351.03	0.29
351.239	0.2
351.448	0.26
351.657	0.23
351.866	0.33
352.075	0.26
352.284	0.24
352.493	0.18
352.702	0.3
352.911	0.28
353.12	0.23
353.329	0.26
353.538	0.27
353.746	0.25
353.955	0.22
354.164	0.27
354.373	0.22
354.582	0.31
354.79	0.24
354.999	0.31
355.208	0.24
355.416	0.34
355.625	0.2
355.834	0.22
356.042	0.27
356.251	0.27
356.46	0.23
356.668	0.23
356.877	0.35
357.085	0.28
357.294	0.14
357.503	0.26
357.711	0.25
357.92	0.42
358.128	0.28
358.337	0.21
358.545	0.25
358.754	0.25
358.962	0.27
359.17	0.22
359.379	0.27
359.587	0.29
359.796	0.26
360.004	0.34
360.212	0.29
360.421	0.37
360.629	0.22
360.837	0.19
361.046	0.3
361.254	0.38
361.462	0.28
361.67	0.21
361.879	0.27
362.087	0.34
362.295	0.28
362.503	0.23
362.711	0.19
362.92	0.25
363.128	0.21
363.336	0.21
363.544	0.19
363.752	0.21
363.96	0.22
364.168	0.25
364.376	0.3
364.584	0.31
364.792	0.35
365	0.28
365.208	0.28
365.416	0.31
365.624	0.29
365.832	0.21
366.04	0.32
366.248	0.29
366.456	0.26
366.664	0.29
366.872	0.3
367.079	0.25
367.287	0.23
367.495	0.26
367.703	0.29
367.911	0.29
368.118	0.26
368.326	0.2
368.534	0.21
368.742	0.28
368.949	0.2
369.157	0.16
369.365	0.27
369.572	0.23
369.78	0.19
369.988	0.27
370.195	0.28
370.403	0.32
370.61	0.23
370.818	0.26
371.026	0.32
371.233	0.23
371.441	0.32
371.648	0.25
371.856	0.29
372.063	0.3
372.271	0.23
372.478	0.17
372.685	0.24
372.893	0.3
373.1	0.22
373.308	0.22
373.515	0.35
373.722	0.32
373.93	0.3
374.137	0.29
374.344	0.34
374.552	0.31
374.759	0.29
374.966	0.24
375.173	0.22
375.381	0.33
375.588	0.26
375.795	0.2
376.002	0.23
376.209	0.25
376.417	0.26
376.624	0.3
376.831	0.33
377.038	0.28
377.245	0.18
377.452	0.22
377.659	0.27
377.866	0.23
378.073	0.28
378.28	0.26
378.487	0.31
378.694	0.33
378.901	0.32
379.108	0.25
379.315	0.36
379.522	0.38
379.729	0.24
379.936	0.27
380.143	0.32
380.35	0.33
380.557	0.26
380.763	0.32
380.97	0.29
381.177	0.31
381.384	0.3
381.591	0.24
381.797	0.27
382.004	0.32
382.211	0.34
382.418	0.19
382.624	0.33
382.831	0.34
383.038	0.26
383.244	0.3
383.451	0.29
383.658	0.28
383.864	0.28
384.071	0.19
384.277	0.36
384.484	0.27
384.69	0.34
384.897	0.26
385.103	0.25
385.31	0.24
385.516	0.24
385.723	0.23
385.929	0.28
386.136	0.26
386.342	0.31
386.549	0.27
386.755	0.33
386.961	0.32
387.168	0.27
387.374	0.27
387.58	0.32
387.787	0.31
387.993	0.31
388.199	0.29
388.406	0.25
388.612	0.28
388.818	0.25
389.024	0.23
389.231	0.29
389.437	0.42
389.643	0.31
389.849	0.3
390.055	0.3
390.261	0.26
390.467	0.35
390.674	0.31
390.88	0.32
391.086	0.33
391.292	0.27
391.498	0.36
391.704	0.33
391.91	0.25
392.116	0.27
392.322	0.2
392.528	0.35
392.734	0.28
392.94	0.34
393.146	0.29
393.352	0.31
393.557	0.3
393.763	0.32
393.969	0.37
394.175	0.34
394.381	0.34
394.587	0.24
394.792	0.32
394.998	0.38
395.204	0.36
395.41	0.28
395.615	0.32
395.821	0.31
396.027	0.34
396.233	0.32
396.438	0.31
396.644	0.42
396.85	0.33
397.055	0.35
397.261	0.38
397.466	0.33
397.672	0.36
397.878	0.34
398.083	0.31
398.289	0.33
398.494	0.42
398.7	0.36
398.905	0.27
399.111	0.47
399.316	0.31
399.522	0.35
399.727	0.38
399.932	0.35
400.138	0.32
400.343	0.33
400.549	0.31
400.754	0.38
400.959	0.41
401.165	0.37
401.37	0.38
401.575	0.49
401.78	0.39
401.986	0.36
402.191	0.36
402.396	0.41
402.601	0.44
402.807	0.43
403.012	0.39
403.217	0.46
403.422	0.44
403.627	0.42
403.832	0.38
404.037	0.47
404.243	0.44
404.448	0.39
404.653	0.44
404.858	0.53
405.063	0.47
405.268	0.41
405.473	0.37
405.678	0.43
405.883	0.61
406.088	0.49
406.293	0.43
406.498	0.47
406.703	0.52
406.907	0.47
407.112	0.43
407.317	0.56
407.522	0.59
407.727	0.48
407.932	0.5
408.136	0.68
408.341	0.54
408.546	0.62
408.751	0.57
408.956	0.61
409.16	0.73
409.365	0.64
409.57	0.61
409.774	0.65
409.979	0.7
410.184	0.72
410.388	0.64
410.593	0.74
410.798	0.78
411.002	0.74
411.207	0.82
411.411	0.87
411.616	0.78
411.82	0.84
412.025	0.86
412.229	0.87
412.434	0.96
412.638	0.92
412.843	0.9
413.047	1
413.252	0.94
413.456	1.07
413.66	1.13
413.865	1.05
414.069	1.18
414.273	1.11
414.478	1.1
414.682	1.22
414.886	1.19
415.091	1.22
415.295	1.3
415.499	1.45
415.703	1.44
415.908	1.52
416.112	1.43
416.316	1.61
416.52	1.55
416.724	1.61
416.929	1.66
417.133	1.9
417.337	1.83
417.541	1.85
417.745	1.92
417.949	2.02
418.153	2.03
418.357	2.1
418.561	2.34
418.765	2.23
418.969	2.41
419.173	2.47
419.377	2.46
419.581	2.74
419.785	2.77
419.989	2.73
420.193	2.86
420.397	2.9
420.601	3.12
420.804	3.17
421.008	3.11
421.212	3.37
421.416	3.37
421.62	3.41
421.823	3.42
422.027	3.63
422.231	3.56
422.435	3.58
422.638	3.69
422.842	3.79
423.046	3.82
423.249	4.04
423.453	4.07
423.657	4.31
423.86	4.32
424.064	4.46
424.268	4.66
424.471	4.61
424.675	4.84
424.878	4.83
425.082	5.01
425.285	5.33
425.489	5.21
425.692	5.26
425.896	5.39
426.099	5.64
426.303	5.72
426.506	5.85
426.71	6.09
426.913	6.27
427.116	6.54
427.32	6.48
427.523	6.59
427.726	6.85
427.93	6.99
428.133	7.28
428.336	7.38
428.54	7.57
428.743	7.69
428.946	8.04
429.149	7.98
429.353	8.13
429.556	8.11
429.759	8.17
429.962	8.36
430.165	8.57
430.368	8.1
430.571	8.21
430.775	8.23
430.978	8.18
431.181	8.23
431.384	8.4
431.587	8.47
431.79	8.79
431.993	8.79
432.196	9.1
432.399	9.44
432.602	9.54
432.805	9.73
433.008	10.17
433.211	10.07
433.414	10.44
433.616	10.48
433.819	10.39
434.022	10.61
434.225	10.78
434.428	10.77
434.631	11.21
434.833	10.97
435.036	11.24
435.239	11.43
435.442	11.51
435.645	11.59
435.847	11.8
436.05	11.95
436.253	12.19
436.455	12.27
436.658	12.15
436.861	12.45
437.063	12.58
437.266	12.63
437.468	12.89
437.671	13.2
437.874	13.21
438.076	13.06
438.279	13.58
438.481	13.61
438.684	14.38
438.886	13.96
439.089	14.35
439.291	14.26
439.494	14.63
439.696	14.9
439.899	15.27
440.101	15.79
440.303	15.89
440.506	16.63
440.708	16.45
440.91	16.64
441.113	16.75
441.315	17.16
441.517	17
441.72	17.41
441.922	17.01
442.124	16.93
442.326	17.3
442.529	17.59
442.731	17.47
442.933	17.88
443.135	17.64
443.337	17.59
443.539	18.1
443.742	17.81
443.944	18.45
444.146	18.14
444.348	18.11
444.55	18.06
444.752	18.18
444.954	18.32
445.156	18.09
445.358	18.61
445.56	18.72
445.762	18.64
445.964	19
446.166	18.69
446.368	18.74
446.57	18.71
446.772	18.28
446.974	18.04
447.175	18.41
447.377	17.96
447.579	18.47
447.781	18.07
447.983	17.87
448.184	17.5
448.386	17.81
448.588	17.36
448.79	17.18
448.991	17.51
449.193	17.59
449.395	16.83
449.597	16.47
449.798	16.33
450	15.82
450.202	15.76
450.403	15.85
450.605	15.67
450.806	15.21
451.008	15.04
451.21	14.94
451.411	14.53
451.613	13.77
451.814	14.04
452.016	13.99
452.217	13.1
452.419	13.19
452.62	12.91
452.821	12.68
453.023	12.57
453.224	12.16
453.426	11.79
453.627	10.98
453.828	10.98
454.03	11.24
454.231	11.12
454.432	10.92
454.634	10.69
454.835	10.41
455.036	10.34
455.238	9.92
455.439	9.67
455.64	9.46
455.841	9.24
456.042	9.34
456.244	9.07
456.445	8.86
456.646	8.58
456.847	8.35
457.048	8.4
457.249	8.38
457.45	8.23
457.651	7.7
457.852	7.48
458.054	7.18
458.255	7.1
458.456	7.23
458.657	7.02
458.858	6.6
459.058	6.56
459.259	6.64
459.46	6.25
459.661	6.34
459.862	6.38
460.063	6.31
460.264	6.2
460.465	5.83
460.666	6.01
460.866	5.69
461.067	5.46
461.268	5.52
461.469	5.48
461.67	5.28
461.87	5.12
462.071	5.17
462.272	5.13
462.473	5.07
462.673	5.17
462.874	5.08
463.075	5.06
463.275	4.99
463.476	5.13
463.676	4.96
463.877	4.9
464.078	4.89
464.278	4.87
464.479	4.78
464.679	4.62
464.88	4.67
465.08	4.63
465.281	4.47
465.481	4.22
465.682	3.95
465.882	4.09
466.083	4.04
466.283	4.02
466.483	3.97
466.684	3.68
466.884	3.65
467.085	3.58
467.285	3.68
467.485	3.59
467.686	3.44
467.886	3.34
468.086	3.27
468.286	3.3
468.487	3.4
468.687	3.16
468.887	3.1
469.087	3.29
469.287	3.22
469.488	3.09
469.688	3.15
469.888	3.16
470.088	3.1
470.288	3.01
470.488	2.97
470.688	2.89
470.888	2.78
471.088	2.65
471.288	2.74
471.488	2.74
471.688	2.7
471.888	2.64
472.088	2.83
472.288	2.66
472.488	2.55
472.688	2.57
472.888	2.58
473.088	2.6
473.288	2.46
473.488	2.43
473.688	2.56
473.887	2.43
474.087	2.37
474.287	2.4
474.487	2.35
474.687	2.45
474.886	2.35
475.086	2.29
475.286	2.28
475.486	2.28
475.685	2.21
475.885	2.23
476.085	2.29
476.284	2.23
476.484	2.23
476.684	2.2
476.883	2.27
477.083	2.16
477.282	2.14
477.482	2.2
477.681	2.11
477.881	2.08
478.08	2.05
478.28	2.04
478.479	2.05
478.679	2.11
478.878	2.03
479.078	2.02
479.277	2.06
479.477	2.04
479.676	2.01
479.875	2.01
480.075	1.93
480.274	2.07
480.473	2.03
480.673	2
480.872	2.12
481.071	1.98
481.271	2.06
481.47	1.95
481.669	1.96
481.868	1.96
482.067	2
482.267	1.94
482.466	1.92
482.665	1.94
482.864	1.96
483.063	1.88
483.262	2.02
483.461	2.03
483.661	2.06
483.86	1.99
484.059	2.03
484.258	2.01
484.457	1.99
484.656	2
484.855	2.11
485.054	1.93
485.253	1.97
485.452	1.95
485.651	2.04
485.849	2.04
486.048	1.96
486.247	2.02
486.446	2.08
486.645	2.04
486.844	2.07
487.043	2.05
487.241	2.11
487.44	2.07
487.639	2.11
487.838	2.13
488.037	2.09
488.235	2.23
488.434	2.15
488.633	2.06
488.831	2.2
489.03	2.2
489.229	2.18
489.427	2.19
489.626	2.25
489.825	2.24
490.023	2.32
490.222	2.29
490.42	2.34
490.619	2.39
490.817	2.36
491.016	2.31
491.214	2.4
491.413	2.43
491.611	2.36
491.81	2.38
492.008	2.44
492.207	2.55
492.405	2.53
492.604	2.47
492.802	2.55
493	2.63
493.199	2.55
493.397	2.64
493.595	2.68
493.794	2.61
493.992	2.79
494.19	2.72
494.388	2.82
494.587	2.77
494.785	2.79
494.983	2.71
495.181	2.82
495.379	2.9
495.578	2.94
495.776	2.93
495.974	2.93
496.172	2.94
496.37	3.08
496.568	3.16
496.766	3.09
496.964	3.26
497.162	3.17
497.36	3.2
497.558	3.23
497.756	3.32
497.954	3.31
498.152	3.33
498.35	3.45
498.548	3.35
498.746	3.41
498.944	3.38
499.142	3.45
499.34	3.52
499.538	3.63
499.736	3.52
499.933	3.71
500.131	3.64
500.329	3.77
500.527	3.78
500.725	3.86
500.922	3.91
501.12	3.91
501.318	3.98
501.516	3.97
501.713	4.08
501.911	3.99
502.109	3.96
502.306	4.13
502.504	4
502.701	4.09
