Data from Apollo_Calib_20240827__AbsoluteIrradiance__13__23-22-01-045.txt Node

Date: Tue Aug 27 23:22:01 BST 2024
User: biology
Spectrometer: FLMT08252
Trigger mode: 0
Integration Time (sec): 5.000000E-1
Scans to average: 5
Electric dark correction enabled: true
Nonlinearity correction enabled: false
Boxcar width: 0
XAxis mode: Wavelengths
Number of Pixels in Spectrum: 3648
>>>>>Begin Spectral Data<<<<<
179.588	-0
179.809	-0
180.03	-0
180.251	-0
180.473	-0
180.694	0
180.915	0
181.136	0
181.357	-0
181.578	-0
181.799	-0
182.02	-0
182.241	0
182.462	-0
182.683	0
182.904	-0
183.125	0
183.346	0
183.567	0
183.788	0
184.009	0
184.23	0
184.451	0
184.672	0
184.892	0
185.113	0
185.334	0
185.555	0
185.776	0
185.996	0
186.217	0
186.438	0
186.659	0
186.879	0
187.1	0
187.321	0
187.541	0
187.762	0
187.983	0
188.203	0
188.424	0
188.644	0
188.865	0
189.086	0
189.306	0
189.527	0
189.747	0
189.968	0
190.188	0
190.409	0
190.629	0
190.849	0
191.07	0
191.29	0
191.511	0
191.731	0
191.951	0
192.172	0
192.392	0
192.612	0
192.833	0
193.053	0
193.273	0
193.493	0
193.714	0
193.934	0
194.154	0
194.374	0
194.594	0
194.815	0
195.035	0
195.255	0
195.475	0
195.695	0
195.915	0
196.135	0
196.355	0
196.575	0
196.795	0
197.015	0
197.235	0
197.455	0
197.675	0
197.895	0
198.115	0
198.335	0
198.555	0
198.775	0
198.995	0
199.214	0
199.434	0
199.654	0
199.874	0
200.094	3.93
200.313	2.26
200.533	2.02
200.753	1.95
200.973	3.29
201.192	3.16
201.412	1.78
201.632	2.55
201.851	3.12
202.071	2.19
202.291	2
202.51	1.72
202.73	2.42
202.95	2.1
203.169	1.46
203.389	2.22
203.608	2.02
203.828	1.71
204.047	1.95
204.267	2.23
204.486	2.12
204.706	2.27
204.925	1.85
205.145	1.75
205.364	2.09
205.583	2.19
205.803	1.53
206.022	1.32
206.242	1.59
206.461	1.38
206.68	1.2
206.9	1.8
207.119	2.31
207.338	1.85
207.557	1.37
207.777	1.32
207.996	1.73
208.215	2.01
208.434	1.34
208.654	1.35
208.873	1.31
209.092	2.04
209.311	1.31
209.53	1.24
209.749	1.28
209.968	1.13
210.187	1.09
210.407	1.01
210.626	1.12
210.845	1.49
211.064	1.4
211.283	1.23
211.502	1.44
211.721	1.27
211.94	1.18
212.159	1.26
212.377	1.17
212.596	1.51
212.815	1.15
213.034	1.26
213.253	1.53
213.472	1.34
213.691	0.92
213.91	1.05
214.128	0.93
214.347	1.43
214.566	0.75
214.785	0.75
215.003	1.13
215.222	1.02
215.441	0.96
215.66	0.67
215.878	0.94
216.097	1.13
216.316	0.91
216.534	0.84
216.753	1
216.972	0.94
217.19	0.91
217.409	0.77
217.627	0.72
217.846	0.76
218.064	0.86
218.283	0.73
218.501	1.19
218.72	1.15
218.938	0.83
219.157	0.73
219.375	1.17
219.594	0.86
219.812	0.55
220.031	0.81
220.249	1.34
220.467	1.14
220.686	0.87
220.904	0.77
221.122	0.77
221.341	0.99
221.559	0.97
221.777	0.7
221.995	0.8
222.214	0.72
222.432	0.67
222.65	1.03
222.868	0.84
223.086	0.82
223.305	0.8
223.523	0.72
223.741	1.09
223.959	0.4
224.177	0.56
224.395	0.65
224.613	0.9
224.831	0.9
225.049	0.67
225.267	0.79
225.485	0.75
225.703	0.77
225.921	0.6
226.139	0.69
226.357	0.93
226.575	0.64
226.793	0.64
227.011	1.06
227.229	0.75
227.447	0.73
227.665	0.68
227.883	0.51
228.1	0.7
228.318	0.67
228.536	0.47
228.754	0.62
228.972	0.64
229.189	0.89
229.407	0.65
229.625	0.54
229.843	0.89
230.06	0.74
230.278	0.63
230.496	0.66
230.713	0.75
230.931	0.73
231.149	0.5
231.366	0.45
231.584	0.56
231.801	0.94
232.019	0.56
232.236	0.38
232.454	0.49
232.671	0.57
232.889	0.61
233.106	0.44
233.324	0.54
233.541	0.47
233.759	0.66
233.976	0.5
234.194	0.54
234.411	0.55
234.628	0.59
234.846	0.43
235.063	0.54
235.28	0.57
235.498	0.53
235.715	0.52
235.932	0.66
236.149	0.5
236.367	0.44
236.584	0.68
236.801	0.53
237.018	0.65
237.236	0.53
237.453	0.47
237.67	0.58
237.887	0.45
238.104	0.42
238.321	0.49
238.538	0.5
238.755	0.57
238.973	0.35
239.19	0.51
239.407	0.52
239.624	0.6
239.841	0.38
240.058	0.51
240.275	0.51
240.492	0.56
240.709	0.49
240.925	0.53
241.142	0.51
241.359	0.46
241.576	0.37
241.793	0.53
242.01	0.53
242.227	0.57
242.444	0.55
242.66	0.57
242.877	0.52
243.094	0.46
243.311	0.45
243.527	0.36
243.744	0.5
243.961	0.62
244.178	0.44
244.394	0.46
244.611	0.64
244.828	0.67
245.044	0.31
245.261	0.47
245.477	0.48
245.694	0.46
245.911	0.42
246.127	0.51
246.344	0.62
246.56	0.4
246.777	0.48
246.993	0.47
247.21	0.42
247.426	0.45
247.643	0.44
247.859	0.41
248.076	0.41
248.292	0.64
248.508	0.42
248.725	0.52
248.941	0.47
249.157	0.51
249.374	0.44
249.59	0.55
249.806	0.4
250.023	0.47
250.239	0.47
250.455	0.47
250.671	0.47
250.888	0.52
251.104	0.52
251.32	0.43
251.536	0.37
251.752	0.47
251.969	0.43
252.185	0.48
252.401	0.6
252.617	0.48
252.833	0.42
253.049	0.48
253.265	0.37
253.481	0.42
253.697	0.42
253.913	0.35
254.129	0.44
254.345	0.45
254.561	0.37
254.777	0.42
254.993	0.61
255.209	0.45
255.425	0.38
255.641	0.42
255.857	0.53
256.073	0.44
256.288	0.39
256.504	0.36
256.72	0.4
256.936	0.5
257.152	0.39
257.367	0.41
257.583	0.39
257.799	0.48
258.015	0.3
258.23	0.43
258.446	0.59
258.662	0.46
258.877	0.37
259.093	0.35
259.309	0.4
259.524	0.43
259.74	0.36
259.955	0.22
260.171	0.44
260.387	0.39
260.602	0.53
260.818	0.4
261.033	0.28
261.249	0.34
261.464	0.4
261.68	0.38
261.895	0.31
262.11	0.4
262.326	0.39
262.541	0.25
262.757	0.39
262.972	0.46
263.187	0.4
263.403	0.36
263.618	0.47
263.833	0.44
264.049	0.3
264.264	0.35
264.479	0.43
264.694	0.4
264.91	0.34
265.125	0.35
265.34	0.42
265.555	0.47
265.77	0.37
265.986	0.34
266.201	0.42
266.416	0.52
266.631	0.44
266.846	0.43
267.061	0.48
267.276	0.4
267.491	0.24
267.706	0.37
267.921	0.44
268.136	0.37
268.351	0.34
268.566	0.27
268.781	0.42
268.996	0.43
269.211	0.35
269.426	0.29
269.641	0.36
269.856	0.29
270.071	0.36
270.285	0.3
270.5	0.43
270.715	0.42
270.93	0.32
271.145	0.38
271.359	0.39
271.574	0.27
271.789	0.34
272.004	0.34
272.218	0.29
272.433	0.35
272.648	0.29
272.862	0.45
273.077	0.36
273.292	0.32
273.506	0.25
273.721	0.34
273.936	0.38
274.15	0.39
274.365	0.34
274.579	0.37
274.794	0.32
275.008	0.41
275.223	0.18
275.437	0.34
275.652	0.49
275.866	0.38
276.081	0.27
276.295	0.36
276.509	0.31
276.724	0.33
276.938	0.33
277.153	0.31
277.367	0.43
277.581	0.3
277.796	0.25
278.01	0.29
278.224	0.35
278.438	0.43
278.653	0.27
278.867	0.38
279.081	0.38
279.295	0.32
279.51	0.34
279.724	0.27
279.938	0.4
280.152	0.36
280.366	0.26
280.58	0.3
280.794	0.42
281.008	0.34
281.222	0.37
281.437	0.44
281.651	0.32
281.865	0.4
282.079	0.33
282.293	0.17
282.507	0.2
282.721	0.3
282.935	0.32
283.148	0.19
283.362	0.26
283.576	0.27
283.79	0.35
284.004	0.28
284.218	0.35
284.432	0.29
284.646	0.38
284.859	0.27
285.073	0.28
285.287	0.3
285.501	0.27
285.714	0.27
285.928	0.31
286.142	0.29
286.356	0.27
286.569	0.3
286.783	0.34
286.997	0.35
287.21	0.34
287.424	0.27
287.637	0.29
287.851	0.28
288.065	0.35
288.278	0.29
288.492	0.32
288.705	0.35
288.919	0.35
289.132	0.24
289.346	0.33
289.559	0.21
289.773	0.2
289.986	0.25
290.2	0.28
290.413	0.31
290.626	0.24
290.84	0.29
291.053	0.24
291.267	0.36
291.48	0.3
291.693	0.28
291.906	0.23
292.12	0.3
292.333	0.26
292.546	0.27
292.76	0.37
292.973	0.29
293.186	0.29
293.399	0.28
293.612	0.33
293.826	0.3
294.039	0.22
294.252	0.28
294.465	0.31
294.678	0.27
294.891	0.26
295.104	0.19
295.317	0.29
295.53	0.29
295.743	0.32
295.956	0.26
296.169	0.32
296.382	0.32
296.595	0.28
296.808	0.25
297.021	0.31
297.234	0.34
297.447	0.27
297.66	0.27
297.873	0.3
298.086	0.29
298.299	0.24
298.511	0.23
298.724	0.28
298.937	0.21
299.15	0.23
299.363	0.26
299.575	0.3
299.788	0.27
300.001	0.23
300.213	0.2
300.426	0.25
300.639	0.23
300.852	0.25
301.064	0.31
301.277	0.31
301.489	0.24
301.702	0.28
301.915	0.3
302.127	0.24
302.34	0.27
302.552	0.31
302.765	0.23
302.977	0.29
303.19	0.23
303.402	0.24
303.615	0.27
303.827	0.26
304.04	0.24
304.252	0.32
304.464	0.24
304.677	0.3
304.889	0.27
305.102	0.25
305.314	0.26
305.526	0.32
305.739	0.31
305.951	0.25
306.163	0.28
306.375	0.32
306.588	0.24
306.8	0.25
307.012	0.18
307.224	0.23
307.436	0.32
307.649	0.2
307.861	0.31
308.073	0.25
308.285	0.25
308.497	0.23
308.709	0.25
308.921	0.24
309.133	0.28
309.346	0.32
309.558	0.28
309.77	0.29
309.982	0.34
310.194	0.32
310.406	0.24
310.617	0.32
310.829	0.25
311.041	0.28
311.253	0.2
311.465	0.31
311.677	0.27
311.889	0.26
312.101	0.25
312.313	0.26
312.524	0.31
312.736	0.21
312.948	0.28
313.16	0.31
313.372	0.26
313.583	0.25
313.795	0.26
314.007	0.24
314.218	0.26
314.43	0.24
314.642	0.22
314.853	0.23
315.065	0.29
315.277	0.27
315.488	0.28
315.7	0.29
315.912	0.29
316.123	0.3
316.335	0.26
316.546	0.34
316.758	0.24
316.969	0.27
317.181	0.27
317.392	0.27
317.604	0.28
317.815	0.22
318.026	0.22
318.238	0.23
318.449	0.24
318.661	0.2
318.872	0.26
319.083	0.23
319.295	0.28
319.506	0.23
319.717	0.26
319.929	0.35
320.14	0.3
320.351	0.33
320.562	0.22
320.774	0.24
320.985	0.27
321.196	0.22
321.407	0.24
321.618	0.32
321.829	0.3
322.041	0.27
322.252	0.22
322.463	0.27
322.674	0.24
322.885	0.22
323.096	0.22
323.307	0.22
323.518	0.22
323.729	0.23
323.94	0.27
324.151	0.23
324.362	0.26
324.573	0.29
324.784	0.23
324.995	0.29
325.206	0.35
325.417	0.24
325.628	0.25
325.838	0.29
326.049	0.24
326.26	0.27
326.471	0.28
326.682	0.27
326.892	0.24
327.103	0.17
327.314	0.18
327.525	0.31
327.735	0.3
327.946	0.22
328.157	0.25
328.368	0.21
328.578	0.21
328.789	0.3
328.999	0.26
329.21	0.29
329.421	0.27
329.631	0.24
329.842	0.29
330.052	0.31
330.263	0.28
330.473	0.27
330.684	0.24
330.894	0.23
331.105	0.24
331.315	0.27
331.526	0.2
331.736	0.3
331.947	0.27
332.157	0.31
332.367	0.23
332.578	0.28
332.788	0.32
332.999	0.29
333.209	0.29
333.419	0.24
333.629	0.24
333.84	0.29
334.05	0.28
334.26	0.35
334.47	0.31
334.681	0.29
334.891	0.24
335.101	0.28
335.311	0.33
335.521	0.27
335.732	0.27
335.942	0.31
336.152	0.28
336.362	0.31
336.572	0.28
336.782	0.29
336.992	0.25
337.202	0.29
337.412	0.22
337.622	0.31
337.832	0.25
338.042	0.3
338.252	0.21
338.462	0.22
338.672	0.29
338.882	0.25
339.092	0.25
339.302	0.3
339.511	0.25
339.721	0.23
339.931	0.22
340.141	0.3
340.351	0.29
340.561	0.27
340.77	0.25
340.98	0.22
341.19	0.24
341.4	0.24
341.609	0.23
341.819	0.21
342.029	0.29
342.238	0.27
342.448	0.24
342.658	0.28
342.867	0.29
343.077	0.27
343.286	0.24
343.496	0.26
343.706	0.28
343.915	0.18
344.125	0.25
344.334	0.29
344.544	0.17
344.753	0.29
344.963	0.23
345.172	0.21
345.381	0.25
345.591	0.22
345.8	0.26
346.01	0.3
346.219	0.27
346.428	0.14
346.638	0.23
346.847	0.25
347.056	0.3
347.266	0.22
347.475	0.25
347.684	0.28
347.893	0.3
348.103	0.29
348.312	0.24
348.521	0.23
348.73	0.28
348.94	0.26
349.149	0.21
349.358	0.29
349.567	0.24
349.776	0.2
349.985	0.26
350.194	0.29
350.403	0.27
350.612	0.2
350.821	0.25
351.03	0.26
351.239	0.22
351.448	0.28
351.657	0.2
351.866	0.32
352.075	0.25
352.284	0.28
352.493	0.22
352.702	0.28
352.911	0.29
353.12	0.26
353.329	0.29
353.538	0.29
353.746	0.22
353.955	0.25
354.164	0.28
354.373	0.27
354.582	0.27
354.79	0.29
354.999	0.27
355.208	0.21
355.416	0.26
355.625	0.21
355.834	0.24
356.042	0.29
356.251	0.25
356.46	0.19
356.668	0.29
356.877	0.34
357.085	0.26
357.294	0.23
357.503	0.27
357.711	0.24
357.92	0.35
358.128	0.26
358.337	0.23
358.545	0.25
358.754	0.24
358.962	0.27
359.17	0.24
359.379	0.28
359.587	0.26
359.796	0.25
360.004	0.32
360.212	0.25
360.421	0.31
360.629	0.22
360.837	0.21
361.046	0.3
361.254	0.32
361.462	0.25
361.67	0.2
361.879	0.28
362.087	0.26
362.295	0.25
362.503	0.23
362.711	0.2
362.92	0.25
363.128	0.22
363.336	0.23
363.544	0.24
363.752	0.24
363.96	0.22
364.168	0.26
364.376	0.22
364.584	0.27
364.792	0.28
365	0.29
365.208	0.29
365.416	0.25
365.624	0.29
365.832	0.24
366.04	0.29
366.248	0.26
366.456	0.29
366.664	0.28
366.872	0.23
367.079	0.21
367.287	0.25
367.495	0.26
367.703	0.27
367.911	0.23
368.118	0.25
368.326	0.23
368.534	0.22
368.742	0.32
368.949	0.17
369.157	0.26
369.365	0.32
369.572	0.25
369.78	0.24
369.988	0.28
370.195	0.27
370.403	0.29
370.61	0.25
370.818	0.27
371.026	0.25
371.233	0.22
371.441	0.28
371.648	0.21
371.856	0.29
372.063	0.26
372.271	0.26
372.478	0.25
372.685	0.22
372.893	0.33
373.1	0.26
373.308	0.26
373.515	0.36
373.722	0.32
373.93	0.22
374.137	0.32
374.344	0.39
374.552	0.27
374.759	0.31
374.966	0.29
375.173	0.23
375.381	0.33
375.588	0.28
375.795	0.18
376.002	0.24
376.209	0.17
376.417	0.29
376.624	0.3
376.831	0.27
377.038	0.26
377.245	0.22
377.452	0.24
377.659	0.29
377.866	0.22
378.073	0.26
378.28	0.3
378.487	0.28
378.694	0.3
378.901	0.27
379.108	0.29
379.315	0.28
379.522	0.32
379.729	0.26
379.936	0.26
380.143	0.27
380.35	0.3
380.557	0.25
380.763	0.26
380.97	0.27
381.177	0.28
381.384	0.27
381.591	0.28
381.797	0.28
382.004	0.29
382.211	0.31
382.418	0.28
382.624	0.35
382.831	0.3
383.038	0.27
383.244	0.27
383.451	0.25
383.658	0.27
383.864	0.27
384.071	0.24
384.277	0.31
384.484	0.24
384.69	0.34
384.897	0.21
385.103	0.25
385.31	0.27
385.516	0.26
385.723	0.24
385.929	0.25
386.136	0.28
386.342	0.31
386.549	0.27
386.755	0.33
386.961	0.3
387.168	0.26
387.374	0.27
387.58	0.32
387.787	0.31
387.993	0.34
388.199	0.31
388.406	0.28
388.612	0.32
388.818	0.24
389.024	0.26
389.231	0.28
389.437	0.36
389.643	0.3
389.849	0.25
390.055	0.32
390.261	0.31
390.467	0.27
390.674	0.29
390.88	0.28
391.086	0.3
391.292	0.26
391.498	0.36
391.704	0.34
391.91	0.33
392.116	0.29
392.322	0.18
392.528	0.32
392.734	0.28
392.94	0.35
393.146	0.31
393.352	0.3
393.557	0.3
393.763	0.29
393.969	0.36
394.175	0.32
394.381	0.35
394.587	0.29
394.792	0.31
394.998	0.35
395.204	0.31
395.41	0.3
395.615	0.39
395.821	0.34
396.027	0.39
396.233	0.34
396.438	0.34
396.644	0.41
396.85	0.35
397.055	0.3
397.261	0.35
397.466	0.45
397.672	0.38
397.878	0.34
398.083	0.38
398.289	0.33
398.494	0.35
398.7	0.37
398.905	0.28
399.111	0.4
399.316	0.32
399.522	0.4
399.727	0.33
399.932	0.36
400.138	0.36
400.343	0.37
400.549	0.29
400.754	0.35
400.959	0.37
401.165	0.37
401.37	0.37
401.575	0.32
401.78	0.38
401.986	0.33
402.191	0.36
402.396	0.4
402.601	0.44
402.807	0.41
403.012	0.41
403.217	0.45
403.422	0.44
403.627	0.4
403.832	0.37
404.037	0.44
404.243	0.43
404.448	0.4
404.653	0.44
404.858	0.43
405.063	0.44
405.268	0.41
405.473	0.38
405.678	0.44
405.883	0.56
406.088	0.52
406.293	0.39
406.498	0.44
406.703	0.46
406.907	0.45
407.112	0.49
407.317	0.48
407.522	0.57
407.727	0.47
407.932	0.5
408.136	0.6
408.341	0.54
408.546	0.6
408.751	0.59
408.956	0.54
409.16	0.65
409.365	0.65
409.57	0.59
409.774	0.57
409.979	0.68
410.184	0.66
410.388	0.66
410.593	0.69
410.798	0.75
411.002	0.75
411.207	0.81
411.411	0.8
411.616	0.74
411.82	0.81
412.025	0.87
412.229	0.81
412.434	1.01
412.638	0.96
412.843	0.89
413.047	1.01
413.252	0.93
413.456	0.98
413.66	1.04
413.865	1.04
414.069	1.08
414.273	1.11
414.478	1.09
414.682	1.17
414.886	1.19
415.091	1.19
415.295	1.25
415.499	1.35
415.703	1.28
415.908	1.47
416.112	1.39
416.316	1.58
416.52	1.51
416.724	1.57
416.929	1.61
417.133	1.79
417.337	1.72
417.541	1.75
417.745	1.89
417.949	1.92
418.153	1.99
418.357	2.03
418.561	2.24
418.765	2.19
418.969	2.23
419.173	2.34
419.377	2.39
419.581	2.58
419.785	2.59
419.989	2.58
420.193	2.79
420.397	2.87
420.601	2.96
420.804	3.05
421.008	3.07
421.212	3.18
421.416	3.24
421.62	3.18
421.823	3.29
422.027	3.45
422.231	3.46
422.435	3.44
422.638	3.52
422.842	3.67
423.046	3.7
423.249	3.89
423.453	3.93
423.657	4.01
423.86	4.12
424.064	4.25
424.268	4.46
424.471	4.42
424.675	4.71
424.878	4.66
425.082	4.88
425.285	5.06
425.489	5.02
425.692	5.2
425.896	5.17
426.099	5.41
426.303	5.56
426.506	5.7
426.71	5.87
426.913	6.08
427.116	6.21
427.32	6.29
427.523	6.38
427.726	6.6
427.93	6.75
428.133	7.09
428.336	7.17
428.54	7.31
428.743	7.51
428.946	7.79
429.149	7.87
429.353	7.88
429.556	8
429.759	7.99
429.962	8.18
430.165	8.33
430.368	7.87
430.571	7.89
430.775	8.11
430.978	7.97
431.181	8.03
431.384	8.18
431.587	8.23
431.79	8.64
431.993	8.48
432.196	8.88
432.399	9.16
432.602	9.37
432.805	9.54
433.008	9.94
433.211	9.96
433.414	10.3
433.616	10.28
433.819	10.18
434.022	10.36
434.225	10.46
434.428	10.58
434.631	10.92
434.833	10.74
435.036	11.04
435.239	11.26
435.442	11.32
435.645	11.52
435.847	11.49
436.05	11.76
436.253	12.15
436.455	11.99
436.658	12.03
436.861	12.13
437.063	12.45
437.266	12.42
437.468	12.71
437.671	12.96
437.874	12.95
438.076	12.84
438.279	13.47
438.481	13.44
438.684	14.21
438.886	13.82
439.089	14.04
439.291	14.19
439.494	14.53
439.696	14.67
439.899	15.15
440.101	15.54
440.303	15.77
440.506	16.68
440.708	16.03
440.91	16.46
441.113	16.46
441.315	17.04
441.517	16.6
441.72	17.07
441.922	16.81
442.124	16.8
442.326	17.04
442.529	17.28
442.731	17.5
442.933	17.78
443.135	17.39
443.337	17.53
443.539	18.02
443.742	17.78
443.944	18.19
444.146	17.97
444.348	18.18
444.55	17.92
444.752	18.14
444.954	18.11
445.156	18.01
445.358	18.53
445.56	18.72
445.762	18.42
445.964	18.93
446.166	18.62
446.368	18.59
446.57	18.65
446.772	18.22
446.974	18.01
447.175	18.41
447.377	18.09
447.579	18.57
447.781	18.08
447.983	17.92
448.184	17.5
448.386	17.82
448.588	17.37
448.79	17.37
448.991	17.68
449.193	17.57
449.395	16.87
449.597	16.61
449.798	16.36
450	16.21
450.202	15.93
450.403	15.97
450.605	15.76
450.806	15.45
451.008	15.35
451.21	15.19
451.411	14.66
451.613	13.97
451.814	14.27
452.016	14.21
452.217	13.38
452.419	13.44
452.62	13.17
452.821	12.91
453.023	12.69
453.224	12.37
453.426	12.09
453.627	11.15
453.828	11.36
454.03	11.5
454.231	11.41
454.432	11.34
454.634	10.96
454.835	10.65
455.036	10.58
455.238	10.25
455.439	9.91
455.64	9.73
455.841	9.48
456.042	9.64
456.244	9.37
456.445	9.07
456.646	8.75
456.847	8.65
457.048	8.54
457.249	8.63
457.45	8.27
457.651	7.88
457.852	7.74
458.054	7.34
458.255	7.17
458.456	7.36
458.657	7.26
458.858	6.83
459.058	6.77
459.259	6.78
459.46	6.52
459.661	6.51
459.862	6.51
460.063	6.36
460.264	6.35
460.465	6.04
460.666	6.11
460.866	5.82
461.067	5.53
461.268	5.71
461.469	5.54
461.67	5.5
461.87	5.28
462.071	5.36
462.272	5.16
462.473	5.1
462.673	5.26
462.874	5.24
463.075	5.15
463.275	5.17
463.476	5.21
463.676	5.14
463.877	5.05
464.078	4.95
464.278	5.02
464.479	5.02
464.679	4.84
464.88	4.73
465.08	4.64
465.281	4.56
465.481	4.32
465.682	4.16
465.882	4.2
466.083	4.17
466.283	4.06
466.483	3.96
466.684	3.76
466.884	3.68
467.085	3.74
467.285	3.78
467.485	3.63
467.686	3.59
467.886	3.56
468.086	3.42
468.286	3.43
468.487	3.45
468.687	3.29
468.887	3.26
469.087	3.38
469.287	3.3
469.488	3.13
469.688	3.14
469.888	3.19
470.088	3.14
470.288	3.11
470.488	3.03
470.688	2.9
470.888	2.9
471.088	2.74
471.288	2.78
471.488	2.8
471.688	2.71
471.888	2.71
472.088	2.87
472.288	2.7
472.488	2.59
472.688	2.6
472.888	2.64
473.088	2.6
473.288	2.5
473.488	2.49
473.688	2.63
473.887	2.49
474.087	2.47
474.287	2.51
474.487	2.38
474.687	2.45
474.886	2.38
475.086	2.34
475.286	2.39
475.486	2.26
475.685	2.29
475.885	2.22
476.085	2.23
476.284	2.27
476.484	2.25
476.684	2.25
476.883	2.3
477.083	2.22
477.282	2.11
477.482	2.22
477.681	2.17
477.881	2.04
478.08	2.12
478.28	2.07
478.479	2.12
478.679	2.18
478.878	2.06
479.078	2.08
479.277	2.07
479.477	2.12
479.676	2.02
479.875	2.07
480.075	2.02
480.274	2.09
480.473	2.06
480.673	2.03
480.872	2.08
481.071	2.05
481.271	2.08
481.47	2
481.669	2.01
481.868	1.97
482.067	1.99
482.267	1.95
482.466	1.96
482.665	1.97
482.864	2
483.063	1.95
483.262	1.99
483.461	2.04
483.661	2.07
483.86	1.99
484.059	2.05
484.258	2.04
484.457	2.03
484.656	2.07
484.855	2.08
485.054	1.96
485.253	2.01
485.452	1.99
485.651	2.1
485.849	2.02
486.048	2.02
486.247	2.01
486.446	2.1
486.645	2.06
486.844	2.08
487.043	2.06
487.241	2.09
487.44	2.1
487.639	2.13
487.838	2.12
488.037	2.14
488.235	2.16
488.434	2.17
488.633	2.05
488.831	2.22
489.03	2.22
489.229	2.21
489.427	2.21
489.626	2.27
489.825	2.27
490.023	2.31
490.222	2.27
490.42	2.3
490.619	2.33
490.817	2.35
491.016	2.35
491.214	2.38
491.413	2.41
491.611	2.37
491.81	2.39
492.008	2.44
492.207	2.52
492.405	2.5
492.604	2.49
492.802	2.56
493	2.57
493.199	2.59
493.397	2.62
493.595	2.7
493.794	2.64
493.992	2.75
494.19	2.75
494.388	2.86
494.587	2.74
494.785	2.76
494.983	2.71
495.181	2.84
495.379	2.88
495.578	2.93
495.776	3.01
495.974	2.91
496.172	2.94
496.37	3.06
496.568	3.11
496.766	3.1
496.964	3.14
497.162	3.14
497.36	3.22
497.558	3.19
497.756	3.28
497.954	3.3
498.152	3.32
498.35	3.42
498.548	3.36
498.746	3.36
498.944	3.35
499.142	3.45
499.34	3.52
499.538	3.64
499.736	3.53
499.933	3.6
500.131	3.62
500.329	3.78
500.527	3.77
500.725	3.81
500.922	3.85
501.12	3.85
501.318	3.94
501.516	3.87
501.713	4.01
501.911	3.99
502.109	3.97
502.306	4.15
502.504	3.99
