Data from Apollo_Calib_20240827__AbsoluteIrradiance__14__23-23-01-842.txt Node

Date: Tue Aug 27 23:23:01 BST 2024
User: biology
Spectrometer: FLMT08252
Trigger mode: 0
Integration Time (sec): 5.000000E-1
Scans to average: 5
Electric dark correction enabled: true
Nonlinearity correction enabled: false
Boxcar width: 0
XAxis mode: Wavelengths
Number of Pixels in Spectrum: 3648
>>>>>Begin Spectral Data<<<<<
179.588	-0
179.809	-0
180.03	-0
180.251	-0
180.473	-0
180.694	0
180.915	0
181.136	-0
181.357	-0
181.578	0
181.799	0
182.02	-0
182.241	0
182.462	-0
182.683	0
182.904	-0
183.125	-0
183.346	0
183.567	0
183.788	0
184.009	0
184.23	0
184.451	0
184.672	0
184.892	0
185.113	0
185.334	0
185.555	0
185.776	0
185.996	0
186.217	0
186.438	0
186.659	0
186.879	0
187.1	0
187.321	0
187.541	0
187.762	0
187.983	0
188.203	0
188.424	0
188.644	0
188.865	0
189.086	0
189.306	0
189.527	0
189.747	0
189.968	0
190.188	0
190.409	0
190.629	0
190.849	0
191.07	0
191.29	0
191.511	0
191.731	0
191.951	0
192.172	0
192.392	0
192.612	0
192.833	0
193.053	0
193.273	0
193.493	0
193.714	0
193.934	0
194.154	0
194.374	0
194.594	0
194.815	0
195.035	0
195.255	0
195.475	0
195.695	0
195.915	0
196.135	0
196.355	0
196.575	0
196.795	0
197.015	0
197.235	0
197.455	0
197.675	0
197.895	0
198.115	0
198.335	0
198.555	0
198.775	0
198.995	0
199.214	0
199.434	0
199.654	0
199.874	0
200.094	4.03
200.313	2.94
200.533	2.68
200.753	1.87
200.973	3.1
201.192	3.14
201.412	1.33
201.632	2.54
201.851	2.91
202.071	1.28
202.291	2.05
202.51	1.27
202.73	2.68
202.95	2.08
203.169	1.62
203.389	2.26
203.608	1.94
203.828	1.69
204.047	2.36
204.267	2.12
204.486	2.08
204.706	2.3
204.925	1.71
205.145	1.94
205.364	1.99
205.583	2.43
205.803	1.52
206.022	1.06
206.242	1.76
206.461	1.74
206.68	1.65
206.9	1.74
207.119	1.87
207.338	2.15
207.557	1.15
207.777	1.64
207.996	1.17
208.215	2.03
208.434	1.4
208.654	1.22
208.873	1.4
209.092	1.89
209.311	1.36
209.53	1.38
209.749	1.4
209.968	1.11
210.187	1.19
210.407	0.83
210.626	1.28
210.845	1.48
211.064	1.01
211.283	0.97
211.502	1.41
211.721	1.22
211.94	1.18
212.159	1.25
212.377	1.4
212.596	1.5
212.815	1.29
213.034	1.05
213.253	1.23
213.472	1.31
213.691	0.69
213.91	0.86
214.128	0.86
214.347	1.49
214.566	0.68
214.785	0.85
215.003	0.98
215.222	1.15
215.441	0.84
215.66	0.67
215.878	0.77
216.097	1.16
216.316	0.76
216.534	0.93
216.753	0.92
216.972	0.88
217.19	0.95
217.409	0.9
217.627	0.74
217.846	0.73
218.064	1.1
218.283	0.91
218.501	1.14
218.72	0.95
218.938	0.62
219.157	0.69
219.375	1.07
219.594	0.91
219.812	0.73
220.031	0.61
220.249	1.11
220.467	1.16
220.686	0.99
220.904	0.61
221.122	0.78
221.341	1.06
221.559	1.02
221.777	0.56
221.995	0.72
222.214	0.73
222.432	0.49
222.65	0.89
222.868	0.81
223.086	0.91
223.305	0.85
223.523	0.62
223.741	1.16
223.959	0.53
224.177	0.49
224.395	0.72
224.613	0.89
224.831	0.91
225.049	0.63
225.267	0.61
225.485	0.8
225.703	0.74
225.921	0.66
226.139	0.6
226.357	0.81
226.575	0.73
226.793	0.51
227.011	1.25
227.229	0.75
227.447	0.79
227.665	0.65
227.883	0.33
228.1	0.61
228.318	0.55
228.536	0.54
228.754	0.48
228.972	0.66
229.189	0.8
229.407	0.5
229.625	0.64
229.843	0.84
230.06	0.64
230.278	0.51
230.496	0.61
230.713	0.67
230.931	0.82
231.149	0.53
231.366	0.45
231.584	0.56
231.801	0.91
232.019	0.51
232.236	0.52
232.454	0.51
232.671	0.73
232.889	0.56
233.106	0.42
233.324	0.54
233.541	0.6
233.759	0.49
233.976	0.43
234.194	0.52
234.411	0.47
234.628	0.45
234.846	0.46
235.063	0.54
235.28	0.45
235.498	0.51
235.715	0.37
235.932	0.54
236.149	0.45
236.367	0.47
236.584	0.65
236.801	0.48
237.018	0.54
237.236	0.54
237.453	0.42
237.67	0.67
237.887	0.36
238.104	0.46
238.321	0.44
238.538	0.49
238.755	0.6
238.973	0.33
239.19	0.59
239.407	0.51
239.624	0.54
239.841	0.41
240.058	0.41
240.275	0.57
240.492	0.47
240.709	0.49
240.925	0.53
241.142	0.48
241.359	0.4
241.576	0.45
241.793	0.46
242.01	0.5
242.227	0.59
242.444	0.62
242.66	0.72
242.877	0.49
243.094	0.47
243.311	0.48
243.527	0.39
243.744	0.48
243.961	0.59
244.178	0.38
244.394	0.45
244.611	0.53
244.828	0.7
245.044	0.39
245.261	0.5
245.477	0.54
245.694	0.57
245.911	0.34
246.127	0.48
246.344	0.6
246.56	0.46
246.777	0.48
246.993	0.51
247.21	0.49
247.426	0.52
247.643	0.37
247.859	0.33
248.076	0.38
248.292	0.54
248.508	0.39
248.725	0.51
248.941	0.49
249.157	0.49
249.374	0.38
249.59	0.48
249.806	0.49
250.023	0.4
250.239	0.39
250.455	0.36
250.671	0.47
250.888	0.47
251.104	0.53
251.32	0.38
251.536	0.41
251.752	0.36
251.969	0.46
252.185	0.53
252.401	0.54
252.617	0.39
252.833	0.33
253.049	0.46
253.265	0.4
253.481	0.5
253.697	0.37
253.913	0.34
254.129	0.42
254.345	0.35
254.561	0.3
254.777	0.45
254.993	0.54
255.209	0.36
255.425	0.36
255.641	0.36
255.857	0.47
256.073	0.47
256.288	0.28
256.504	0.37
256.72	0.35
256.936	0.5
257.152	0.44
257.367	0.36
257.583	0.36
257.799	0.44
258.015	0.38
258.23	0.28
258.446	0.56
258.662	0.38
258.877	0.37
259.093	0.29
259.309	0.44
259.524	0.41
259.74	0.33
259.955	0.3
260.171	0.42
260.387	0.37
260.602	0.48
260.818	0.49
261.033	0.27
261.249	0.38
261.464	0.37
261.68	0.24
261.895	0.37
262.11	0.44
262.326	0.36
262.541	0.28
262.757	0.42
262.972	0.44
263.187	0.35
263.403	0.4
263.618	0.41
263.833	0.42
264.049	0.35
264.264	0.33
264.479	0.46
264.694	0.52
264.91	0.27
265.125	0.35
265.34	0.45
265.555	0.52
265.77	0.35
265.986	0.33
266.201	0.4
266.416	0.42
266.631	0.31
266.846	0.33
267.061	0.32
267.276	0.42
267.491	0.25
267.706	0.46
267.921	0.35
268.136	0.37
268.351	0.36
268.566	0.3
268.781	0.44
268.996	0.41
269.211	0.34
269.426	0.31
269.641	0.32
269.856	0.39
270.071	0.31
270.285	0.31
270.5	0.35
270.715	0.33
270.93	0.37
271.145	0.35
271.359	0.42
271.574	0.29
271.789	0.39
272.004	0.35
272.218	0.35
272.433	0.44
272.648	0.33
272.862	0.41
273.077	0.34
273.292	0.33
273.506	0.29
273.721	0.31
273.936	0.36
274.15	0.4
274.365	0.31
274.579	0.41
274.794	0.34
275.008	0.44
275.223	0.24
275.437	0.29
275.652	0.48
275.866	0.34
276.081	0.32
276.295	0.41
276.509	0.38
276.724	0.31
276.938	0.36
277.153	0.36
277.367	0.38
277.581	0.36
277.796	0.26
278.01	0.3
278.224	0.42
278.438	0.4
278.653	0.22
278.867	0.31
279.081	0.16
279.295	0.34
279.51	0.33
279.724	0.25
279.938	0.34
280.152	0.34
280.366	0.29
280.58	0.27
280.794	0.34
281.008	0.32
281.222	0.36
281.437	0.39
281.651	0.35
281.865	0.36
282.079	0.32
282.293	0.2
282.507	0.28
282.721	0.31
282.935	0.31
283.148	0.24
283.362	0.23
283.576	0.26
283.79	0.34
284.004	0.23
284.218	0.33
284.432	0.22
284.646	0.31
284.859	0.26
285.073	0.28
285.287	0.32
285.501	0.32
285.714	0.28
285.928	0.32
286.142	0.22
286.356	0.26
286.569	0.33
286.783	0.31
286.997	0.33
287.21	0.34
287.424	0.3
287.637	0.27
287.851	0.26
288.065	0.32
288.278	0.29
288.492	0.32
288.705	0.33
288.919	0.29
289.132	0.2
289.346	0.36
289.559	0.22
289.773	0.26
289.986	0.32
290.2	0.28
290.413	0.34
290.626	0.24
290.84	0.23
291.053	0.28
291.267	0.38
291.48	0.25
291.693	0.29
291.906	0.27
292.12	0.26
292.333	0.21
292.546	0.29
292.76	0.32
292.973	0.3
293.186	0.3
293.399	0.25
293.612	0.3
293.826	0.27
294.039	0.27
294.252	0.26
294.465	0.34
294.678	0.35
294.891	0.27
295.104	0.25
295.317	0.3
295.53	0.28
295.743	0.26
295.956	0.25
296.169	0.31
296.382	0.3
296.595	0.27
296.808	0.28
297.021	0.29
297.234	0.32
297.447	0.28
297.66	0.27
297.873	0.31
298.086	0.33
298.299	0.24
298.511	0.24
298.724	0.28
298.937	0.21
299.15	0.26
299.363	0.29
299.575	0.29
299.788	0.26
300.001	0.22
300.213	0.23
300.426	0.21
300.639	0.21
300.852	0.25
301.064	0.35
301.277	0.36
301.489	0.29
301.702	0.27
301.915	0.24
302.127	0.24
302.34	0.27
302.552	0.33
302.765	0.21
302.977	0.33
303.19	0.25
303.402	0.24
303.615	0.26
303.827	0.27
304.04	0.25
304.252	0.28
304.464	0.27
304.677	0.31
304.889	0.27
305.102	0.24
305.314	0.22
305.526	0.26
305.739	0.3
305.951	0.26
306.163	0.27
306.375	0.35
306.588	0.19
306.8	0.2
307.012	0.23
307.224	0.29
307.436	0.34
307.649	0.18
307.861	0.29
308.073	0.27
308.285	0.25
308.497	0.22
308.709	0.23
308.921	0.3
309.133	0.31
309.346	0.29
309.558	0.27
309.77	0.29
309.982	0.32
310.194	0.31
310.406	0.2
310.617	0.35
310.829	0.24
311.041	0.29
311.253	0.24
311.465	0.25
311.677	0.25
311.889	0.24
312.101	0.27
312.313	0.31
312.524	0.29
312.736	0.2
312.948	0.21
313.16	0.3
313.372	0.27
313.583	0.26
313.795	0.25
314.007	0.18
314.218	0.27
314.43	0.26
314.642	0.25
314.853	0.21
315.065	0.27
315.277	0.23
315.488	0.27
315.7	0.3
315.912	0.25
316.123	0.28
316.335	0.21
316.546	0.37
316.758	0.24
316.969	0.19
317.181	0.25
317.392	0.27
317.604	0.26
317.815	0.2
318.026	0.19
318.238	0.24
318.449	0.24
318.661	0.23
318.872	0.21
319.083	0.21
319.295	0.29
319.506	0.2
319.717	0.26
319.929	0.27
320.14	0.27
320.351	0.28
320.562	0.23
320.774	0.25
320.985	0.26
321.196	0.19
321.407	0.21
321.618	0.27
321.829	0.22
322.041	0.26
322.252	0.21
322.463	0.26
322.674	0.28
322.885	0.24
323.096	0.23
323.307	0.26
323.518	0.26
323.729	0.24
323.94	0.24
324.151	0.24
324.362	0.28
324.573	0.28
324.784	0.22
324.995	0.27
325.206	0.3
325.417	0.25
325.628	0.23
325.838	0.23
326.049	0.26
326.26	0.29
326.471	0.21
326.682	0.27
326.892	0.25
327.103	0.25
327.314	0.25
327.525	0.32
327.735	0.28
327.946	0.28
328.157	0.23
328.368	0.3
328.578	0.22
328.789	0.27
328.999	0.26
329.21	0.22
329.421	0.28
329.631	0.23
329.842	0.23
330.052	0.21
330.263	0.25
330.473	0.32
330.684	0.26
330.894	0.22
331.105	0.23
331.315	0.24
331.526	0.21
331.736	0.32
331.947	0.25
332.157	0.25
332.367	0.19
332.578	0.29
332.788	0.26
332.999	0.33
333.209	0.23
333.419	0.2
333.629	0.3
333.84	0.32
334.05	0.27
334.26	0.29
334.47	0.34
334.681	0.31
334.891	0.23
335.101	0.24
335.311	0.33
335.521	0.29
335.732	0.25
335.942	0.27
336.152	0.26
336.362	0.27
336.572	0.3
336.782	0.27
336.992	0.25
337.202	0.27
337.412	0.21
337.622	0.24
337.832	0.28
338.042	0.27
338.252	0.25
338.462	0.21
338.672	0.24
338.882	0.2
339.092	0.22
339.302	0.34
339.511	0.27
339.721	0.24
339.931	0.22
340.141	0.28
340.351	0.28
340.561	0.23
340.77	0.24
340.98	0.25
341.19	0.27
341.4	0.17
341.609	0.24
341.819	0.21
342.029	0.26
342.238	0.27
342.448	0.21
342.658	0.31
342.867	0.28
343.077	0.27
343.286	0.28
343.496	0.29
343.706	0.29
343.915	0.23
344.125	0.25
344.334	0.26
344.544	0.15
344.753	0.24
344.963	0.24
345.172	0.24
345.381	0.25
345.591	0.27
345.8	0.27
346.01	0.35
346.219	0.31
346.428	0.1
346.638	0.24
346.847	0.3
347.056	0.34
347.266	0.26
347.475	0.28
347.684	0.29
347.893	0.32
348.103	0.24
348.312	0.24
348.521	0.23
348.73	0.28
348.94	0.26
349.149	0.23
349.358	0.25
349.567	0.24
349.776	0.22
349.985	0.24
350.194	0.26
350.403	0.29
350.612	0.21
350.821	0.23
351.03	0.26
351.239	0.19
351.448	0.26
351.657	0.2
351.866	0.31
352.075	0.22
352.284	0.28
352.493	0.15
352.702	0.31
352.911	0.32
353.12	0.25
353.329	0.25
353.538	0.29
353.746	0.23
353.955	0.23
354.164	0.28
354.373	0.25
354.582	0.28
354.79	0.23
354.999	0.3
355.208	0.23
355.416	0.26
355.625	0.24
355.834	0.24
356.042	0.22
356.251	0.25
356.46	0.19
356.668	0.29
356.877	0.33
357.085	0.29
357.294	0.21
357.503	0.29
357.711	0.25
357.92	0.37
358.128	0.24
358.337	0.29
358.545	0.27
358.754	0.2
358.962	0.29
359.17	0.23
359.379	0.24
359.587	0.24
359.796	0.22
360.004	0.29
360.212	0.28
360.421	0.29
360.629	0.24
360.837	0.25
361.046	0.26
361.254	0.31
361.462	0.26
361.67	0.27
361.879	0.28
362.087	0.3
362.295	0.26
362.503	0.21
362.711	0.2
362.92	0.25
363.128	0.22
363.336	0.21
363.544	0.2
363.752	0.22
363.96	0.25
364.168	0.19
364.376	0.23
364.584	0.28
364.792	0.29
365	0.27
365.208	0.25
365.416	0.25
365.624	0.28
365.832	0.24
366.04	0.28
366.248	0.26
366.456	0.24
366.664	0.3
366.872	0.26
367.079	0.26
367.287	0.24
367.495	0.25
367.703	0.2
367.911	0.19
368.118	0.21
368.326	0.26
368.534	0.2
368.742	0.27
368.949	0.22
369.157	0.25
369.365	0.32
369.572	0.22
369.78	0.24
369.988	0.32
370.195	0.29
370.403	0.26
370.61	0.24
370.818	0.27
371.026	0.35
371.233	0.2
371.441	0.28
371.648	0.23
371.856	0.29
372.063	0.26
372.271	0.25
372.478	0.25
372.685	0.25
372.893	0.3
373.1	0.25
373.308	0.27
373.515	0.31
373.722	0.28
373.93	0.24
374.137	0.26
374.344	0.32
374.552	0.32
374.759	0.28
374.966	0.25
375.173	0.24
375.381	0.32
375.588	0.25
375.795	0.2
376.002	0.24
376.209	0.22
376.417	0.26
376.624	0.3
376.831	0.31
377.038	0.27
377.245	0.2
377.452	0.24
377.659	0.24
377.866	0.27
378.073	0.24
378.28	0.27
378.487	0.31
378.694	0.28
378.901	0.28
379.108	0.27
379.315	0.32
379.522	0.38
379.729	0.28
379.936	0.22
380.143	0.2
380.35	0.28
380.557	0.23
380.763	0.28
380.97	0.27
381.177	0.29
381.384	0.25
381.591	0.25
381.797	0.26
382.004	0.25
382.211	0.33
382.418	0.26
382.624	0.25
382.831	0.32
383.038	0.23
383.244	0.26
383.451	0.27
383.658	0.32
383.864	0.25
384.071	0.24
384.277	0.33
384.484	0.27
384.69	0.33
384.897	0.29
385.103	0.29
385.31	0.26
385.516	0.27
385.723	0.27
385.929	0.22
386.136	0.26
386.342	0.28
386.549	0.26
386.755	0.34
386.961	0.3
387.168	0.26
387.374	0.27
387.58	0.27
387.787	0.27
387.993	0.31
388.199	0.26
388.406	0.24
388.612	0.25
388.818	0.31
389.024	0.25
389.231	0.29
389.437	0.35
389.643	0.32
389.849	0.3
390.055	0.29
390.261	0.32
390.467	0.29
390.674	0.3
390.88	0.31
391.086	0.31
391.292	0.26
391.498	0.29
391.704	0.27
391.91	0.29
392.116	0.27
392.322	0.25
392.528	0.32
392.734	0.28
392.94	0.29
393.146	0.31
393.352	0.29
393.557	0.28
393.763	0.28
393.969	0.35
394.175	0.28
394.381	0.33
394.587	0.27
394.792	0.27
394.998	0.35
395.204	0.33
395.41	0.26
395.615	0.32
395.821	0.36
396.027	0.35
396.233	0.26
396.438	0.31
396.644	0.41
396.85	0.39
397.055	0.28
397.261	0.36
397.466	0.44
397.672	0.35
397.878	0.38
398.083	0.37
398.289	0.3
398.494	0.39
398.7	0.36
398.905	0.25
399.111	0.4
399.316	0.29
399.522	0.34
399.727	0.31
399.932	0.34
400.138	0.34
400.343	0.35
400.549	0.37
400.754	0.39
400.959	0.36
401.165	0.34
401.37	0.39
401.575	0.44
401.78	0.37
401.986	0.38
402.191	0.35
402.396	0.37
402.601	0.39
402.807	0.38
403.012	0.38
403.217	0.43
403.422	0.4
403.627	0.39
403.832	0.39
404.037	0.42
404.243	0.45
404.448	0.41
404.653	0.39
404.858	0.48
405.063	0.38
405.268	0.41
405.473	0.43
405.678	0.42
405.883	0.6
406.088	0.49
406.293	0.42
406.498	0.45
406.703	0.49
406.907	0.51
407.112	0.43
407.317	0.5
407.522	0.55
407.727	0.48
407.932	0.52
408.136	0.62
408.341	0.58
408.546	0.54
408.751	0.6
408.956	0.56
409.16	0.63
409.365	0.57
409.57	0.63
409.774	0.6
409.979	0.65
410.184	0.67
410.388	0.59
410.593	0.77
410.798	0.75
411.002	0.71
411.207	0.82
411.411	0.85
411.616	0.77
411.82	0.83
412.025	0.85
412.229	0.85
412.434	0.93
412.638	0.9
412.843	0.92
413.047	0.97
413.252	0.87
413.456	0.99
413.66	1.05
413.865	1.02
414.069	1.1
414.273	1.15
414.478	1.12
414.682	1.17
414.886	1.2
415.091	1.22
415.295	1.26
415.499	1.35
415.703	1.3
415.908	1.46
416.112	1.38
416.316	1.56
416.52	1.55
416.724	1.49
416.929	1.64
417.133	1.82
417.337	1.69
417.541	1.75
417.745	1.84
417.949	1.98
418.153	1.93
418.357	2.01
418.561	2.3
418.765	2.2
418.969	2.29
419.173	2.37
419.377	2.38
419.581	2.55
419.785	2.58
419.989	2.61
420.193	2.79
420.397	2.89
420.601	2.91
420.804	3.07
421.008	3.04
421.212	3.25
421.416	3.23
421.62	3.26
421.823	3.36
422.027	3.44
422.231	3.43
422.435	3.51
422.638	3.51
422.842	3.63
423.046	3.68
423.249	3.88
423.453	3.9
423.657	4.01
423.86	4.07
424.064	4.24
424.268	4.41
424.471	4.43
424.675	4.58
424.878	4.71
425.082	4.91
425.285	5.22
425.489	4.99
425.692	5.17
425.896	5.15
426.099	5.39
426.303	5.51
426.506	5.73
426.71	5.88
426.913	6.1
427.116	6.23
427.32	6.4
427.523	6.39
427.726	6.61
427.93	6.78
428.133	7.1
428.336	7.25
428.54	7.31
428.743	7.58
428.946	7.83
429.149	7.77
429.353	7.92
429.556	7.99
429.759	7.97
429.962	8.1
430.165	8.28
430.368	7.95
430.571	8.05
430.775	8
430.978	8.13
431.181	8.02
431.384	8.16
431.587	8.22
431.79	8.65
431.993	8.55
432.196	8.92
432.399	9.21
432.602	9.37
432.805	9.39
433.008	10.02
433.211	9.89
433.414	10.14
433.616	10.23
433.819	10.19
434.022	10.47
434.225	10.56
434.428	10.55
434.631	10.94
434.833	10.76
435.036	11.02
435.239	11.18
435.442	11.35
435.645	11.51
435.847	11.51
436.05	11.81
436.253	12.01
436.455	12.11
436.658	11.85
436.861	12.22
437.063	12.38
437.266	12.37
437.468	12.68
437.671	12.98
437.874	13.06
438.076	13.04
438.279	13.53
438.481	13.36
438.684	14.12
438.886	13.75
439.089	14.14
439.291	14.17
439.494	14.54
439.696	14.68
439.899	15.13
440.101	15.62
440.303	15.74
440.506	16.51
440.708	16.18
440.91	16.43
441.113	16.7
441.315	16.74
441.517	16.64
441.72	17.16
441.922	16.76
442.124	16.76
442.326	17.17
442.529	17.36
442.731	17.35
442.933	17.7
443.135	17.45
443.337	17.3
443.539	17.9
443.742	17.7
443.944	18.38
444.146	18.07
444.348	18.04
444.55	17.9
444.752	18.14
444.954	18.14
445.156	17.94
445.358	18.44
445.56	18.63
445.762	18.39
445.964	18.73
446.166	18.6
446.368	18.67
446.57	18.58
446.772	18.2
446.974	17.93
447.175	18.25
447.377	17.92
447.579	18.5
447.781	18.06
447.983	17.81
448.184	17.4
448.386	17.88
448.588	17.45
448.79	17.23
448.991	17.63
449.193	17.67
449.395	16.86
449.597	16.52
449.798	16.4
450	15.98
450.202	15.9
450.403	15.96
450.605	15.82
450.806	15.45
451.008	15.37
451.21	15.09
451.411	14.68
451.613	13.95
451.814	14.19
452.016	14.18
452.217	13.43
452.419	13.52
452.62	13.08
452.821	12.99
453.023	12.7
453.224	12.28
453.426	11.94
453.627	11.1
453.828	11.32
454.03	11.43
454.231	11.3
454.432	11.23
454.634	10.9
454.835	10.57
455.036	10.54
455.238	10.14
455.439	9.92
455.64	9.66
455.841	9.47
456.042	9.66
456.244	9.23
456.445	8.91
456.646	8.72
456.847	8.66
457.048	8.58
457.249	8.65
457.45	8.23
457.651	7.87
457.852	7.66
458.054	7.3
458.255	7.3
458.456	7.33
458.657	7.28
458.858	6.76
459.058	6.68
459.259	6.79
459.46	6.5
459.661	6.44
459.862	6.58
460.063	6.41
460.264	6.28
460.465	6.07
460.666	6.09
460.866	5.81
461.067	5.54
461.268	5.6
461.469	5.51
461.67	5.44
461.87	5.34
462.071	5.29
462.272	5.19
462.473	5.14
462.673	5.35
462.874	5.23
463.075	5.18
463.275	5.1
463.476	5.2
463.676	5.15
463.877	4.95
464.078	4.95
464.278	5.09
464.479	4.92
464.679	4.77
464.88	4.78
465.08	4.73
465.281	4.53
465.481	4.32
465.682	4.13
465.882	4.15
466.083	4.22
466.283	4.03
466.483	4.01
466.684	3.76
466.884	3.75
467.085	3.71
467.285	3.77
467.485	3.66
467.686	3.52
467.886	3.44
468.086	3.4
468.286	3.37
468.487	3.49
468.687	3.3
468.887	3.22
469.087	3.37
469.287	3.25
469.488	3.06
469.688	3.23
469.888	3.2
470.088	3.12
470.288	3.08
470.488	2.98
470.688	2.87
470.888	2.86
471.088	2.71
471.288	2.76
471.488	2.82
471.688	2.74
471.888	2.67
472.088	2.85
472.288	2.7
472.488	2.62
472.688	2.53
472.888	2.6
473.088	2.62
473.288	2.48
473.488	2.48
473.688	2.58
473.887	2.47
474.087	2.48
474.287	2.49
474.487	2.39
474.687	2.41
474.886	2.4
475.086	2.33
475.286	2.35
475.486	2.29
475.685	2.22
475.885	2.22
476.085	2.22
476.284	2.24
476.484	2.29
476.684	2.29
476.883	2.31
477.083	2.17
477.282	2.13
477.482	2.21
477.681	2.18
477.881	2.1
478.08	2.09
478.28	2.05
478.479	2.09
478.679	2.12
478.878	2.01
479.078	2.04
479.277	2.04
479.477	2.03
479.676	2
479.875	2.06
480.075	2.01
480.274	1.98
480.473	2.08
480.673	2.03
480.872	2.11
481.071	2.02
481.271	2.09
481.47	2.03
481.669	1.99
481.868	1.93
482.067	2.04
482.267	1.92
482.466	1.99
482.665	1.96
482.864	1.97
483.063	1.96
483.262	2
483.461	2.01
483.661	2.05
483.86	2
484.059	2.06
484.258	2.03
484.457	2
484.656	2.02
484.855	2.08
485.054	1.91
485.253	1.99
485.452	1.95
485.651	2.01
485.849	1.97
486.048	2.01
486.247	2.01
486.446	2.03
486.645	2.07
486.844	2.04
487.043	2.04
487.241	2.08
487.44	2.06
487.639	2.19
487.838	2.13
488.037	2.15
488.235	2.19
488.434	2.15
488.633	2.08
488.831	2.2
489.03	2.22
489.229	2.17
489.427	2.19
489.626	2.26
489.825	2.23
490.023	2.31
490.222	2.32
490.42	2.3
490.619	2.33
490.817	2.39
491.016	2.33
491.214	2.4
491.413	2.44
491.611	2.37
491.81	2.41
492.008	2.41
492.207	2.53
492.405	2.55
492.604	2.43
492.802	2.52
493	2.55
493.199	2.6
493.397	2.64
493.595	2.7
493.794	2.62
493.992	2.76
494.19	2.74
494.388	2.8
494.587	2.76
494.785	2.75
494.983	2.71
495.181	2.8
495.379	2.89
495.578	2.94
495.776	2.91
495.974	2.9
496.172	3
496.37	3.06
496.568	3.08
496.766	3.06
496.964	3.2
497.162	3.21
497.36	3.19
497.558	3.24
497.756	3.29
497.954	3.27
498.152	3.36
498.35	3.48
498.548	3.34
498.746	3.38
498.944	3.38
499.142	3.46
499.34	3.48
499.538	3.62
499.736	3.46
499.933	3.59
500.131	3.61
500.329	3.82
500.527	3.75
500.725	3.84
500.922	3.86
501.12	3.84
501.318	3.93
501.516	3.95
501.713	4
501.911	3.95
502.109	3.97
502.306	4.05
502.504	3.99
502.701	4.03
