Data from Apollo_Calib_20240827__AbsoluteIrradiance__845__13-14-02-837.txt Node

Date: Wed Aug 28 13:14:02 BST 2024
User: biology
Spectrometer: FLMT08252
Trigger mode: 0
Integration Time (sec): 5.000000E-1
Scans to average: 5
Electric dark correction enabled: true
Nonlinearity correction enabled: false
Boxcar width: 0
XAxis mode: Wavelengths
Number of Pixels in Spectrum: 3648
>>>>>Begin Spectral Data<<<<<
179.588	-0
179.809	-0
180.03	-0
180.251	-0
180.473	-0
180.694	0
180.915	0
181.136	-0
181.357	0
181.578	-0
181.799	-0
182.02	-0
182.241	0
182.462	-0
182.683	0
182.904	-0
183.125	-0
183.346	0
183.567	0
183.788	0
184.009	0
184.23	0
184.451	0
184.672	0
184.892	0
185.113	0
185.334	0
185.555	0
185.776	0
185.996	0
186.217	0
186.438	0
186.659	0
186.879	0
187.1	0
187.321	0
187.541	0
187.762	0
187.983	0
188.203	0
188.424	0
188.644	0
188.865	0
189.086	0
189.306	0
189.527	0
189.747	0
189.968	0
190.188	0
190.409	0
190.629	0
190.849	0
191.07	0
191.29	0
191.511	0
191.731	0
191.951	0
192.172	0
192.392	0
192.612	0
192.833	0
193.053	0
193.273	0
193.493	0
193.714	0
193.934	0
194.154	0
194.374	0
194.594	0
194.815	0
195.035	0
195.255	0
195.475	0
195.695	0
195.915	0
196.135	0
196.355	0
196.575	0
196.795	0
197.015	0
197.235	0
197.455	0
197.675	0
197.895	0
198.115	0
198.335	0
198.555	0
198.775	0
198.995	0
199.214	0
199.434	0
199.654	0
199.874	0
200.094	4.37
200.313	2.74
200.533	2.36
200.753	1.51
200.973	3.56
201.192	3.48
201.412	1.12
201.632	1.7
201.851	2.87
202.071	1.56
202.291	1.77
202.51	1.23
202.73	2.99
202.95	2.08
203.169	1.32
203.389	2.11
203.608	2.01
203.828	1.62
204.047	1.61
204.267	2.38
204.486	2.1
204.706	2.28
204.925	2.02
205.145	1.29
205.364	2.71
205.583	3.02
205.803	0.99
206.022	1.27
206.242	1.68
206.461	1.26
206.68	1.42
206.9	1.66
207.119	2.43
207.338	2.3
207.557	1.04
207.777	1.45
207.996	1.4
208.215	2.42
208.434	0.75
208.654	0.97
208.873	1.63
209.092	2.25
209.311	1.18
209.53	1.19
209.749	1.37
209.968	1.19
210.187	1.31
210.407	0.49
210.626	1.15
210.845	1.72
211.064	0.96
211.283	0.81
211.502	1.66
211.721	1.49
211.94	1.26
212.159	1.46
212.377	1.34
212.596	1.57
212.815	1.05
213.034	1.33
213.253	1.44
213.472	1.47
213.691	0.83
213.91	0.61
214.128	0.64
214.347	1.64
214.566	0.5
214.785	0.61
215.003	1.48
215.222	1.19
215.441	0.87
215.66	0.58
215.878	0.96
216.097	1.17
216.316	0.84
216.534	0.81
216.753	1.17
216.972	0.73
217.19	0.91
217.409	0.64
217.627	0.67
217.846	0.71
218.064	0.85
218.283	0.72
218.501	1.34
218.72	1.27
218.938	0.67
219.157	0.69
219.375	1.04
219.594	1.08
219.812	0.5
220.031	0.51
220.249	1.37
220.467	1.27
220.686	0.54
220.904	0.34
221.122	0.73
221.341	1.39
221.559	0.86
221.777	0.49
221.995	0.75
222.214	1
222.432	0.61
222.65	0.9
222.868	0.89
223.086	0.86
223.305	0.94
223.523	0.71
223.741	1.13
223.959	0.7
224.177	0.41
224.395	0.59
224.613	0.99
224.831	1.03
225.049	0.3
225.267	0.63
225.485	0.7
225.703	0.69
225.921	0.71
226.139	0.54
226.357	0.82
226.575	0.85
226.793	0.38
227.011	1.49
227.229	0.72
227.447	0.86
227.665	0.59
227.883	0.3
228.1	0.68
228.318	0.86
228.536	0.18
228.754	0.49
228.972	0.76
229.189	0.8
229.407	0.54
229.625	0.62
229.843	0.87
230.06	0.78
230.278	0.44
230.496	0.57
230.713	0.85
230.931	0.81
231.149	0.49
231.366	0.28
231.584	0.54
231.801	1.11
232.019	0.54
232.236	0.32
232.454	0.41
232.671	0.72
232.889	0.41
233.106	0.35
233.324	0.66
233.541	0.5
233.759	0.47
233.976	0.38
234.194	0.55
234.411	0.51
234.628	0.31
234.846	0.37
235.063	0.57
235.28	0.55
235.498	0.52
235.715	0.29
235.932	0.92
236.149	0.61
236.367	0.36
236.584	0.53
236.801	0.48
237.018	0.74
237.236	0.6
237.453	0.28
237.67	0.71
237.887	0.44
238.104	0.53
238.321	0.29
238.538	0.44
238.755	0.7
238.973	0.25
239.19	0.39
239.407	0.67
239.624	0.57
239.841	0.39
240.058	0.39
240.275	0.61
240.492	0.62
240.709	0.53
240.925	0.41
241.142	0.51
241.359	0.33
241.576	0.28
241.793	0.44
242.01	0.51
242.227	0.58
242.444	0.57
242.66	0.57
242.877	0.49
243.094	0.45
243.311	0.49
243.527	0.38
243.744	0.55
243.961	0.51
244.178	0.37
244.394	0.51
244.611	0.56
244.828	0.69
245.044	0.33
245.261	0.37
245.477	0.51
245.694	0.65
245.911	0.37
246.127	0.44
246.344	0.67
246.56	0.55
246.777	0.37
246.993	0.44
247.21	0.45
247.426	0.6
247.643	0.32
247.859	0.41
248.076	0.33
248.292	0.62
248.508	0.36
248.725	0.48
248.941	0.49
249.157	0.61
249.374	0.37
249.59	0.34
249.806	0.44
250.023	0.62
250.239	0.38
250.455	0.31
250.671	0.45
250.888	0.41
251.104	0.48
251.32	0.35
251.536	0.3
251.752	0.39
251.969	0.44
252.185	0.41
252.401	0.61
252.617	0.39
252.833	0.39
253.049	0.45
253.265	0.39
253.481	0.43
253.697	0.34
253.913	0.32
254.129	0.51
254.345	0.5
254.561	0.33
254.777	0.34
254.993	0.48
255.209	0.47
255.425	0.25
255.641	0.3
255.857	0.51
256.073	0.45
256.288	0.24
256.504	0.33
256.72	0.52
256.936	0.59
257.152	0.38
257.367	0.35
257.583	0.43
257.799	0.47
258.015	0.34
258.23	0.35
258.446	0.61
258.662	0.39
258.877	0.22
259.093	0.33
259.309	0.41
259.524	0.38
259.74	0.34
259.955	0.26
260.171	0.35
260.387	0.4
260.602	0.44
260.818	0.42
261.033	0.25
261.249	0.43
261.464	0.32
261.68	0.27
261.895	0.4
262.11	0.44
262.326	0.35
262.541	0.22
262.757	0.49
262.972	0.46
263.187	0.32
263.403	0.41
263.618	0.58
263.833	0.37
264.049	0.31
264.264	0.33
264.479	0.43
264.694	0.49
264.91	0.25
265.125	0.39
265.34	0.4
265.555	0.57
265.77	0.37
265.986	0.33
266.201	0.42
266.416	0.5
266.631	0.25
266.846	0.3
267.061	0.48
267.276	0.48
267.491	0.15
267.706	0.41
267.921	0.44
268.136	0.43
268.351	0.35
268.566	0.22
268.781	0.44
268.996	0.41
269.211	0.32
269.426	0.26
269.641	0.3
269.856	0.44
270.071	0.31
270.285	0.24
270.5	0.46
270.715	0.44
270.93	0.32
271.145	0.34
271.359	0.49
271.574	0.31
271.789	0.32
272.004	0.31
272.218	0.33
272.433	0.33
272.648	0.29
272.862	0.44
273.077	0.35
273.292	0.36
273.506	0.25
273.721	0.28
273.936	0.37
274.15	0.46
274.365	0.31
274.579	0.37
274.794	0.36
275.008	0.46
275.223	0.18
275.437	0.28
275.652	0.46
275.866	0.42
276.081	0.28
276.295	0.43
276.509	0.31
276.724	0.34
276.938	0.34
277.153	0.37
277.367	0.4
277.581	0.29
277.796	0.25
278.01	0.23
278.224	0.38
278.438	0.46
278.653	0.25
278.867	0.25
279.081	0.26
279.295	0.33
279.51	0.31
279.724	0.19
279.938	0.35
280.152	0.44
280.366	0.3
280.58	0.29
280.794	0.45
281.008	0.43
281.222	0.35
281.437	0.53
281.651	0.39
281.865	0.36
282.079	0.28
282.293	0.16
282.507	0.27
282.721	0.35
282.935	0.26
283.148	0.16
283.362	0.29
283.576	0.18
283.79	0.31
284.004	0.26
284.218	0.41
284.432	0.26
284.646	0.33
284.859	0.23
285.073	0.26
285.287	0.35
285.501	0.25
285.714	0.28
285.928	0.3
286.142	0.3
286.356	0.23
286.569	0.21
286.783	0.41
286.997	0.4
287.21	0.31
287.424	0.27
287.637	0.3
287.851	0.29
288.065	0.32
288.278	0.27
288.492	0.32
288.705	0.27
288.919	0.29
289.132	0.24
289.346	0.31
289.559	0.23
289.773	0.25
289.986	0.29
290.2	0.3
290.413	0.4
290.626	0.25
290.84	0.27
291.053	0.3
291.267	0.4
291.48	0.27
291.693	0.25
291.906	0.2
292.12	0.3
292.333	0.25
292.546	0.27
292.76	0.38
292.973	0.32
293.186	0.34
293.399	0.25
293.612	0.34
293.826	0.28
294.039	0.25
294.252	0.22
294.465	0.32
294.678	0.31
294.891	0.28
295.104	0.2
295.317	0.29
295.53	0.3
295.743	0.29
295.956	0.23
296.169	0.42
296.382	0.29
296.595	0.25
296.808	0.27
297.021	0.36
297.234	0.31
297.447	0.29
297.66	0.3
297.873	0.34
298.086	0.34
298.299	0.2
298.511	0.15
298.724	0.29
298.937	0.22
299.15	0.21
299.363	0.27
299.575	0.32
299.788	0.25
300.001	0.24
300.213	0.19
300.426	0.23
300.639	0.2
300.852	0.22
301.064	0.33
301.277	0.4
301.489	0.33
301.702	0.26
301.915	0.24
302.127	0.26
302.34	0.3
302.552	0.29
302.765	0.22
302.977	0.36
303.19	0.25
303.402	0.2
303.615	0.26
303.827	0.26
304.04	0.3
304.252	0.28
304.464	0.25
304.677	0.39
304.889	0.32
305.102	0.23
305.314	0.23
305.526	0.32
305.739	0.32
305.951	0.21
306.163	0.21
306.375	0.38
306.588	0.21
306.8	0.23
307.012	0.15
307.224	0.29
307.436	0.33
307.649	0.15
307.861	0.26
308.073	0.27
308.285	0.23
308.497	0.21
308.709	0.2
308.921	0.3
309.133	0.3
309.346	0.26
309.558	0.25
309.77	0.32
309.982	0.32
310.194	0.28
310.406	0.21
310.617	0.34
310.829	0.29
311.041	0.29
311.253	0.2
311.465	0.28
311.677	0.25
311.889	0.21
312.101	0.22
312.313	0.31
312.524	0.33
312.736	0.16
312.948	0.22
313.16	0.39
313.372	0.35
313.583	0.26
313.795	0.21
314.007	0.26
314.218	0.32
314.43	0.26
314.642	0.23
314.853	0.15
315.065	0.33
315.277	0.21
315.488	0.24
315.7	0.3
315.912	0.31
316.123	0.26
316.335	0.2
316.546	0.39
316.758	0.28
316.969	0.23
317.181	0.23
317.392	0.26
317.604	0.35
317.815	0.21
318.026	0.23
318.238	0.23
318.449	0.35
318.661	0.17
318.872	0.19
319.083	0.23
319.295	0.28
319.506	0.23
319.717	0.25
319.929	0.28
320.14	0.27
320.351	0.26
320.562	0.23
320.774	0.26
320.985	0.29
321.196	0.2
321.407	0.19
321.618	0.3
321.829	0.28
322.041	0.29
322.252	0.23
322.463	0.29
322.674	0.34
322.885	0.19
323.096	0.26
323.307	0.29
323.518	0.29
323.729	0.24
323.94	0.2
324.151	0.25
324.362	0.28
324.573	0.27
324.784	0.23
324.995	0.33
325.206	0.28
325.417	0.22
325.628	0.22
325.838	0.22
326.049	0.29
326.26	0.25
326.471	0.22
326.682	0.25
326.892	0.29
327.103	0.16
327.314	0.2
327.525	0.35
327.735	0.31
327.946	0.27
328.157	0.24
328.368	0.36
328.578	0.24
328.789	0.31
328.999	0.23
329.21	0.23
329.421	0.34
329.631	0.23
329.842	0.22
330.052	0.25
330.263	0.29
330.473	0.3
330.684	0.23
330.894	0.26
331.105	0.24
331.315	0.26
331.526	0.18
331.736	0.36
331.947	0.33
332.157	0.25
332.367	0.23
332.578	0.31
332.788	0.35
332.999	0.3
333.209	0.22
333.419	0.2
333.629	0.27
333.84	0.3
334.05	0.28
334.26	0.34
334.47	0.26
334.681	0.32
334.891	0.24
335.101	0.31
335.311	0.38
335.521	0.26
335.732	0.16
335.942	0.33
336.152	0.21
336.362	0.25
336.572	0.26
336.782	0.32
336.992	0.24
337.202	0.23
337.412	0.21
337.622	0.3
337.832	0.27
338.042	0.27
338.252	0.19
338.462	0.22
338.672	0.22
338.882	0.21
339.092	0.21
339.302	0.37
339.511	0.31
339.721	0.24
339.931	0.2
340.141	0.32
340.351	0.32
340.561	0.27
340.77	0.27
340.98	0.29
341.19	0.28
341.4	0.27
341.609	0.18
341.819	0.3
342.029	0.17
342.238	0.26
342.448	0.24
342.658	0.3
342.867	0.25
343.077	0.3
343.286	0.23
343.496	0.3
343.706	0.34
343.915	0.23
344.125	0.26
344.334	0.31
344.544	0.21
344.753	0.2
344.963	0.25
345.172	0.23
345.381	0.22
345.591	0.2
345.8	0.24
346.01	0.3
346.219	0.33
346.428	0.11
346.638	0.24
346.847	0.19
347.056	0.34
347.266	0.19
347.475	0.24
347.684	0.3
347.893	0.33
348.103	0.3
348.312	0.18
348.521	0.24
348.73	0.27
348.94	0.24
349.149	0.23
349.358	0.25
349.567	0.23
349.776	0.18
349.985	0.21
350.194	0.33
350.403	0.34
350.612	0.15
350.821	0.18
351.03	0.32
351.239	0.25
351.448	0.27
351.657	0.21
351.866	0.33
352.075	0.26
352.284	0.32
352.493	0.19
352.702	0.34
352.911	0.28
353.12	0.27
353.329	0.2
353.538	0.3
353.746	0.25
353.955	0.23
354.164	0.24
354.373	0.24
354.582	0.31
354.79	0.28
354.999	0.27
355.208	0.23
355.416	0.36
355.625	0.22
355.834	0.23
356.042	0.28
356.251	0.22
356.46	0.21
356.668	0.28
356.877	0.36
357.085	0.3
357.294	0.16
357.503	0.23
357.711	0.24
357.92	0.42
358.128	0.27
358.337	0.21
358.545	0.26
358.754	0.23
358.962	0.32
359.17	0.28
359.379	0.28
359.587	0.28
359.796	0.24
360.004	0.28
360.212	0.28
360.421	0.33
360.629	0.24
360.837	0.25
361.046	0.31
361.254	0.41
361.462	0.24
361.67	0.17
361.879	0.32
362.087	0.34
362.295	0.24
362.503	0.24
362.711	0.19
362.92	0.23
363.128	0.19
363.336	0.22
363.544	0.15
363.752	0.24
363.96	0.22
364.168	0.18
364.376	0.23
364.584	0.24
364.792	0.32
365	0.24
365.208	0.27
365.416	0.32
365.624	0.32
365.832	0.21
366.04	0.32
366.248	0.23
366.456	0.25
366.664	0.28
366.872	0.21
367.079	0.26
367.287	0.24
367.495	0.22
367.703	0.22
367.911	0.25
368.118	0.27
368.326	0.25
368.534	0.23
368.742	0.32
368.949	0.2
369.157	0.16
369.365	0.27
369.572	0.23
369.78	0.23
369.988	0.29
370.195	0.24
370.403	0.27
370.61	0.21
370.818	0.28
371.026	0.34
371.233	0.25
371.441	0.27
371.648	0.25
371.856	0.29
372.063	0.26
372.271	0.2
372.478	0.22
372.685	0.22
372.893	0.32
373.1	0.26
373.308	0.2
373.515	0.38
373.722	0.32
373.93	0.23
374.137	0.29
374.344	0.38
374.552	0.33
374.759	0.31
374.966	0.24
375.173	0.26
375.381	0.35
375.588	0.23
375.795	0.18
376.002	0.29
376.209	0.24
376.417	0.25
376.624	0.25
376.831	0.29
377.038	0.25
377.245	0.17
377.452	0.24
377.659	0.26
377.866	0.24
378.073	0.27
378.28	0.27
378.487	0.29
378.694	0.33
378.901	0.22
379.108	0.22
379.315	0.28
379.522	0.36
379.729	0.28
379.936	0.22
380.143	0.31
380.35	0.26
380.557	0.22
380.763	0.25
380.97	0.27
381.177	0.29
381.384	0.3
381.591	0.2
381.797	0.24
382.004	0.28
382.211	0.3
382.418	0.24
382.624	0.3
382.831	0.33
383.038	0.26
383.244	0.3
383.451	0.29
383.658	0.35
383.864	0.23
384.071	0.22
384.277	0.35
384.484	0.26
384.69	0.33
384.897	0.24
385.103	0.25
385.31	0.25
385.516	0.27
385.723	0.2
385.929	0.26
386.136	0.26
386.342	0.33
386.549	0.2
386.755	0.37
386.961	0.33
387.168	0.24
387.374	0.26
387.58	0.33
387.787	0.3
387.993	0.3
388.199	0.29
388.406	0.24
388.612	0.29
388.818	0.26
389.024	0.24
389.231	0.31
389.437	0.37
389.643	0.31
389.849	0.31
390.055	0.3
390.261	0.32
390.467	0.37
390.674	0.24
390.88	0.32
391.086	0.31
391.292	0.3
391.498	0.29
391.704	0.33
391.91	0.26
392.116	0.26
392.322	0.22
392.528	0.32
392.734	0.31
392.94	0.33
393.146	0.3
393.352	0.34
393.557	0.3
393.763	0.27
393.969	0.37
394.175	0.33
394.381	0.32
394.587	0.23
394.792	0.31
394.998	0.39
395.204	0.34
395.41	0.27
395.615	0.35
395.821	0.34
396.027	0.36
396.233	0.29
396.438	0.35
396.644	0.36
396.85	0.33
397.055	0.33
397.261	0.33
397.466	0.44
397.672	0.34
397.878	0.34
398.083	0.33
398.289	0.35
398.494	0.44
398.7	0.38
398.905	0.29
399.111	0.42
399.316	0.3
399.522	0.33
399.727	0.38
399.932	0.35
400.138	0.3
400.343	0.37
400.549	0.27
400.754	0.36
400.959	0.38
401.165	0.36
401.37	0.4
401.575	0.51
401.78	0.39
401.986	0.35
402.191	0.32
402.396	0.36
402.601	0.43
402.807	0.41
403.012	0.37
403.217	0.43
403.422	0.46
403.627	0.44
403.832	0.36
404.037	0.48
404.243	0.45
404.448	0.42
404.653	0.43
404.858	0.46
405.063	0.51
405.268	0.42
405.473	0.35
405.678	0.43
405.883	0.69
406.088	0.54
406.293	0.38
406.498	0.52
406.703	0.49
406.907	0.47
407.112	0.43
407.317	0.52
407.522	0.59
407.727	0.47
407.932	0.47
408.136	0.65
408.341	0.53
408.546	0.63
408.751	0.58
408.956	0.58
409.16	0.7
409.365	0.58
409.57	0.6
409.774	0.61
409.979	0.69
410.184	0.69
410.388	0.65
410.593	0.74
410.798	0.76
411.002	0.7
411.207	0.87
411.411	0.84
411.616	0.77
411.82	0.81
412.025	0.82
412.229	0.84
412.434	0.99
412.638	0.87
412.843	0.95
413.047	0.93
413.252	0.88
413.456	1.03
413.66	1
413.865	1.03
414.069	1.19
414.273	1.06
414.478	1.11
414.682	1.14
414.886	1.24
415.091	1.15
415.295	1.29
415.499	1.41
415.703	1.35
415.908	1.48
416.112	1.38
416.316	1.62
416.52	1.6
416.724	1.5
416.929	1.57
417.133	1.87
417.337	1.72
417.541	1.83
417.745	1.81
417.949	1.94
418.153	2.04
418.357	2.03
418.561	2.27
418.765	2.22
418.969	2.33
419.173	2.41
419.377	2.37
419.581	2.71
419.785	2.67
419.989	2.65
420.193	2.74
420.397	2.84
420.601	3.03
420.804	3.08
421.008	3.09
421.212	3.27
421.416	3.22
421.62	3.23
421.823	3.35
422.027	3.5
422.231	3.49
422.435	3.53
422.638	3.54
422.842	3.62
423.046	3.7
423.249	3.91
423.453	3.92
423.657	4.08
423.86	4.19
424.064	4.4
424.268	4.45
424.471	4.44
424.675	4.63
424.878	4.8
425.082	4.76
425.285	5.3
425.489	5.08
425.692	5.19
425.896	5.28
426.099	5.39
426.303	5.57
426.506	5.69
426.71	5.99
426.913	6.22
427.116	6.38
427.32	6.27
427.523	6.36
427.726	6.7
427.93	6.79
428.133	7.09
428.336	7.25
428.54	7.36
428.743	7.62
428.946	7.9
429.149	7.81
429.353	7.84
429.556	7.99
429.759	7.96
429.962	8.13
430.165	8.25
430.368	7.99
430.571	7.97
430.775	8.03
430.978	8.03
431.181	8.04
431.384	8.22
431.587	8.34
431.79	8.69
431.993	8.57
432.196	8.94
432.399	9.27
432.602	9.42
432.805	9.48
433.008	9.98
433.211	9.95
433.414	10.3
433.616	10.34
433.819	10.25
434.022	10.42
434.225	10.63
434.428	10.6
434.631	10.99
434.833	10.67
435.036	10.94
435.239	11.24
435.442	11.27
435.645	11.46
435.847	11.52
436.05	11.87
436.253	12.06
436.455	12.02
436.658	11.98
436.861	12.37
437.063	12.43
437.266	12.47
437.468	12.69
437.671	12.99
437.874	13.14
438.076	12.98
438.279	13.43
438.481	13.49
438.684	14.14
438.886	13.79
439.089	13.99
439.291	14.07
439.494	14.57
439.696	14.71
439.899	15.19
440.101	15.62
440.303	15.67
440.506	16.35
440.708	16.08
440.91	16.44
441.113	16.66
441.315	16.86
441.517	16.62
441.72	17.21
441.922	16.81
442.124	16.69
442.326	17.04
442.529	17.41
442.731	17.36
442.933	17.59
443.135	17.41
443.337	17.32
443.539	17.88
443.742	17.66
443.944	18.2
444.146	17.97
444.348	17.99
444.55	17.88
444.752	18.02
444.954	17.98
445.156	17.84
445.358	18.35
445.56	18.63
445.762	18.42
445.964	18.75
446.166	18.5
446.368	18.52
446.57	18.42
446.772	18.1
446.974	17.81
447.175	18.16
447.377	17.87
447.579	18.22
447.781	17.96
447.983	17.65
448.184	17.36
448.386	17.71
448.588	17.23
448.79	17.09
448.991	17.32
449.193	17.42
449.395	16.83
449.597	16.41
449.798	16.23
450	15.89
450.202	15.81
450.403	15.81
450.605	15.65
450.806	15.43
451.008	15.18
451.21	14.9
451.411	14.54
451.613	13.69
451.814	14.03
452.016	14.02
452.217	13.22
452.419	13.35
452.62	13.04
452.821	12.65
453.023	12.59
453.224	12.24
453.426	11.77
453.627	11.01
453.828	11.23
454.03	11.33
454.231	11.17
454.432	11.01
454.634	10.75
454.835	10.42
455.036	10.37
455.238	10.08
455.439	9.76
455.64	9.46
455.841	9.48
456.042	9.49
456.244	9.22
456.445	8.83
456.646	8.57
456.847	8.51
457.048	8.45
457.249	8.35
457.45	8.29
457.651	7.69
457.852	7.63
458.054	7.25
458.255	7.15
458.456	7.27
458.657	7.25
458.858	6.71
459.058	6.62
459.259	6.69
459.46	6.48
459.661	6.35
459.862	6.47
460.063	6.35
460.264	6.25
460.465	5.9
460.666	6.09
460.866	5.8
461.067	5.53
461.268	5.53
461.469	5.43
461.67	5.41
461.87	5.22
462.071	5.31
462.272	5.07
462.473	5.01
462.673	5.32
462.874	5.12
463.075	5.09
463.275	5.11
463.476	5.24
463.676	5.02
463.877	4.95
464.078	4.99
464.278	4.98
464.479	4.83
464.679	4.75
464.88	4.67
465.08	4.67
465.281	4.46
465.481	4.28
465.682	4.14
465.882	4.09
466.083	4.09
466.283	4.02
466.483	3.91
466.684	3.66
466.884	3.65
467.085	3.67
467.285	3.77
467.485	3.58
467.686	3.56
467.886	3.4
468.086	3.33
468.286	3.31
468.487	3.43
468.687	3.25
468.887	3.26
469.087	3.36
469.287	3.2
469.488	3.01
469.688	3.21
469.888	3.17
470.088	3.17
470.288	3.07
470.488	3.08
470.688	2.86
470.888	2.81
471.088	2.7
471.288	2.83
471.488	2.74
471.688	2.67
471.888	2.63
472.088	2.83
472.288	2.75
472.488	2.63
472.688	2.5
472.888	2.6
473.088	2.63
473.288	2.53
473.488	2.48
473.688	2.65
473.887	2.49
474.087	2.44
474.287	2.43
474.487	2.45
474.687	2.42
474.886	2.31
475.086	2.3
475.286	2.33
475.486	2.28
475.685	2.25
475.885	2.24
476.085	2.27
476.284	2.29
476.484	2.3
476.684	2.24
476.883	2.32
477.083	2.17
477.282	2.11
477.482	2.19
477.681	2.15
477.881	2.08
478.08	2.06
478.28	2.03
478.479	2.15
478.679	2.16
478.878	2.06
479.078	2.02
479.277	2.05
479.477	2.09
479.676	2.05
479.875	2.01
480.075	1.97
480.274	2.02
480.473	2.08
480.673	2.01
480.872	2.07
481.071	2.09
481.271	2.05
481.47	1.97
481.669	2.03
481.868	2
482.067	1.93
482.267	1.92
482.466	1.95
482.665	1.96
482.864	1.95
483.063	1.92
483.262	2.02
483.461	2.07
483.661	2.05
483.86	2.02
484.059	2.06
484.258	2.06
484.457	1.99
484.656	2.02
484.855	2.1
485.054	1.93
485.253	1.96
485.452	1.93
485.651	2.09
485.849	1.99
486.048	2.01
486.247	2.04
486.446	2.08
486.645	2.02
486.844	2.05
487.043	2.05
487.241	2.12
487.44	2.06
487.639	2.12
487.838	2.13
488.037	2.11
488.235	2.23
488.434	2.16
488.633	2.06
488.831	2.23
489.03	2.23
489.229	2.2
489.427	2.21
489.626	2.29
489.825	2.28
490.023	2.31
490.222	2.28
490.42	2.28
490.619	2.4
490.817	2.38
491.016	2.35
491.214	2.42
491.413	2.41
491.611	2.36
491.81	2.39
492.008	2.46
492.207	2.52
492.405	2.53
492.604	2.47
492.802	2.53
493	2.59
493.199	2.56
493.397	2.64
493.595	2.69
493.794	2.64
493.992	2.79
494.19	2.7
494.388	2.85
494.587	2.73
494.785	2.76
494.983	2.72
495.181	2.89
495.379	2.9
495.578	2.9
495.776	2.96
495.974	2.93
496.172	2.94
496.37	3.05
496.568	3.12
496.766	3.08
496.964	3.18
497.162	3.22
497.36	3.19
497.558	3.24
497.756	3.33
497.954	3.29
498.152	3.35
498.35	3.42
498.548	3.39
498.746	3.38
498.944	3.4
499.142	3.43
499.34	3.55
499.538	3.62
499.736	3.52
499.933	3.59
500.131	3.62
500.329	3.8
500.527	3.77
500.725	3.87
500.922	3.89
501.12	3.85
501.318	3.95
501.516	3.89
501.713	3.98
501.911	3.95
502.109	3.93
502.306	4.06
