Data from Apollo_Calib_20240827__AbsoluteIrradiance__36__23-45-00-191.txt Node

Date: Tue Aug 27 23:45:00 BST 2024
User: biology
Spectrometer: FLMT08252
Trigger mode: 0
Integration Time (sec): 5.000000E-1
Scans to average: 5
Electric dark correction enabled: true
Nonlinearity correction enabled: false
Boxcar width: 0
XAxis mode: Wavelengths
Number of Pixels in Spectrum: 3648
>>>>>Begin Spectral Data<<<<<
179.588	-0
179.809	-0
180.03	-0
180.251	-0
180.473	-0
180.694	0
180.915	0
181.136	-0
181.357	0
181.578	0
181.799	0
182.02	-0
182.241	-0
182.462	-0
182.683	0
182.904	-0
183.125	-0
183.346	0
183.567	0
183.788	0
184.009	0
184.23	0
184.451	0
184.672	0
184.892	0
185.113	0
185.334	0
185.555	0
185.776	0
185.996	0
186.217	0
186.438	0
186.659	0
186.879	0
187.1	0
187.321	0
187.541	0
187.762	0
187.983	0
188.203	0
188.424	0
188.644	0
188.865	0
189.086	0
189.306	0
189.527	0
189.747	0
189.968	0
190.188	0
190.409	0
190.629	0
190.849	0
191.07	0
191.29	0
191.511	0
191.731	0
191.951	0
192.172	0
192.392	0
192.612	0
192.833	0
193.053	0
193.273	0
193.493	0
193.714	0
193.934	0
194.154	0
194.374	0
194.594	0
194.815	0
195.035	0
195.255	0
195.475	0
195.695	0
195.915	0
196.135	0
196.355	0
196.575	0
196.795	0
197.015	0
197.235	0
197.455	0
197.675	0
197.895	0
198.115	0
198.335	0
198.555	0
198.775	0
198.995	0
199.214	0
199.434	0
199.654	0
199.874	0
200.094	3.59
200.313	2.28
200.533	1.99
200.753	1.76
200.973	3.68
201.192	3.49
201.412	1.25
201.632	2.44
201.851	3.53
202.071	1.83
202.291	1.89
202.51	2.08
202.73	2.8
202.95	2.15
203.169	1.49
203.389	1.86
203.608	2.2
203.828	1.3
204.047	1.72
204.267	2.37
204.486	2.3
204.706	1.94
204.925	1.64
205.145	1.57
205.364	2.37
205.583	2.31
205.803	1.96
206.022	1.39
206.242	2.41
206.461	1.68
206.68	1.73
206.9	1.92
207.119	2.34
207.338	2.39
207.557	1.13
207.777	1.46
207.996	1.6
208.215	2.4
208.434	1
208.654	0.97
208.873	1.5
209.092	1.92
209.311	1.33
209.53	1.34
209.749	1.22
209.968	0.93
210.187	1.36
210.407	1
210.626	1.31
210.845	1.68
211.064	1.3
211.283	1.08
211.502	1.64
211.721	1.24
211.94	0.99
212.159	1.25
212.377	1.34
212.596	1.64
212.815	1.2
213.034	1.27
213.253	1.3
213.472	1.34
213.691	0.92
213.91	0.86
214.128	0.83
214.347	1.52
214.566	0.7
214.785	0.42
215.003	1.33
215.222	1.24
215.441	0.96
215.66	0.71
215.878	0.88
216.097	1.35
216.316	0.86
216.534	0.76
216.753	0.82
216.972	0.86
217.19	0.92
217.409	0.81
217.627	0.89
217.846	1.02
218.064	0.87
218.283	0.67
218.501	1.29
218.72	1.06
218.938	0.59
219.157	0.86
219.375	0.8
219.594	1.01
219.812	0.51
220.031	0.65
220.249	1.23
220.467	1.06
220.686	0.7
220.904	0.72
221.122	0.66
221.341	1.23
221.559	0.8
221.777	0.47
221.995	0.85
222.214	0.86
222.432	0.58
222.65	0.85
222.868	0.74
223.086	0.84
223.305	0.91
223.523	0.67
223.741	1.04
223.959	0.55
224.177	0.37
224.395	0.67
224.613	0.81
224.831	0.89
225.049	0.37
225.267	0.61
225.485	0.75
225.703	0.63
225.921	0.7
226.139	0.65
226.357	0.84
226.575	0.73
226.793	0.52
227.011	1.31
227.229	0.65
227.447	0.92
227.665	0.71
227.883	0.37
228.1	0.71
228.318	0.81
228.536	0.38
228.754	0.59
228.972	0.82
229.189	0.86
229.407	0.55
229.625	0.65
229.843	0.89
230.06	0.64
230.278	0.53
230.496	0.65
230.713	0.82
230.931	0.77
231.149	0.52
231.366	0.31
231.584	0.6
231.801	1.07
232.019	0.52
232.236	0.42
232.454	0.56
232.671	0.69
232.889	0.57
233.106	0.47
233.324	0.52
233.541	0.68
233.759	0.57
233.976	0.49
234.194	0.5
234.411	0.59
234.628	0.45
234.846	0.48
235.063	0.53
235.28	0.45
235.498	0.68
235.715	0.39
235.932	0.6
236.149	0.57
236.367	0.52
236.584	0.57
236.801	0.52
237.018	0.58
237.236	0.51
237.453	0.28
237.67	0.63
237.887	0.43
238.104	0.53
238.321	0.37
238.538	0.58
238.755	0.62
238.973	0.34
239.19	0.54
239.407	0.55
239.624	0.51
239.841	0.37
240.058	0.36
240.275	0.67
240.492	0.57
240.709	0.48
240.925	0.41
241.142	0.64
241.359	0.41
241.576	0.38
241.793	0.44
242.01	0.53
242.227	0.61
242.444	0.64
242.66	0.73
242.877	0.46
243.094	0.45
243.311	0.42
243.527	0.48
243.744	0.57
243.961	0.55
244.178	0.45
244.394	0.37
244.611	0.55
244.828	0.63
245.044	0.36
245.261	0.46
245.477	0.46
245.694	0.55
245.911	0.37
246.127	0.52
246.344	0.55
246.56	0.58
246.777	0.37
246.993	0.43
247.21	0.48
247.426	0.63
247.643	0.39
247.859	0.29
248.076	0.41
248.292	0.69
248.508	0.37
248.725	0.48
248.941	0.6
249.157	0.56
249.374	0.36
249.59	0.44
249.806	0.4
250.023	0.41
250.239	0.35
250.455	0.38
250.671	0.45
250.888	0.5
251.104	0.42
251.32	0.44
251.536	0.54
251.752	0.39
251.969	0.41
252.185	0.5
252.401	0.6
252.617	0.46
252.833	0.42
253.049	0.37
253.265	0.43
253.481	0.44
253.697	0.39
253.913	0.36
254.129	0.45
254.345	0.4
254.561	0.42
254.777	0.4
254.993	0.57
255.209	0.42
255.425	0.43
255.641	0.39
255.857	0.52
256.073	0.45
256.288	0.36
256.504	0.43
256.72	0.44
256.936	0.52
257.152	0.41
257.367	0.31
257.583	0.4
257.799	0.47
258.015	0.32
258.23	0.4
258.446	0.61
258.662	0.39
258.877	0.34
259.093	0.34
259.309	0.43
259.524	0.44
259.74	0.35
259.955	0.32
260.171	0.42
260.387	0.37
260.602	0.43
260.818	0.42
261.033	0.3
261.249	0.29
261.464	0.37
261.68	0.26
261.895	0.4
262.11	0.42
262.326	0.4
262.541	0.31
262.757	0.43
262.972	0.37
263.187	0.4
263.403	0.44
263.618	0.44
263.833	0.41
264.049	0.31
264.264	0.34
264.479	0.47
264.694	0.5
264.91	0.38
265.125	0.37
265.34	0.42
265.555	0.56
265.77	0.41
265.986	0.31
266.201	0.42
266.416	0.46
266.631	0.37
266.846	0.36
267.061	0.39
267.276	0.43
267.491	0.26
267.706	0.44
267.921	0.41
268.136	0.39
268.351	0.42
268.566	0.25
268.781	0.43
268.996	0.36
269.211	0.36
269.426	0.33
269.641	0.34
269.856	0.39
270.071	0.25
270.285	0.25
270.5	0.41
270.715	0.44
270.93	0.38
271.145	0.38
271.359	0.42
271.574	0.34
271.789	0.35
272.004	0.3
272.218	0.31
272.433	0.39
272.648	0.24
272.862	0.45
273.077	0.33
273.292	0.36
273.506	0.28
273.721	0.33
273.936	0.43
274.15	0.33
274.365	0.35
274.579	0.41
274.794	0.37
275.008	0.43
275.223	0.26
275.437	0.31
275.652	0.51
275.866	0.35
276.081	0.38
276.295	0.44
276.509	0.4
276.724	0.3
276.938	0.35
277.153	0.37
277.367	0.35
277.581	0.28
277.796	0.29
278.01	0.23
278.224	0.37
278.438	0.5
278.653	0.25
278.867	0.29
279.081	0.2
279.295	0.3
279.51	0.33
279.724	0.21
279.938	0.37
280.152	0.39
280.366	0.25
280.58	0.34
280.794	0.39
281.008	0.36
281.222	0.36
281.437	0.47
281.651	0.35
281.865	0.4
282.079	0.28
282.293	0.21
282.507	0.25
282.721	0.28
282.935	0.29
283.148	0.25
283.362	0.28
283.576	0.21
283.79	0.31
284.004	0.24
284.218	0.32
284.432	0.25
284.646	0.34
284.859	0.26
285.073	0.32
285.287	0.31
285.501	0.26
285.714	0.28
285.928	0.32
286.142	0.31
286.356	0.29
286.569	0.29
286.783	0.37
286.997	0.32
287.21	0.32
287.424	0.28
287.637	0.29
287.851	0.31
288.065	0.31
288.278	0.3
288.492	0.33
288.705	0.24
288.919	0.32
289.132	0.26
289.346	0.36
289.559	0.21
289.773	0.24
289.986	0.27
290.2	0.25
290.413	0.32
290.626	0.28
290.84	0.25
291.053	0.26
291.267	0.36
291.48	0.31
291.693	0.29
291.906	0.29
292.12	0.28
292.333	0.29
292.546	0.26
292.76	0.34
292.973	0.31
293.186	0.33
293.399	0.29
293.612	0.34
293.826	0.27
294.039	0.28
294.252	0.27
294.465	0.35
294.678	0.3
294.891	0.27
295.104	0.23
295.317	0.3
295.53	0.3
295.743	0.3
295.956	0.27
296.169	0.37
296.382	0.36
296.595	0.31
296.808	0.22
297.021	0.33
297.234	0.35
297.447	0.28
297.66	0.27
297.873	0.33
298.086	0.33
298.299	0.27
298.511	0.19
298.724	0.33
298.937	0.21
299.15	0.19
299.363	0.25
299.575	0.32
299.788	0.28
300.001	0.29
300.213	0.29
300.426	0.24
300.639	0.24
300.852	0.29
301.064	0.28
301.277	0.3
301.489	0.29
301.702	0.3
301.915	0.24
302.127	0.28
302.34	0.25
302.552	0.3
302.765	0.22
302.977	0.33
303.19	0.23
303.402	0.26
303.615	0.27
303.827	0.23
304.04	0.24
304.252	0.29
304.464	0.29
304.677	0.35
304.889	0.27
305.102	0.21
305.314	0.24
305.526	0.3
305.739	0.28
305.951	0.18
306.163	0.22
306.375	0.36
306.588	0.19
306.8	0.23
307.012	0.23
307.224	0.3
307.436	0.36
307.649	0.16
307.861	0.29
308.073	0.28
308.285	0.27
308.497	0.25
308.709	0.23
308.921	0.29
309.133	0.35
309.346	0.26
309.558	0.23
309.77	0.3
309.982	0.32
310.194	0.29
310.406	0.24
310.617	0.31
310.829	0.28
311.041	0.25
311.253	0.22
311.465	0.22
311.677	0.28
311.889	0.28
312.101	0.2
312.313	0.3
312.524	0.32
312.736	0.2
312.948	0.24
313.16	0.36
313.372	0.28
313.583	0.24
313.795	0.27
314.007	0.19
314.218	0.3
314.43	0.27
314.642	0.22
314.853	0.2
315.065	0.31
315.277	0.28
315.488	0.3
315.7	0.33
315.912	0.28
316.123	0.28
316.335	0.22
316.546	0.34
316.758	0.25
316.969	0.24
317.181	0.29
317.392	0.25
317.604	0.32
317.815	0.23
318.026	0.24
318.238	0.26
318.449	0.27
318.661	0.2
318.872	0.19
319.083	0.16
319.295	0.34
319.506	0.23
319.717	0.25
319.929	0.23
320.14	0.3
320.351	0.25
320.562	0.26
320.774	0.28
320.985	0.27
321.196	0.21
321.407	0.18
321.618	0.34
321.829	0.3
322.041	0.29
322.252	0.29
322.463	0.23
322.674	0.29
322.885	0.23
323.096	0.23
323.307	0.25
323.518	0.27
323.729	0.22
323.94	0.27
324.151	0.26
324.362	0.26
324.573	0.3
324.784	0.25
324.995	0.26
325.206	0.29
325.417	0.22
325.628	0.22
325.838	0.22
326.049	0.3
326.26	0.28
326.471	0.25
326.682	0.27
326.892	0.28
327.103	0.2
327.314	0.2
327.525	0.3
327.735	0.32
327.946	0.26
328.157	0.23
328.368	0.33
328.578	0.22
328.789	0.3
328.999	0.25
329.21	0.27
329.421	0.29
329.631	0.21
329.842	0.2
330.052	0.25
330.263	0.25
330.473	0.29
330.684	0.27
330.894	0.22
331.105	0.29
331.315	0.27
331.526	0.2
331.736	0.38
331.947	0.26
332.157	0.29
332.367	0.23
332.578	0.3
332.788	0.31
332.999	0.3
333.209	0.26
333.419	0.21
333.629	0.29
333.84	0.29
334.05	0.3
334.26	0.34
334.47	0.33
334.681	0.3
334.891	0.29
335.101	0.25
335.311	0.38
335.521	0.26
335.732	0.26
335.942	0.28
336.152	0.24
336.362	0.29
336.572	0.29
336.782	0.32
336.992	0.22
337.202	0.21
337.412	0.26
337.622	0.26
337.832	0.24
338.042	0.24
338.252	0.24
338.462	0.25
338.672	0.26
338.882	0.27
339.092	0.26
339.302	0.35
339.511	0.29
339.721	0.23
339.931	0.26
340.141	0.33
340.351	0.33
340.561	0.25
340.77	0.31
340.98	0.29
341.19	0.28
341.4	0.24
341.609	0.23
341.819	0.22
342.029	0.23
342.238	0.27
342.448	0.21
342.658	0.26
342.867	0.27
343.077	0.24
343.286	0.27
343.496	0.2
343.706	0.35
343.915	0.17
344.125	0.25
344.334	0.29
344.544	0.14
344.753	0.25
344.963	0.23
345.172	0.26
345.381	0.21
345.591	0.26
345.8	0.25
346.01	0.32
346.219	0.27
346.428	0.13
346.638	0.25
346.847	0.28
347.056	0.31
347.266	0.21
347.475	0.27
347.684	0.3
347.893	0.29
348.103	0.25
348.312	0.27
348.521	0.25
348.73	0.26
348.94	0.28
349.149	0.23
349.358	0.26
349.567	0.22
349.776	0.2
349.985	0.23
350.194	0.27
350.403	0.32
350.612	0.17
350.821	0.24
351.03	0.23
351.239	0.19
351.448	0.27
351.657	0.26
351.866	0.33
352.075	0.26
352.284	0.29
352.493	0.22
352.702	0.33
352.911	0.27
353.12	0.28
353.329	0.23
353.538	0.26
353.746	0.25
353.955	0.21
354.164	0.24
354.373	0.25
354.582	0.29
354.79	0.26
354.999	0.22
355.208	0.26
355.416	0.28
355.625	0.23
355.834	0.22
356.042	0.21
356.251	0.23
356.46	0.2
356.668	0.3
356.877	0.29
357.085	0.31
357.294	0.22
357.503	0.22
357.711	0.26
357.92	0.41
358.128	0.29
358.337	0.23
358.545	0.26
358.754	0.26
358.962	0.27
359.17	0.23
359.379	0.24
359.587	0.3
359.796	0.22
360.004	0.28
360.212	0.28
360.421	0.32
360.629	0.21
360.837	0.24
361.046	0.3
361.254	0.38
361.462	0.23
361.67	0.23
361.879	0.27
362.087	0.34
362.295	0.25
362.503	0.24
362.711	0.16
362.92	0.26
363.128	0.21
363.336	0.22
363.544	0.21
363.752	0.25
363.96	0.21
364.168	0.22
364.376	0.26
364.584	0.25
364.792	0.32
365	0.28
365.208	0.25
365.416	0.31
365.624	0.29
365.832	0.22
366.04	0.27
366.248	0.24
366.456	0.24
366.664	0.26
366.872	0.25
367.079	0.24
367.287	0.24
367.495	0.26
367.703	0.22
367.911	0.25
368.118	0.24
368.326	0.27
368.534	0.21
368.742	0.3
368.949	0.22
369.157	0.22
369.365	0.31
369.572	0.22
369.78	0.15
369.988	0.33
370.195	0.27
370.403	0.28
370.61	0.22
370.818	0.27
371.026	0.29
371.233	0.24
371.441	0.25
371.648	0.26
371.856	0.27
372.063	0.23
372.271	0.26
372.478	0.23
372.685	0.23
372.893	0.28
373.1	0.25
373.308	0.25
373.515	0.34
373.722	0.3
373.93	0.26
374.137	0.29
374.344	0.33
374.552	0.27
374.759	0.33
374.966	0.28
375.173	0.23
375.381	0.3
375.588	0.27
375.795	0.19
376.002	0.23
376.209	0.28
376.417	0.24
376.624	0.31
376.831	0.28
377.038	0.21
377.245	0.22
377.452	0.25
377.659	0.24
377.866	0.25
378.073	0.25
378.28	0.27
378.487	0.3
378.694	0.3
378.901	0.27
379.108	0.26
379.315	0.31
379.522	0.34
379.729	0.28
379.936	0.24
380.143	0.29
380.35	0.27
380.557	0.28
380.763	0.29
380.97	0.26
381.177	0.25
381.384	0.29
381.591	0.27
381.797	0.25
382.004	0.32
382.211	0.27
382.418	0.27
382.624	0.29
382.831	0.3
383.038	0.22
383.244	0.28
383.451	0.25
383.658	0.28
383.864	0.25
384.071	0.23
384.277	0.35
384.484	0.3
384.69	0.32
384.897	0.25
385.103	0.21
385.31	0.27
385.516	0.26
385.723	0.23
385.929	0.3
386.136	0.3
386.342	0.28
386.549	0.32
386.755	0.39
386.961	0.32
387.168	0.26
387.374	0.31
387.58	0.29
387.787	0.27
387.993	0.3
388.199	0.28
388.406	0.25
388.612	0.27
388.818	0.25
389.024	0.26
389.231	0.31
389.437	0.33
389.643	0.34
389.849	0.27
390.055	0.34
390.261	0.29
390.467	0.35
390.674	0.26
390.88	0.3
391.086	0.32
391.292	0.28
391.498	0.38
391.704	0.36
391.91	0.27
392.116	0.31
392.322	0.2
392.528	0.31
392.734	0.31
392.94	0.38
393.146	0.28
393.352	0.32
393.557	0.29
393.763	0.32
393.969	0.36
394.175	0.32
394.381	0.36
394.587	0.25
394.792	0.3
394.998	0.36
395.204	0.34
395.41	0.26
395.615	0.34
395.821	0.33
396.027	0.33
396.233	0.29
396.438	0.34
396.644	0.43
396.85	0.34
397.055	0.34
397.261	0.35
397.466	0.45
397.672	0.31
397.878	0.36
398.083	0.33
398.289	0.33
398.494	0.39
398.7	0.38
398.905	0.27
399.111	0.42
399.316	0.32
399.522	0.38
399.727	0.37
399.932	0.3
400.138	0.34
400.343	0.39
400.549	0.32
400.754	0.39
400.959	0.42
401.165	0.37
401.37	0.42
401.575	0.48
401.78	0.39
401.986	0.38
402.191	0.36
402.396	0.36
402.601	0.4
402.807	0.41
403.012	0.41
403.217	0.48
403.422	0.35
403.627	0.43
403.832	0.43
404.037	0.45
404.243	0.44
404.448	0.39
404.653	0.47
404.858	0.42
405.063	0.52
405.268	0.39
405.473	0.38
405.678	0.44
405.883	0.59
406.088	0.49
406.293	0.42
406.498	0.43
406.703	0.47
406.907	0.5
407.112	0.48
407.317	0.55
407.522	0.58
407.727	0.47
407.932	0.56
408.136	0.61
408.341	0.51
408.546	0.55
408.751	0.59
408.956	0.62
409.16	0.64
409.365	0.62
409.57	0.64
409.774	0.62
409.979	0.67
410.184	0.71
410.388	0.65
410.593	0.74
410.798	0.72
411.002	0.72
411.207	0.83
411.411	0.74
411.616	0.75
411.82	0.82
412.025	0.9
412.229	0.91
412.434	0.94
412.638	0.98
412.843	0.91
413.047	0.98
413.252	0.92
413.456	1
413.66	1.06
413.865	1.05
414.069	1.09
414.273	1.08
414.478	1.13
414.682	1.2
414.886	1.25
415.091	1.23
415.295	1.23
415.499	1.48
415.703	1.37
415.908	1.46
416.112	1.38
416.316	1.59
416.52	1.54
416.724	1.53
416.929	1.61
417.133	1.8
417.337	1.75
417.541	1.8
417.745	1.86
417.949	2
418.153	2.01
418.357	2.03
418.561	2.23
418.765	2.26
418.969	2.39
419.173	2.43
419.377	2.41
419.581	2.6
419.785	2.69
419.989	2.66
420.193	2.78
420.397	2.98
420.601	2.99
420.804	3.11
421.008	3.15
421.212	3.23
421.416	3.28
421.62	3.28
421.823	3.36
422.027	3.54
422.231	3.51
422.435	3.58
422.638	3.54
422.842	3.73
423.046	3.73
423.249	3.94
423.453	4
423.657	4.12
423.86	4.26
424.064	4.32
424.268	4.51
424.471	4.47
424.675	4.73
424.878	4.84
425.082	4.91
425.285	5.21
425.489	5.14
425.692	5.21
425.896	5.27
426.099	5.53
426.303	5.65
426.506	5.84
426.71	5.98
426.913	6.15
427.116	6.4
427.32	6.34
427.523	6.44
427.726	6.7
427.93	6.82
428.133	7.12
428.336	7.26
428.54	7.37
428.743	7.59
428.946	8
429.149	7.89
429.353	7.91
429.556	8.09
429.759	8.05
429.962	8.16
430.165	8.37
430.368	8
430.571	8.04
430.775	8.12
430.978	8.19
431.181	8.14
431.384	8.34
431.587	8.33
431.79	8.79
431.993	8.68
432.196	8.95
432.399	9.38
432.602	9.46
432.805	9.52
433.008	10.03
433.211	10.03
433.414	10.27
433.616	10.35
433.819	10.29
434.022	10.47
434.225	10.61
434.428	10.62
434.631	11.13
434.833	10.83
435.036	11.1
435.239	11.32
435.442	11.38
435.645	11.53
435.847	11.57
436.05	11.92
436.253	12.15
436.455	12.14
436.658	12.07
436.861	12.38
437.063	12.52
437.266	12.39
437.468	12.85
437.671	13.03
437.874	13.11
438.076	13.04
438.279	13.45
438.481	13.5
438.684	14.23
438.886	14
439.089	14.11
439.291	14.13
439.494	14.55
439.696	14.62
439.899	15.35
440.101	15.64
440.303	15.86
440.506	16.63
440.708	16.28
440.91	16.64
441.113	16.81
441.315	16.95
441.517	16.76
441.72	17.21
441.922	16.93
442.124	16.79
442.326	17.26
442.529	17.39
442.731	17.49
442.933	17.72
443.135	17.53
443.337	17.55
443.539	18.11
443.742	17.77
443.944	18.39
444.146	18.14
444.348	18.15
444.55	17.97
444.752	18.26
444.954	18.15
445.156	18.17
445.358	18.54
445.56	18.72
445.762	18.48
445.964	18.91
446.166	18.78
446.368	18.57
446.57	18.57
446.772	18.22
446.974	17.96
447.175	18.29
447.377	18
447.579	18.4
447.781	18.01
447.983	17.91
448.184	17.5
448.386	17.85
448.588	17.37
448.79	17.29
448.991	17.55
449.193	17.52
449.395	16.98
449.597	16.49
449.798	16.44
450	15.99
450.202	15.94
450.403	15.95
450.605	15.8
450.806	15.5
451.008	15.37
451.21	15.01
451.411	14.54
451.613	13.93
451.814	14.16
452.016	13.99
452.217	13.42
452.419	13.25
452.62	12.95
452.821	12.82
453.023	12.75
453.224	12.28
453.426	11.85
453.627	11.13
453.828	11.27
454.03	11.34
454.231	11.34
454.432	11.08
454.634	10.84
454.835	10.67
455.036	10.45
455.238	10.12
455.439	9.88
455.64	9.52
455.841	9.41
456.042	9.6
456.244	9.18
456.445	8.89
456.646	8.64
456.847	8.58
457.048	8.5
457.249	8.45
457.45	8.26
457.651	7.78
457.852	7.57
458.054	7.21
458.255	7.23
458.456	7.29
458.657	7.12
458.858	6.62
459.058	6.72
459.259	6.78
459.46	6.42
459.661	6.45
459.862	6.43
460.063	6.33
460.264	6.26
460.465	5.94
460.666	6.11
460.866	5.84
461.067	5.55
461.268	5.62
461.469	5.45
461.67	5.37
461.87	5.22
462.071	5.27
462.272	5.23
462.473	5.09
462.673	5.23
462.874	5.12
463.075	5.17
463.275	5.11
463.476	5.17
463.676	5.1
463.877	4.95
464.078	4.96
464.278	5.01
464.479	4.88
464.679	4.8
464.88	4.65
465.08	4.61
465.281	4.52
465.481	4.31
465.682	4.17
465.882	4.16
466.083	4.13
466.283	4.05
466.483	3.89
466.684	3.74
466.884	3.7
467.085	3.69
467.285	3.73
467.485	3.69
467.686	3.52
467.886	3.52
468.086	3.4
468.286	3.38
468.487	3.44
468.687	3.3
468.887	3.23
469.087	3.32
469.287	3.31
469.488	3.06
469.688	3.17
469.888	3.18
470.088	3.14
470.288	3.11
470.488	3.08
470.688	2.88
470.888	2.81
471.088	2.65
471.288	2.87
471.488	2.78
471.688	2.78
471.888	2.74
472.088	2.79
472.288	2.67
472.488	2.53
472.688	2.58
472.888	2.58
473.088	2.57
473.288	2.5
473.488	2.48
473.688	2.62
473.887	2.44
474.087	2.4
474.287	2.45
474.487	2.38
474.687	2.41
474.886	2.35
475.086	2.29
475.286	2.37
475.486	2.25
475.685	2.25
475.885	2.23
476.085	2.27
476.284	2.26
476.484	2.3
476.684	2.19
476.883	2.28
477.083	2.2
477.282	2.15
477.482	2.2
477.681	2.13
477.881	2.02
478.08	2.06
478.28	2.05
478.479	2.1
478.679	2.15
478.878	2.07
479.078	2.02
479.277	2.07
479.477	2.11
479.676	2.01
479.875	2.02
480.075	2
480.274	2
480.473	2.07
480.673	1.99
480.872	2.07
481.071	2.07
481.271	2.08
481.47	2.02
481.669	1.97
481.868	1.95
482.067	1.99
482.267	1.92
482.466	1.99
482.665	1.89
482.864	1.94
483.063	1.95
483.262	2.01
483.461	2.03
483.661	2.09
483.86	2.04
484.059	2.06
484.258	2.05
484.457	2.02
484.656	1.98
484.855	2.07
485.054	1.92
485.253	1.95
485.452	1.99
485.651	2.04
485.849	2
486.048	1.99
486.247	2.01
486.446	2.04
486.645	2.06
486.844	2.05
487.043	2.05
487.241	2.06
487.44	2.12
487.639	2.15
487.838	2.12
488.037	2.12
488.235	2.2
488.434	2.17
488.633	2.04
488.831	2.2
489.03	2.22
489.229	2.24
489.427	2.19
489.626	2.27
489.825	2.3
490.023	2.28
490.222	2.26
490.42	2.32
490.619	2.35
490.817	2.36
491.016	2.34
491.214	2.42
491.413	2.4
491.611	2.35
491.81	2.37
492.008	2.42
492.207	2.53
492.405	2.52
492.604	2.44
492.802	2.52
493	2.59
493.199	2.63
493.397	2.62
493.595	2.69
493.794	2.65
493.992	2.75
494.19	2.73
494.388	2.82
494.587	2.76
494.785	2.78
494.983	2.76
495.181	2.83
495.379	2.88
495.578	2.98
495.776	2.92
495.974	2.93
496.172	2.95
496.37	3.09
496.568	3.14
496.766	3.08
496.964	3.14
497.162	3.17
497.36	3.19
497.558	3.19
497.756	3.29
497.954	3.3
498.152	3.34
498.35	3.42
498.548	3.37
498.746	3.38
498.944	3.41
499.142	3.49
499.34	3.55
499.538	3.59
499.736	3.5
499.933	3.61
500.131	3.63
500.329	3.71
500.527	3.71
500.725	3.84
500.922	3.84
501.12	3.86
501.318	3.93
501.516	3.92
501.713	3.99
501.911	3.95
502.109	3.92
502.306	4.12
502.504	3.98
502.701	4.14
