Data from Apollo_Calib_20240827__AbsoluteIrradiance__805__12-34-02-927.txt Node

Date: Wed Aug 28 12:34:02 BST 2024
User: biology
Spectrometer: FLMT08252
Trigger mode: 0
Integration Time (sec): 5.000000E-1
Scans to average: 5
Electric dark correction enabled: true
Nonlinearity correction enabled: false
Boxcar width: 0
XAxis mode: Wavelengths
Number of Pixels in Spectrum: 3648
>>>>>Begin Spectral Data<<<<<
179.588	-0
179.809	-0
180.03	-0
180.251	-0
180.473	-0
180.694	0
180.915	0
181.136	-0
181.357	0
181.578	-0
181.799	-0
182.02	-0
182.241	-0
182.462	-0
182.683	0
182.904	-0
183.125	-0
183.346	0
183.567	0
183.788	0
184.009	0
184.23	0
184.451	0
184.672	0
184.892	0
185.113	0
185.334	0
185.555	0
185.776	0
185.996	0
186.217	0
186.438	0
186.659	0
186.879	0
187.1	0
187.321	0
187.541	0
187.762	0
187.983	0
188.203	0
188.424	0
188.644	0
188.865	0
189.086	0
189.306	0
189.527	0
189.747	0
189.968	0
190.188	0
190.409	0
190.629	0
190.849	0
191.07	0
191.29	0
191.511	0
191.731	0
191.951	0
192.172	0
192.392	0
192.612	0
192.833	0
193.053	0
193.273	0
193.493	0
193.714	0
193.934	0
194.154	0
194.374	0
194.594	0
194.815	0
195.035	0
195.255	0
195.475	0
195.695	0
195.915	0
196.135	0
196.355	0
196.575	0
196.795	0
197.015	0
197.235	0
197.455	0
197.675	0
197.895	0
198.115	0
198.335	0
198.555	0
198.775	0
198.995	0
199.214	0
199.434	0
199.654	0
199.874	0
200.094	4.22
200.313	2.49
200.533	1.8
200.753	1.62
200.973	3.83
201.192	3.2
201.412	1.94
201.632	1.61
201.851	3.96
202.071	1.53
202.291	1.67
202.51	0.94
202.73	2.9
202.95	1.83
203.169	1.5
203.389	1.52
203.608	2.34
203.828	1.47
204.047	1.49
204.267	2.48
204.486	2.15
204.706	2.34
204.925	1.32
205.145	1.61
205.364	2.18
205.583	2.78
205.803	1.27
206.022	1.13
206.242	1.83
206.461	1.83
206.68	1.22
206.9	1.75
207.119	2.46
207.338	1.93
207.557	0.9
207.777	1.15
207.996	1.5
208.215	1.98
208.434	0.92
208.654	1.14
208.873	1.45
209.092	2.52
209.311	1.24
209.53	1.1
209.749	1.21
209.968	1.11
210.187	0.89
210.407	0.65
210.626	0.92
210.845	1.59
211.064	1.09
211.283	0.65
211.502	1.41
211.721	1.23
211.94	0.93
212.159	1.4
212.377	1.49
212.596	1.59
212.815	1.07
213.034	1.04
213.253	1.63
213.472	1.37
213.691	0.96
213.91	0.85
214.128	0.84
214.347	1.53
214.566	0.6
214.785	0.45
215.003	1.16
215.222	1.16
215.441	0.9
215.66	0.64
215.878	0.86
216.097	1.17
216.316	0.59
216.534	0.8
216.753	1.1
216.972	0.93
217.19	1.01
217.409	0.57
217.627	0.87
217.846	0.76
218.064	1.03
218.283	0.77
218.501	1.42
218.72	1.26
218.938	0.61
219.157	0.8
219.375	0.85
219.594	1.09
219.812	0.66
220.031	0.49
220.249	1.23
220.467	1.25
220.686	0.57
220.904	0.64
221.122	0.73
221.341	1.27
221.559	0.79
221.777	0.46
221.995	0.81
222.214	1
222.432	0.6
222.65	0.83
222.868	0.65
223.086	0.86
223.305	0.97
223.523	0.61
223.741	1.11
223.959	0.69
224.177	0.43
224.395	0.43
224.613	0.87
224.831	1.06
225.049	0.4
225.267	0.49
225.485	0.67
225.703	0.56
225.921	0.57
226.139	0.55
226.357	0.82
226.575	0.74
226.793	0.46
227.011	1.6
227.229	0.78
227.447	0.93
227.665	0.52
227.883	0.33
228.1	0.59
228.318	0.73
228.536	0.23
228.754	0.49
228.972	0.75
229.189	0.86
229.407	0.65
229.625	0.57
229.843	0.89
230.06	0.77
230.278	0.49
230.496	0.57
230.713	0.7
230.931	0.91
231.149	0.49
231.366	0.35
231.584	0.54
231.801	1.03
232.019	0.41
232.236	0.39
232.454	0.41
232.671	0.71
232.889	0.43
233.106	0.45
233.324	0.57
233.541	0.64
233.759	0.64
233.976	0.44
234.194	0.6
234.411	0.65
234.628	0.38
234.846	0.38
235.063	0.53
235.28	0.59
235.498	0.51
235.715	0.29
235.932	0.82
236.149	0.52
236.367	0.34
236.584	0.54
236.801	0.61
237.018	0.7
237.236	0.4
237.453	0.39
237.67	0.7
237.887	0.48
238.104	0.5
238.321	0.28
238.538	0.42
238.755	0.71
238.973	0.35
239.19	0.47
239.407	0.55
239.624	0.58
239.841	0.28
240.058	0.27
240.275	0.59
240.492	0.56
240.709	0.52
240.925	0.37
241.142	0.46
241.359	0.28
241.576	0.34
241.793	0.4
242.01	0.55
242.227	0.65
242.444	0.53
242.66	0.54
242.877	0.56
243.094	0.42
243.311	0.5
243.527	0.48
243.744	0.49
243.961	0.46
244.178	0.36
244.394	0.38
244.611	0.67
244.828	0.65
245.044	0.31
245.261	0.36
245.477	0.55
245.694	0.65
245.911	0.39
246.127	0.45
246.344	0.67
246.56	0.48
246.777	0.36
246.993	0.43
247.21	0.48
247.426	0.61
247.643	0.3
247.859	0.34
248.076	0.36
248.292	0.7
248.508	0.32
248.725	0.45
248.941	0.34
249.157	0.54
249.374	0.24
249.59	0.37
249.806	0.41
250.023	0.47
250.239	0.33
250.455	0.32
250.671	0.4
250.888	0.48
251.104	0.48
251.32	0.3
251.536	0.39
251.752	0.46
251.969	0.42
252.185	0.38
252.401	0.61
252.617	0.33
252.833	0.36
253.049	0.36
253.265	0.45
253.481	0.37
253.697	0.38
253.913	0.34
254.129	0.44
254.345	0.49
254.561	0.37
254.777	0.34
254.993	0.45
255.209	0.4
255.425	0.39
255.641	0.38
255.857	0.5
256.073	0.45
256.288	0.25
256.504	0.24
256.72	0.44
256.936	0.62
257.152	0.35
257.367	0.29
257.583	0.44
257.799	0.51
258.015	0.31
258.23	0.29
258.446	0.65
258.662	0.42
258.877	0.29
259.093	0.26
259.309	0.4
259.524	0.47
259.74	0.31
259.955	0.18
260.171	0.4
260.387	0.36
260.602	0.48
260.818	0.45
261.033	0.28
261.249	0.42
261.464	0.29
261.68	0.24
261.895	0.42
262.11	0.47
262.326	0.34
262.541	0.24
262.757	0.49
262.972	0.47
263.187	0.46
263.403	0.39
263.618	0.53
263.833	0.36
264.049	0.26
264.264	0.3
264.479	0.46
264.694	0.6
264.91	0.29
265.125	0.32
265.34	0.42
265.555	0.61
265.77	0.42
265.986	0.26
266.201	0.38
266.416	0.39
266.631	0.24
266.846	0.28
267.061	0.38
267.276	0.46
267.491	0.25
267.706	0.41
267.921	0.39
268.136	0.43
268.351	0.36
268.566	0.24
268.781	0.46
268.996	0.44
269.211	0.34
269.426	0.28
269.641	0.35
269.856	0.45
270.071	0.24
270.285	0.19
270.5	0.44
270.715	0.44
270.93	0.29
271.145	0.39
271.359	0.43
271.574	0.3
271.789	0.33
272.004	0.29
272.218	0.24
272.433	0.43
272.648	0.23
272.862	0.38
273.077	0.35
273.292	0.35
273.506	0.27
273.721	0.32
273.936	0.35
274.15	0.46
274.365	0.27
274.579	0.35
274.794	0.41
275.008	0.47
275.223	0.18
275.437	0.33
275.652	0.44
275.866	0.39
276.081	0.28
276.295	0.39
276.509	0.38
276.724	0.36
276.938	0.34
277.153	0.34
277.367	0.38
277.581	0.35
277.796	0.27
278.01	0.18
278.224	0.45
278.438	0.46
278.653	0.26
278.867	0.24
279.081	0.2
279.295	0.35
279.51	0.33
279.724	0.21
279.938	0.39
280.152	0.38
280.366	0.29
280.58	0.34
280.794	0.43
281.008	0.36
281.222	0.35
281.437	0.42
281.651	0.36
281.865	0.4
282.079	0.31
282.293	0.21
282.507	0.24
282.721	0.34
282.935	0.32
283.148	0.19
283.362	0.36
283.576	0.24
283.79	0.34
284.004	0.21
284.218	0.44
284.432	0.32
284.646	0.27
284.859	0.28
285.073	0.25
285.287	0.27
285.501	0.24
285.714	0.29
285.928	0.37
286.142	0.31
286.356	0.19
286.569	0.28
286.783	0.4
286.997	0.39
287.21	0.25
287.424	0.27
287.637	0.26
287.851	0.26
288.065	0.36
288.278	0.28
288.492	0.31
288.705	0.26
288.919	0.33
289.132	0.19
289.346	0.29
289.559	0.2
289.773	0.25
289.986	0.29
290.2	0.28
290.413	0.4
290.626	0.22
290.84	0.23
291.053	0.26
291.267	0.38
291.48	0.28
291.693	0.27
291.906	0.26
292.12	0.34
292.333	0.25
292.546	0.23
292.76	0.39
292.973	0.36
293.186	0.34
293.399	0.26
293.612	0.34
293.826	0.3
294.039	0.28
294.252	0.28
294.465	0.37
294.678	0.33
294.891	0.28
295.104	0.21
295.317	0.26
295.53	0.28
295.743	0.28
295.956	0.24
296.169	0.37
296.382	0.34
296.595	0.26
296.808	0.17
297.021	0.38
297.234	0.35
297.447	0.25
297.66	0.27
297.873	0.35
298.086	0.34
298.299	0.22
298.511	0.17
298.724	0.23
298.937	0.21
299.15	0.23
299.363	0.25
299.575	0.29
299.788	0.25
300.001	0.24
300.213	0.18
300.426	0.28
300.639	0.22
300.852	0.22
301.064	0.28
301.277	0.32
301.489	0.33
301.702	0.32
301.915	0.25
302.127	0.27
302.34	0.25
302.552	0.32
302.765	0.2
302.977	0.34
303.19	0.27
303.402	0.21
303.615	0.21
303.827	0.24
304.04	0.24
304.252	0.29
304.464	0.21
304.677	0.43
304.889	0.31
305.102	0.2
305.314	0.23
305.526	0.28
305.739	0.31
305.951	0.19
306.163	0.24
306.375	0.34
306.588	0.27
306.8	0.24
307.012	0.18
307.224	0.28
307.436	0.35
307.649	0.17
307.861	0.28
308.073	0.31
308.285	0.25
308.497	0.16
308.709	0.23
308.921	0.28
309.133	0.31
309.346	0.24
309.558	0.17
309.77	0.34
309.982	0.32
310.194	0.26
310.406	0.22
310.617	0.4
310.829	0.25
311.041	0.29
311.253	0.15
311.465	0.24
311.677	0.26
311.889	0.22
312.101	0.21
312.313	0.33
312.524	0.36
312.736	0.22
312.948	0.22
313.16	0.38
313.372	0.3
313.583	0.25
313.795	0.24
314.007	0.23
314.218	0.32
314.43	0.24
314.642	0.23
314.853	0.19
315.065	0.32
315.277	0.23
315.488	0.25
315.7	0.31
315.912	0.29
316.123	0.22
316.335	0.24
316.546	0.38
316.758	0.24
316.969	0.22
317.181	0.28
317.392	0.24
317.604	0.33
317.815	0.22
318.026	0.21
318.238	0.27
318.449	0.28
318.661	0.19
318.872	0.18
319.083	0.22
319.295	0.28
319.506	0.24
319.717	0.24
319.929	0.3
320.14	0.29
320.351	0.27
320.562	0.2
320.774	0.25
320.985	0.28
321.196	0.24
321.407	0.18
321.618	0.29
321.829	0.29
322.041	0.31
322.252	0.26
322.463	0.3
322.674	0.27
322.885	0.23
323.096	0.25
323.307	0.26
323.518	0.29
323.729	0.18
323.94	0.22
324.151	0.23
324.362	0.27
324.573	0.29
324.784	0.26
324.995	0.29
325.206	0.31
325.417	0.24
325.628	0.19
325.838	0.25
326.049	0.27
326.26	0.25
326.471	0.23
326.682	0.3
326.892	0.28
327.103	0.16
327.314	0.21
327.525	0.35
327.735	0.32
327.946	0.21
328.157	0.2
328.368	0.29
328.578	0.23
328.789	0.28
328.999	0.25
329.21	0.25
329.421	0.29
329.631	0.24
329.842	0.22
330.052	0.23
330.263	0.28
330.473	0.3
330.684	0.22
330.894	0.21
331.105	0.25
331.315	0.25
331.526	0.22
331.736	0.34
331.947	0.27
332.157	0.3
332.367	0.18
332.578	0.26
332.788	0.31
332.999	0.25
333.209	0.22
333.419	0.15
333.629	0.25
333.84	0.24
334.05	0.24
334.26	0.33
334.47	0.31
334.681	0.3
334.891	0.23
335.101	0.3
335.311	0.32
335.521	0.26
335.732	0.18
335.942	0.32
336.152	0.31
336.362	0.24
336.572	0.24
336.782	0.31
336.992	0.24
337.202	0.21
337.412	0.2
337.622	0.21
337.832	0.28
338.042	0.25
338.252	0.23
338.462	0.27
338.672	0.26
338.882	0.21
339.092	0.29
339.302	0.36
339.511	0.23
339.721	0.22
339.931	0.18
340.141	0.31
340.351	0.32
340.561	0.29
340.77	0.26
340.98	0.31
341.19	0.26
341.4	0.24
341.609	0.17
341.819	0.21
342.029	0.19
342.238	0.26
342.448	0.22
342.658	0.3
342.867	0.23
343.077	0.24
343.286	0.24
343.496	0.3
343.706	0.29
343.915	0.18
344.125	0.21
344.334	0.32
344.544	0.18
344.753	0.2
344.963	0.24
345.172	0.21
345.381	0.21
345.591	0.18
345.8	0.25
346.01	0.35
346.219	0.3
346.428	0.1
346.638	0.21
346.847	0.26
347.056	0.37
347.266	0.23
347.475	0.23
347.684	0.28
347.893	0.34
348.103	0.29
348.312	0.24
348.521	0.24
348.73	0.28
348.94	0.23
349.149	0.22
349.358	0.23
349.567	0.23
349.776	0.18
349.985	0.23
350.194	0.29
350.403	0.32
350.612	0.18
350.821	0.17
351.03	0.26
351.239	0.17
351.448	0.23
351.657	0.2
351.866	0.35
352.075	0.25
352.284	0.29
352.493	0.17
352.702	0.37
352.911	0.27
353.12	0.23
353.329	0.25
353.538	0.32
353.746	0.26
353.955	0.19
354.164	0.26
354.373	0.23
354.582	0.26
354.79	0.26
354.999	0.28
355.208	0.25
355.416	0.33
355.625	0.21
355.834	0.23
356.042	0.26
356.251	0.21
356.46	0.21
356.668	0.26
356.877	0.35
357.085	0.31
357.294	0.18
357.503	0.25
357.711	0.26
357.92	0.44
358.128	0.25
358.337	0.21
358.545	0.28
358.754	0.23
358.962	0.29
359.17	0.2
359.379	0.25
359.587	0.25
359.796	0.22
360.004	0.33
360.212	0.26
360.421	0.32
360.629	0.21
360.837	0.2
361.046	0.29
361.254	0.4
361.462	0.21
361.67	0.21
361.879	0.31
362.087	0.32
362.295	0.27
362.503	0.22
362.711	0.19
362.92	0.26
363.128	0.24
363.336	0.21
363.544	0.17
363.752	0.25
363.96	0.25
364.168	0.18
364.376	0.23
364.584	0.27
364.792	0.33
365	0.26
365.208	0.23
365.416	0.28
365.624	0.29
365.832	0.18
366.04	0.32
366.248	0.22
366.456	0.23
366.664	0.28
366.872	0.26
367.079	0.24
367.287	0.24
367.495	0.26
367.703	0.23
367.911	0.25
368.118	0.25
368.326	0.27
368.534	0.15
368.742	0.32
368.949	0.17
369.157	0.2
369.365	0.24
369.572	0.21
369.78	0.23
369.988	0.25
370.195	0.23
370.403	0.32
370.61	0.19
370.818	0.25
371.026	0.31
371.233	0.21
371.441	0.25
371.648	0.25
371.856	0.27
372.063	0.28
372.271	0.23
372.478	0.22
372.685	0.23
372.893	0.29
373.1	0.28
373.308	0.21
373.515	0.37
373.722	0.31
373.93	0.25
374.137	0.24
374.344	0.34
374.552	0.29
374.759	0.28
374.966	0.29
375.173	0.22
375.381	0.32
375.588	0.29
375.795	0.21
376.002	0.22
376.209	0.2
376.417	0.23
376.624	0.26
376.831	0.29
377.038	0.23
377.245	0.14
377.452	0.25
377.659	0.27
377.866	0.21
378.073	0.26
378.28	0.26
378.487	0.34
378.694	0.32
378.901	0.19
379.108	0.28
379.315	0.34
379.522	0.39
379.729	0.31
379.936	0.26
380.143	0.28
380.35	0.27
380.557	0.28
380.763	0.26
380.97	0.3
381.177	0.3
381.384	0.28
381.591	0.22
381.797	0.26
382.004	0.31
382.211	0.27
382.418	0.24
382.624	0.29
382.831	0.27
383.038	0.25
383.244	0.27
383.451	0.25
383.658	0.3
383.864	0.27
384.071	0.2
384.277	0.39
384.484	0.31
384.69	0.34
384.897	0.24
385.103	0.26
385.31	0.27
385.516	0.24
385.723	0.26
385.929	0.28
386.136	0.24
386.342	0.3
386.549	0.22
386.755	0.37
386.961	0.32
387.168	0.26
387.374	0.29
387.58	0.37
387.787	0.23
387.993	0.31
388.199	0.27
388.406	0.28
388.612	0.25
388.818	0.24
389.024	0.22
389.231	0.33
389.437	0.39
389.643	0.32
389.849	0.28
390.055	0.36
390.261	0.33
390.467	0.36
390.674	0.24
390.88	0.29
391.086	0.35
391.292	0.26
391.498	0.29
391.704	0.32
391.91	0.31
392.116	0.22
392.322	0.22
392.528	0.31
392.734	0.31
392.94	0.3
393.146	0.28
393.352	0.35
393.557	0.3
393.763	0.29
393.969	0.35
394.175	0.27
394.381	0.32
394.587	0.27
394.792	0.29
394.998	0.33
395.204	0.35
395.41	0.25
395.615	0.33
395.821	0.37
396.027	0.33
396.233	0.28
396.438	0.36
396.644	0.44
396.85	0.33
397.055	0.31
397.261	0.37
397.466	0.37
397.672	0.34
397.878	0.37
398.083	0.37
398.289	0.31
398.494	0.35
398.7	0.37
398.905	0.28
399.111	0.45
399.316	0.28
399.522	0.37
399.727	0.37
399.932	0.29
400.138	0.33
400.343	0.4
400.549	0.36
400.754	0.4
400.959	0.34
401.165	0.38
401.37	0.37
401.575	0.44
401.78	0.38
401.986	0.4
402.191	0.35
402.396	0.38
402.601	0.4
402.807	0.39
403.012	0.45
403.217	0.43
403.422	0.42
403.627	0.43
403.832	0.39
404.037	0.47
404.243	0.4
404.448	0.38
404.653	0.41
404.858	0.43
405.063	0.47
405.268	0.4
405.473	0.38
405.678	0.44
405.883	0.66
406.088	0.5
406.293	0.41
406.498	0.44
406.703	0.51
406.907	0.48
407.112	0.44
407.317	0.5
407.522	0.56
407.727	0.43
407.932	0.54
408.136	0.66
408.341	0.54
408.546	0.58
408.751	0.6
408.956	0.59
409.16	0.69
409.365	0.57
409.57	0.61
409.774	0.67
409.979	0.7
410.184	0.63
410.388	0.59
410.593	0.79
410.798	0.74
411.002	0.77
411.207	0.79
411.411	0.87
411.616	0.81
411.82	0.82
412.025	0.87
412.229	0.83
412.434	0.99
412.638	0.91
412.843	0.94
413.047	0.96
413.252	0.97
413.456	1.03
413.66	1.09
413.865	1.11
414.069	1.12
414.273	1.07
414.478	1.12
414.682	1.16
414.886	1.25
415.091	1.22
415.295	1.24
415.499	1.36
415.703	1.38
415.908	1.49
416.112	1.36
416.316	1.63
416.52	1.57
416.724	1.54
416.929	1.63
417.133	1.84
417.337	1.71
417.541	1.86
417.745	1.82
417.949	1.99
418.153	2.05
418.357	2.02
418.561	2.27
418.765	2.22
418.969	2.38
419.173	2.46
419.377	2.44
419.581	2.7
419.785	2.67
419.989	2.71
420.193	2.81
420.397	2.88
420.601	3.08
420.804	3.18
421.008	3.19
421.212	3.35
421.416	3.33
421.62	3.3
421.823	3.38
422.027	3.62
422.231	3.58
422.435	3.51
422.638	3.57
422.842	3.7
423.046	3.71
423.249	4.01
423.453	4.01
423.657	4.16
423.86	4.22
424.064	4.39
424.268	4.54
424.471	4.6
424.675	4.79
424.878	4.84
425.082	5
425.285	5.25
425.489	5.13
425.692	5.37
425.896	5.45
426.099	5.47
426.303	5.63
426.506	5.75
426.71	6.03
426.913	6.27
427.116	6.37
427.32	6.4
427.523	6.47
427.726	6.82
427.93	6.92
428.133	7.24
428.336	7.35
428.54	7.5
428.743	7.74
428.946	8
429.149	7.96
429.353	8
429.556	8.13
429.759	8.08
429.962	8.19
430.165	8.43
430.368	8.09
430.571	8.08
430.775	8.17
430.978	8.15
431.181	8.29
431.384	8.28
431.587	8.36
431.79	8.78
431.993	8.74
432.196	8.94
432.399	9.35
432.602	9.51
432.805	9.67
433.008	10.17
433.211	10
433.414	10.41
433.616	10.39
433.819	10.47
434.022	10.51
434.225	10.67
434.428	10.77
434.631	11.17
434.833	11.02
435.036	11.16
435.239	11.5
435.442	11.31
435.645	11.53
435.847	11.6
436.05	11.92
436.253	12.12
436.455	12.16
436.658	12.09
436.861	12.42
437.063	12.48
437.266	12.41
437.468	12.86
437.671	13.18
437.874	13.13
438.076	13.02
438.279	13.59
438.481	13.65
438.684	14.37
438.886	13.92
439.089	14.19
439.291	14.32
439.494	14.6
439.696	14.8
439.899	15.31
440.101	15.72
440.303	15.87
440.506	16.6
440.708	16.33
440.91	16.6
441.113	16.78
441.315	17.05
441.517	16.8
441.72	17.25
441.922	16.93
442.124	16.84
442.326	17.23
442.529	17.52
442.731	17.47
442.933	17.81
443.135	17.43
443.337	17.47
443.539	18.13
443.742	17.71
443.944	18.39
444.146	18.06
444.348	18.19
444.55	17.95
444.752	18.13
444.954	18.09
445.156	18.03
445.358	18.52
445.56	18.71
445.762	18.57
445.964	18.82
446.166	18.51
446.368	18.66
446.57	18.49
446.772	18.24
446.974	17.92
447.175	18.33
447.377	17.98
447.579	18.44
447.781	18
447.983	17.78
448.184	17.45
448.386	17.79
448.588	17.27
448.79	17.17
448.991	17.46
449.193	17.47
449.395	16.84
449.597	16.62
449.798	16.31
450	15.91
450.202	15.78
450.403	15.83
450.605	15.81
450.806	15.33
451.008	15.13
451.21	14.95
451.411	14.52
451.613	13.7
451.814	13.95
452.016	13.94
452.217	13.23
452.419	13.25
452.62	12.99
452.821	12.61
453.023	12.62
453.224	12.21
453.426	11.6
453.627	11.04
453.828	11.03
454.03	11.27
454.231	11.2
454.432	10.95
454.634	10.76
454.835	10.45
455.036	10.36
455.238	10.03
455.439	9.82
455.64	9.47
455.841	9.31
456.042	9.42
456.244	9.17
456.445	8.91
456.646	8.57
456.847	8.51
457.048	8.42
457.249	8.41
457.45	8.19
457.651	7.66
457.852	7.55
458.054	7.25
458.255	7.17
458.456	7.34
458.657	7.05
458.858	6.72
459.058	6.68
459.259	6.71
459.46	6.41
459.661	6.38
459.862	6.47
460.063	6.28
460.264	6.22
460.465	5.96
460.666	5.94
460.866	5.7
461.067	5.45
461.268	5.54
461.469	5.44
461.67	5.43
461.87	5.19
462.071	5.24
462.272	5.09
462.473	5.06
462.673	5.23
462.874	5.11
463.075	5.06
463.275	5.03
463.476	5.07
463.676	5.09
463.877	4.89
464.078	4.89
464.278	4.97
464.479	4.76
464.679	4.69
464.88	4.62
465.08	4.72
465.281	4.44
465.481	4.33
465.682	4.11
465.882	4.2
466.083	4.01
466.283	4
466.483	3.88
466.684	3.73
466.884	3.61
467.085	3.7
467.285	3.76
467.485	3.6
467.686	3.53
467.886	3.4
468.086	3.37
468.286	3.32
468.487	3.43
468.687	3.22
468.887	3.18
469.087	3.35
469.287	3.28
469.488	3.04
469.688	3.17
469.888	3.17
470.088	3.14
470.288	3.05
470.488	3.02
470.688	2.88
470.888	2.85
471.088	2.64
471.288	2.73
471.488	2.78
471.688	2.68
471.888	2.6
472.088	2.8
472.288	2.69
472.488	2.57
472.688	2.52
472.888	2.59
473.088	2.56
473.288	2.51
473.488	2.44
473.688	2.64
473.887	2.46
474.087	2.4
474.287	2.44
474.487	2.39
474.687	2.46
474.886	2.35
475.086	2.3
475.286	2.32
475.486	2.28
475.685	2.25
475.885	2.18
476.085	2.27
476.284	2.25
476.484	2.21
476.684	2.21
476.883	2.23
477.083	2.14
477.282	2.12
477.482	2.19
477.681	2.13
477.881	2.07
478.08	2.08
478.28	2.05
478.479	2.13
478.679	2.14
478.878	1.99
479.078	2.02
479.277	2.03
479.477	2.05
479.676	2.02
479.875	2.01
480.075	1.95
480.274	2.02
480.473	2.06
480.673	2.01
480.872	2.08
481.071	2.02
481.271	2.08
481.47	1.95
481.669	2
481.868	1.93
482.067	1.96
482.267	1.9
482.466	1.94
482.665	1.95
482.864	1.98
483.063	1.91
483.262	2.01
483.461	2.02
483.661	2.05
483.86	1.98
484.059	2.08
484.258	2.01
484.457	1.98
484.656	2.02
484.855	2.1
485.054	1.92
485.253	2
485.452	1.93
485.651	2.04
485.849	2.03
486.048	2.08
486.247	2.03
486.446	2.1
486.645	2
486.844	2.02
487.043	2.01
487.241	2.07
487.44	2.06
487.639	2.13
487.838	2.13
488.037	2.12
488.235	2.24
488.434	2.14
488.633	2.01
488.831	2.18
489.03	2.23
489.229	2.24
489.427	2.19
489.626	2.27
489.825	2.29
490.023	2.29
490.222	2.25
490.42	2.33
490.619	2.35
490.817	2.39
491.016	2.36
491.214	2.39
491.413	2.39
491.611	2.36
491.81	2.42
492.008	2.43
492.207	2.53
492.405	2.52
492.604	2.47
492.802	2.55
493	2.63
493.199	2.64
493.397	2.59
493.595	2.72
493.794	2.63
493.992	2.81
494.19	2.74
494.388	2.81
494.587	2.73
494.785	2.76
494.983	2.68
495.181	2.88
495.379	2.9
495.578	2.95
495.776	2.96
495.974	2.91
496.172	2.93
496.37	3.07
496.568	3.08
496.766	3.07
496.964	3.19
497.162	3.19
497.36	3.23
497.558	3.27
497.756	3.3
497.954	3.3
498.152	3.36
498.35	3.48
498.548	3.35
498.746	3.41
498.944	3.39
499.142	3.42
499.34	3.53
499.538	3.63
499.736	3.5
499.933	3.63
500.131	3.6
500.329	3.76
500.527	3.74
500.725	3.86
500.922	3.9
501.12	3.86
501.318	3.96
501.516	3.95
501.713	4.04
501.911	4.01
502.109	3.94
502.306	4.07
502.504	4.06
