Data from Apollo_Calib_20240827__AbsoluteIrradiance__887__13-56-01-143.txt Node

Date: Wed Aug 28 13:56:01 BST 2024
User: biology
Spectrometer: FLMT08252
Trigger mode: 0
Integration Time (sec): 5.000000E-1
Scans to average: 5
Electric dark correction enabled: true
Nonlinearity correction enabled: false
Boxcar width: 0
XAxis mode: Wavelengths
Number of Pixels in Spectrum: 3648
>>>>>Begin Spectral Data<<<<<
179.588	-0
179.809	-0
180.03	-0
180.251	-0
180.473	-0
180.694	0
180.915	0
181.136	-0
181.357	-0
181.578	-0
181.799	0
182.02	-0
182.241	0
182.462	-0
182.683	0
182.904	-0
183.125	-0
183.346	0
183.567	0
183.788	0
184.009	0
184.23	0
184.451	0
184.672	0
184.892	0
185.113	0
185.334	0
185.555	0
185.776	0
185.996	0
186.217	0
186.438	0
186.659	0
186.879	0
187.1	0
187.321	0
187.541	0
187.762	0
187.983	0
188.203	0
188.424	0
188.644	0
188.865	0
189.086	0
189.306	0
189.527	0
189.747	0
189.968	0
190.188	0
190.409	0
190.629	0
190.849	0
191.07	0
191.29	0
191.511	0
191.731	0
191.951	0
192.172	0
192.392	0
192.612	0
192.833	0
193.053	0
193.273	0
193.493	0
193.714	0
193.934	0
194.154	0
194.374	0
194.594	0
194.815	0
195.035	0
195.255	0
195.475	0
195.695	0
195.915	0
196.135	0
196.355	0
196.575	0
196.795	0
197.015	0
197.235	0
197.455	0
197.675	0
197.895	0
198.115	0
198.335	0
198.555	0
198.775	0
198.995	0
199.214	0
199.434	0
199.654	0
199.874	0
200.094	4.26
200.313	2.61
200.533	1.78
200.753	1.95
200.973	3.87
201.192	3.57
201.412	1.52
201.632	1.42
201.851	3.63
202.071	2.14
202.291	1.72
202.51	1.38
202.73	3.24
202.95	1.58
203.169	1.26
203.389	1.58
203.608	2.26
203.828	1.91
204.047	1.51
204.267	2.4
204.486	2.17
204.706	1.94
204.925	1.91
205.145	1.7
205.364	2.58
205.583	2.77
205.803	1.16
206.022	1.29
206.242	1.52
206.461	2.36
206.68	1.55
206.9	1.43
207.119	2.7
207.338	2.22
207.557	1.47
207.777	1.32
207.996	1.48
208.215	2.4
208.434	1.12
208.654	0.66
208.873	1.63
209.092	2.13
209.311	0.97
209.53	1.01
209.749	1.07
209.968	1.05
210.187	1.2
210.407	0.79
210.626	1.28
210.845	1.73
211.064	1.26
211.283	0.6
211.502	1.54
211.721	1.19
211.94	1.14
212.159	1.31
212.377	1.49
212.596	1.39
212.815	1.2
213.034	1.12
213.253	1.34
213.472	1.49
213.691	1.03
213.91	0.82
214.128	0.61
214.347	1.63
214.566	0.39
214.785	0.5
215.003	1.21
215.222	1.27
215.441	0.97
215.66	0.6
215.878	1.07
216.097	1.27
216.316	0.77
216.534	0.89
216.753	1.31
216.972	0.92
217.19	0.85
217.409	0.67
217.627	0.88
217.846	0.82
218.064	1.11
218.283	0.74
218.501	1.58
218.72	1.18
218.938	0.7
219.157	0.61
219.375	1.16
219.594	1.13
219.812	0.5
220.031	0.52
220.249	1.23
220.467	1.12
220.686	0.66
220.904	0.44
221.122	0.85
221.341	1.26
221.559	0.83
221.777	0.44
221.995	0.86
222.214	1.07
222.432	0.67
222.65	0.87
222.868	0.65
223.086	0.85
223.305	0.97
223.523	0.66
223.741	1.04
223.959	0.58
224.177	0.35
224.395	0.49
224.613	0.85
224.831	0.94
225.049	0.45
225.267	0.71
225.485	0.79
225.703	0.58
225.921	0.6
226.139	0.55
226.357	0.85
226.575	0.91
226.793	0.54
227.011	1.55
227.229	0.74
227.447	0.87
227.665	0.62
227.883	0.38
228.1	0.7
228.318	0.75
228.536	0.34
228.754	0.5
228.972	0.75
229.189	0.95
229.407	0.49
229.625	0.68
229.843	0.99
230.06	0.85
230.278	0.63
230.496	0.53
230.713	0.73
230.931	0.86
231.149	0.28
231.366	0.25
231.584	0.57
231.801	1.04
232.019	0.55
232.236	0.38
232.454	0.47
232.671	0.74
232.889	0.46
233.106	0.38
233.324	0.61
233.541	0.58
233.759	0.63
233.976	0.35
234.194	0.64
234.411	0.57
234.628	0.27
234.846	0.43
235.063	0.55
235.28	0.61
235.498	0.41
235.715	0.58
235.932	0.86
236.149	0.6
236.367	0.36
236.584	0.57
236.801	0.4
237.018	0.7
237.236	0.49
237.453	0.37
237.67	0.68
237.887	0.53
238.104	0.46
238.321	0.32
238.538	0.42
238.755	0.72
238.973	0.34
239.19	0.48
239.407	0.61
239.624	0.57
239.841	0.37
240.058	0.41
240.275	0.56
240.492	0.59
240.709	0.48
240.925	0.43
241.142	0.58
241.359	0.34
241.576	0.39
241.793	0.31
242.01	0.51
242.227	0.63
242.444	0.53
242.66	0.63
242.877	0.61
243.094	0.46
243.311	0.48
243.527	0.47
243.744	0.5
243.961	0.53
244.178	0.42
244.394	0.43
244.611	0.67
244.828	0.68
245.044	0.31
245.261	0.29
245.477	0.5
245.694	0.57
245.911	0.25
246.127	0.51
246.344	0.65
246.56	0.57
246.777	0.37
246.993	0.36
247.21	0.48
247.426	0.51
247.643	0.43
247.859	0.27
248.076	0.33
248.292	0.69
248.508	0.4
248.725	0.47
248.941	0.6
249.157	0.68
249.374	0.26
249.59	0.41
249.806	0.44
250.023	0.51
250.239	0.39
250.455	0.27
250.671	0.5
250.888	0.57
251.104	0.45
251.32	0.38
251.536	0.36
251.752	0.4
251.969	0.39
252.185	0.4
252.401	0.66
252.617	0.52
252.833	0.29
253.049	0.41
253.265	0.49
253.481	0.41
253.697	0.36
253.913	0.29
254.129	0.48
254.345	0.43
254.561	0.37
254.777	0.35
254.993	0.47
255.209	0.48
255.425	0.39
255.641	0.34
255.857	0.48
256.073	0.45
256.288	0.22
256.504	0.4
256.72	0.43
256.936	0.66
257.152	0.4
257.367	0.26
257.583	0.46
257.799	0.49
258.015	0.36
258.23	0.3
258.446	0.68
258.662	0.38
258.877	0.3
259.093	0.25
259.309	0.46
259.524	0.46
259.74	0.34
259.955	0.27
260.171	0.4
260.387	0.39
260.602	0.45
260.818	0.43
261.033	0.27
261.249	0.43
261.464	0.3
261.68	0.26
261.895	0.44
262.11	0.47
262.326	0.31
262.541	0.23
262.757	0.44
262.972	0.49
263.187	0.37
263.403	0.34
263.618	0.49
263.833	0.41
264.049	0.3
264.264	0.34
264.479	0.41
264.694	0.55
264.91	0.27
265.125	0.31
265.34	0.53
265.555	0.65
265.77	0.42
265.986	0.27
266.201	0.41
266.416	0.52
266.631	0.33
266.846	0.31
267.061	0.47
267.276	0.45
267.491	0.24
267.706	0.4
267.921	0.41
268.136	0.44
268.351	0.37
268.566	0.23
268.781	0.47
268.996	0.43
269.211	0.38
269.426	0.27
269.641	0.33
269.856	0.5
270.071	0.33
270.285	0.19
270.5	0.48
270.715	0.45
270.93	0.32
271.145	0.43
271.359	0.46
271.574	0.34
271.789	0.28
272.004	0.25
272.218	0.35
272.433	0.46
272.648	0.24
272.862	0.42
273.077	0.36
273.292	0.34
273.506	0.26
273.721	0.21
273.936	0.39
274.15	0.48
274.365	0.29
274.579	0.37
274.794	0.4
275.008	0.47
275.223	0.29
275.437	0.37
275.652	0.4
275.866	0.38
276.081	0.27
276.295	0.41
276.509	0.34
276.724	0.35
276.938	0.36
277.153	0.4
277.367	0.32
277.581	0.3
277.796	0.28
278.01	0.21
278.224	0.37
278.438	0.5
278.653	0.23
278.867	0.27
279.081	0.19
279.295	0.3
279.51	0.31
279.724	0.15
279.938	0.4
280.152	0.36
280.366	0.24
280.58	0.31
280.794	0.41
281.008	0.38
281.222	0.38
281.437	0.49
281.651	0.43
281.865	0.45
282.079	0.31
282.293	0.19
282.507	0.25
282.721	0.29
282.935	0.33
283.148	0.24
283.362	0.29
283.576	0.27
283.79	0.24
284.004	0.26
284.218	0.43
284.432	0.28
284.646	0.32
284.859	0.27
285.073	0.3
285.287	0.34
285.501	0.27
285.714	0.3
285.928	0.35
286.142	0.39
286.356	0.26
286.569	0.31
286.783	0.43
286.997	0.36
287.21	0.29
287.424	0.3
287.637	0.29
287.851	0.26
288.065	0.35
288.278	0.26
288.492	0.35
288.705	0.25
288.919	0.34
289.132	0.19
289.346	0.38
289.559	0.17
289.773	0.22
289.986	0.27
290.2	0.27
290.413	0.36
290.626	0.28
290.84	0.27
291.053	0.31
291.267	0.37
291.48	0.3
291.693	0.25
291.906	0.29
292.12	0.29
292.333	0.26
292.546	0.3
292.76	0.38
292.973	0.34
293.186	0.34
293.399	0.27
293.612	0.32
293.826	0.27
294.039	0.23
294.252	0.26
294.465	0.33
294.678	0.3
294.891	0.31
295.104	0.23
295.317	0.29
295.53	0.32
295.743	0.29
295.956	0.26
296.169	0.47
296.382	0.36
296.595	0.23
296.808	0.23
297.021	0.36
297.234	0.35
297.447	0.26
297.66	0.25
297.873	0.34
298.086	0.35
298.299	0.2
298.511	0.14
298.724	0.28
298.937	0.22
299.15	0.23
299.363	0.26
299.575	0.36
299.788	0.31
300.001	0.23
300.213	0.24
300.426	0.3
300.639	0.24
300.852	0.23
301.064	0.33
301.277	0.36
301.489	0.34
301.702	0.32
301.915	0.29
302.127	0.27
302.34	0.31
302.552	0.31
302.765	0.22
302.977	0.39
303.19	0.25
303.402	0.3
303.615	0.23
303.827	0.26
304.04	0.25
304.252	0.3
304.464	0.26
304.677	0.43
304.889	0.37
305.102	0.19
305.314	0.23
305.526	0.31
305.739	0.27
305.951	0.18
306.163	0.23
306.375	0.36
306.588	0.24
306.8	0.25
307.012	0.2
307.224	0.26
307.436	0.35
307.649	0.19
307.861	0.24
308.073	0.33
308.285	0.23
308.497	0.21
308.709	0.23
308.921	0.25
309.133	0.34
309.346	0.22
309.558	0.26
309.77	0.28
309.982	0.36
310.194	0.29
310.406	0.24
310.617	0.38
310.829	0.28
311.041	0.29
311.253	0.21
311.465	0.22
311.677	0.26
311.889	0.22
312.101	0.22
312.313	0.32
312.524	0.37
312.736	0.2
312.948	0.26
313.16	0.39
313.372	0.32
313.583	0.31
313.795	0.27
314.007	0.28
314.218	0.31
314.43	0.28
314.642	0.23
314.853	0.17
315.065	0.35
315.277	0.25
315.488	0.29
315.7	0.31
315.912	0.32
316.123	0.28
316.335	0.27
316.546	0.39
316.758	0.3
316.969	0.23
317.181	0.26
317.392	0.27
317.604	0.29
317.815	0.17
318.026	0.18
318.238	0.27
318.449	0.34
318.661	0.14
318.872	0.15
319.083	0.22
319.295	0.31
319.506	0.23
319.717	0.29
319.929	0.31
320.14	0.28
320.351	0.29
320.562	0.22
320.774	0.3
320.985	0.24
321.196	0.23
321.407	0.17
321.618	0.34
321.829	0.28
322.041	0.31
322.252	0.23
322.463	0.32
322.674	0.31
322.885	0.18
323.096	0.24
323.307	0.26
323.518	0.31
323.729	0.2
323.94	0.21
324.151	0.21
324.362	0.28
324.573	0.29
324.784	0.25
324.995	0.33
325.206	0.31
325.417	0.27
325.628	0.26
325.838	0.28
326.049	0.32
326.26	0.33
326.471	0.24
326.682	0.31
326.892	0.33
327.103	0.17
327.314	0.2
327.525	0.37
327.735	0.26
327.946	0.22
328.157	0.2
328.368	0.27
328.578	0.27
328.789	0.31
328.999	0.28
329.21	0.26
329.421	0.33
329.631	0.22
329.842	0.21
330.052	0.29
330.263	0.25
330.473	0.29
330.684	0.25
330.894	0.31
331.105	0.25
331.315	0.31
331.526	0.21
331.736	0.37
331.947	0.29
332.157	0.29
332.367	0.18
332.578	0.29
332.788	0.34
332.999	0.32
333.209	0.23
333.419	0.22
333.629	0.31
333.84	0.26
334.05	0.28
334.26	0.37
334.47	0.31
334.681	0.28
334.891	0.18
335.101	0.33
335.311	0.38
335.521	0.22
335.732	0.19
335.942	0.28
336.152	0.28
336.362	0.34
336.572	0.26
336.782	0.35
336.992	0.21
337.202	0.24
337.412	0.25
337.622	0.32
337.832	0.27
338.042	0.27
338.252	0.23
338.462	0.27
338.672	0.27
338.882	0.3
339.092	0.26
339.302	0.37
339.511	0.29
339.721	0.28
339.931	0.18
340.141	0.36
340.351	0.3
340.561	0.29
340.77	0.32
340.98	0.3
341.19	0.31
341.4	0.25
341.609	0.18
341.819	0.27
342.029	0.21
342.238	0.27
342.448	0.22
342.658	0.36
342.867	0.24
343.077	0.21
343.286	0.25
343.496	0.3
343.706	0.37
343.915	0.21
344.125	0.27
344.334	0.28
344.544	0.24
344.753	0.23
344.963	0.2
345.172	0.19
345.381	0.22
345.591	0.2
345.8	0.24
346.01	0.36
346.219	0.31
346.428	0.14
346.638	0.23
346.847	0.26
347.056	0.33
347.266	0.21
347.475	0.22
347.684	0.37
347.893	0.32
348.103	0.26
348.312	0.23
348.521	0.26
348.73	0.27
348.94	0.2
349.149	0.2
349.358	0.26
349.567	0.23
349.776	0.16
349.985	0.2
350.194	0.33
350.403	0.35
350.612	0.18
350.821	0.21
351.03	0.23
351.239	0.19
351.448	0.26
351.657	0.2
351.866	0.4
352.075	0.29
352.284	0.26
352.493	0.2
352.702	0.36
352.911	0.3
353.12	0.24
353.329	0.25
353.538	0.31
353.746	0.21
353.955	0.19
354.164	0.27
354.373	0.21
354.582	0.3
354.79	0.27
354.999	0.31
355.208	0.26
355.416	0.34
355.625	0.21
355.834	0.22
356.042	0.27
356.251	0.24
356.46	0.18
356.668	0.27
356.877	0.37
357.085	0.3
357.294	0.2
357.503	0.27
357.711	0.23
357.92	0.46
358.128	0.26
358.337	0.21
358.545	0.26
358.754	0.26
358.962	0.3
359.17	0.24
359.379	0.25
359.587	0.24
359.796	0.26
360.004	0.35
360.212	0.31
360.421	0.33
360.629	0.24
360.837	0.2
361.046	0.3
361.254	0.4
361.462	0.25
361.67	0.23
361.879	0.28
362.087	0.39
362.295	0.26
362.503	0.22
362.711	0.23
362.92	0.27
363.128	0.2
363.336	0.18
363.544	0.21
363.752	0.27
363.96	0.25
364.168	0.24
364.376	0.29
364.584	0.23
364.792	0.31
365	0.24
365.208	0.28
365.416	0.31
365.624	0.3
365.832	0.22
366.04	0.34
366.248	0.23
366.456	0.29
366.664	0.26
366.872	0.26
367.079	0.27
367.287	0.3
367.495	0.25
367.703	0.21
367.911	0.26
368.118	0.21
368.326	0.27
368.534	0.2
368.742	0.32
368.949	0.2
369.157	0.2
369.365	0.31
369.572	0.28
369.78	0.21
369.988	0.28
370.195	0.27
370.403	0.29
370.61	0.25
370.818	0.29
371.026	0.34
371.233	0.25
371.441	0.22
371.648	0.19
371.856	0.27
372.063	0.25
372.271	0.26
372.478	0.2
372.685	0.25
372.893	0.31
373.1	0.23
373.308	0.25
373.515	0.39
373.722	0.35
373.93	0.27
374.137	0.29
374.344	0.34
374.552	0.34
374.759	0.29
374.966	0.27
375.173	0.28
375.381	0.34
375.588	0.26
375.795	0.18
376.002	0.21
376.209	0.26
376.417	0.27
376.624	0.3
376.831	0.33
377.038	0.23
377.245	0.21
377.452	0.23
377.659	0.29
377.866	0.29
378.073	0.26
378.28	0.27
378.487	0.32
378.694	0.31
378.901	0.23
379.108	0.25
379.315	0.3
379.522	0.33
379.729	0.31
379.936	0.26
380.143	0.31
380.35	0.29
380.557	0.23
380.763	0.22
380.97	0.29
381.177	0.28
381.384	0.28
381.591	0.26
381.797	0.28
382.004	0.37
382.211	0.28
382.418	0.22
382.624	0.33
382.831	0.36
383.038	0.21
383.244	0.29
383.451	0.32
383.658	0.31
383.864	0.25
384.071	0.21
384.277	0.4
384.484	0.27
384.69	0.36
384.897	0.28
385.103	0.29
385.31	0.28
385.516	0.26
385.723	0.23
385.929	0.31
386.136	0.27
386.342	0.34
386.549	0.23
386.755	0.36
386.961	0.34
387.168	0.27
387.374	0.27
387.58	0.34
387.787	0.37
387.993	0.32
388.199	0.31
388.406	0.27
388.612	0.27
388.818	0.26
389.024	0.28
389.231	0.27
389.437	0.42
389.643	0.31
389.849	0.26
390.055	0.32
390.261	0.29
390.467	0.37
390.674	0.29
390.88	0.33
391.086	0.35
391.292	0.27
391.498	0.34
391.704	0.38
391.91	0.3
392.116	0.32
392.322	0.21
392.528	0.36
392.734	0.29
392.94	0.34
393.146	0.35
393.352	0.36
393.557	0.28
393.763	0.28
393.969	0.35
394.175	0.31
394.381	0.37
394.587	0.28
394.792	0.3
394.998	0.38
395.204	0.4
395.41	0.27
395.615	0.35
395.821	0.33
396.027	0.35
396.233	0.31
396.438	0.39
396.644	0.38
396.85	0.4
397.055	0.33
397.261	0.33
397.466	0.43
397.672	0.33
397.878	0.37
398.083	0.36
398.289	0.3
398.494	0.44
398.7	0.41
398.905	0.22
399.111	0.45
399.316	0.28
399.522	0.38
399.727	0.35
399.932	0.34
400.138	0.34
400.343	0.41
400.549	0.36
400.754	0.39
400.959	0.36
401.165	0.32
401.37	0.35
401.575	0.36
401.78	0.39
401.986	0.34
402.191	0.38
402.396	0.4
402.601	0.42
402.807	0.36
403.012	0.41
403.217	0.46
403.422	0.43
403.627	0.45
403.832	0.42
404.037	0.5
404.243	0.47
404.448	0.38
404.653	0.45
404.858	0.48
405.063	0.45
405.268	0.37
405.473	0.41
405.678	0.42
405.883	0.64
406.088	0.48
406.293	0.4
406.498	0.45
406.703	0.56
406.907	0.51
407.112	0.42
407.317	0.55
407.522	0.58
407.727	0.48
407.932	0.61
408.136	0.69
408.341	0.54
408.546	0.59
408.751	0.57
408.956	0.61
409.16	0.69
409.365	0.55
409.57	0.58
409.774	0.59
409.979	0.69
410.184	0.73
410.388	0.62
410.593	0.78
410.798	0.78
411.002	0.74
411.207	0.8
411.411	0.81
411.616	0.73
411.82	0.8
412.025	0.85
412.229	0.83
412.434	0.97
412.638	0.94
412.843	0.92
413.047	0.99
413.252	0.95
413.456	0.98
413.66	1.06
413.865	1.01
414.069	1.12
414.273	1.1
414.478	1.08
414.682	1.18
414.886	1.19
415.091	1.15
415.295	1.2
415.499	1.36
415.703	1.31
415.908	1.42
416.112	1.34
416.316	1.55
416.52	1.5
416.724	1.48
416.929	1.51
417.133	1.77
417.337	1.64
417.541	1.67
417.745	1.76
417.949	1.92
418.153	1.97
418.357	1.85
418.561	2.12
418.765	2.09
418.969	2.27
419.173	2.29
419.377	2.32
419.581	2.56
419.785	2.43
419.989	2.51
420.193	2.72
420.397	2.72
420.601	2.86
420.804	2.94
421.008	2.91
421.212	3.12
421.416	3.12
421.62	3.07
421.823	3.2
422.027	3.38
422.231	3.32
422.435	3.27
422.638	3.36
422.842	3.51
423.046	3.51
423.249	3.74
423.453	3.8
423.657	3.88
423.86	3.93
424.064	4.13
424.268	4.2
424.471	4.22
424.675	4.45
424.878	4.59
425.082	4.7
425.285	4.94
425.489	4.81
425.692	4.96
425.896	5.01
426.099	5.22
426.303	5.36
426.506	5.43
426.71	5.76
426.913	5.92
427.116	6.07
427.32	6.07
427.523	6.14
427.726	6.51
427.93	6.45
428.133	6.8
428.336	6.91
428.54	7.09
428.743	7.31
428.946	7.59
429.149	7.58
429.353	7.58
429.556	7.66
429.759	7.79
429.962	7.82
430.165	7.99
430.368	7.66
430.571	7.75
430.775	7.69
430.978	7.79
431.181	7.94
431.384	7.9
431.587	8.07
431.79	8.44
431.993	8.31
432.196	8.71
432.399	8.96
432.602	9.22
432.805	9.2
433.008	9.89
433.211	9.53
433.414	9.98
433.616	10.09
433.819	9.92
434.022	10.1
434.225	10.37
434.428	10.28
434.631	10.8
434.833	10.56
435.036	10.81
435.239	11.08
435.442	10.99
435.645	11.24
435.847	11.31
436.05	11.69
436.253	11.8
436.455	11.9
436.658	11.78
436.861	12.08
437.063	12.15
437.266	12.14
437.468	12.56
437.671	12.86
437.874	12.86
438.076	12.68
438.279	13.1
438.481	13.2
438.684	13.81
438.886	13.57
439.089	13.62
439.291	13.89
439.494	14.25
439.696	14.23
439.899	14.94
440.101	15.26
440.303	15.45
440.506	16.21
440.708	15.86
440.91	16.07
441.113	16.22
441.315	16.66
441.517	16.42
441.72	16.87
441.922	16.38
442.124	16.38
442.326	16.8
442.529	17.16
442.731	17.07
442.933	17.31
443.135	17.07
443.337	17.08
443.539	17.61
443.742	17.22
443.944	17.83
444.146	17.78
444.348	17.67
444.55	17.53
444.752	17.79
444.954	17.8
445.156	17.72
445.358	17.97
445.56	18.47
445.762	18.16
445.964	18.61
446.166	18.15
446.368	18.53
446.57	18.34
446.772	17.94
446.974	17.62
447.175	18.22
447.377	17.81
447.579	18.21
447.781	17.93
447.983	17.64
448.184	17.28
448.386	17.64
448.588	17.23
448.79	17.1
448.991	17.42
449.193	17.51
449.395	16.7
449.597	16.48
449.798	16.45
450	16.04
450.202	15.97
450.403	15.97
450.605	15.85
450.806	15.47
451.008	15.26
451.21	15.14
451.411	14.8
451.613	13.97
451.814	14.32
452.016	14.24
452.217	13.55
452.419	13.55
452.62	13.18
452.821	12.95
453.023	12.82
453.224	12.49
453.426	12.07
453.627	11.38
453.828	11.39
454.03	11.52
454.231	11.54
454.432	11.33
454.634	11.14
454.835	10.76
455.036	10.67
455.238	10.32
455.439	10.11
455.64	9.74
455.841	9.66
456.042	9.87
456.244	9.51
456.445	9.12
456.646	8.83
456.847	8.84
457.048	8.67
457.249	8.73
457.45	8.53
457.651	7.93
457.852	7.84
458.054	7.48
458.255	7.4
458.456	7.52
458.657	7.37
458.858	6.91
459.058	6.91
459.259	6.9
459.46	6.63
459.661	6.61
459.862	6.66
460.063	6.54
460.264	6.51
460.465	6.06
460.666	6.17
460.866	5.91
461.067	5.72
461.268	5.67
461.469	5.74
461.67	5.53
461.87	5.44
462.071	5.41
462.272	5.33
462.473	5.21
462.673	5.44
462.874	5.27
463.075	5.22
463.275	5.25
463.476	5.34
463.676	5.22
463.877	5.03
464.078	5.13
464.278	5.17
464.479	4.98
464.679	4.92
464.88	4.96
465.08	4.94
465.281	4.6
465.481	4.43
465.682	4.22
465.882	4.33
466.083	4.23
466.283	4.13
466.483	4.02
466.684	3.84
466.884	3.73
467.085	3.82
467.285	3.91
467.485	3.75
467.686	3.68
467.886	3.55
468.086	3.5
468.286	3.53
468.487	3.62
468.687	3.39
468.887	3.34
469.087	3.54
469.287	3.35
469.488	3.21
469.688	3.32
469.888	3.35
470.088	3.23
470.288	3.19
470.488	3.21
470.688	2.98
470.888	2.99
471.088	2.82
471.288	2.99
471.488	2.86
471.688	2.85
471.888	2.81
472.088	2.95
472.288	2.84
472.488	2.73
472.688	2.66
472.888	2.71
473.088	2.66
473.288	2.59
473.488	2.53
473.688	2.71
473.887	2.58
474.087	2.48
474.287	2.55
474.487	2.47
474.687	2.53
474.886	2.44
475.086	2.41
475.286	2.37
475.486	2.38
475.685	2.31
475.885	2.29
476.085	2.35
476.284	2.32
476.484	2.33
476.684	2.3
476.883	2.41
477.083	2.25
477.282	2.21
477.482	2.23
477.681	2.21
477.881	2.11
478.08	2.17
478.28	2.09
478.479	2.17
478.679	2.23
478.878	2.08
479.078	2.08
479.277	2.14
479.477	2.09
479.676	2.1
479.875	2.06
480.075	1.96
480.274	2.1
480.473	2.14
480.673	2.07
480.872	2.14
481.071	2.14
481.271	2.13
481.47	2.01
481.669	2.07
481.868	2
482.067	2.03
482.267	1.97
482.466	1.99
482.665	1.95
482.864	1.99
483.063	2.01
483.262	2.11
483.461	2.12
483.661	2.12
483.86	2.07
484.059	2.11
484.258	2.11
484.457	2.01
484.656	2.09
484.855	2.13
485.054	1.99
485.253	2.04
485.452	2.01
485.651	2.11
485.849	2.05
486.048	2.05
486.247	2.06
486.446	2.15
486.645	2.06
486.844	2.13
487.043	2.12
487.241	2.13
487.44	2.11
487.639	2.16
487.838	2.13
488.037	2.19
488.235	2.27
488.434	2.18
488.633	2.07
488.831	2.26
489.03	2.25
489.229	2.24
489.427	2.24
489.626	2.29
489.825	2.34
490.023	2.3
490.222	2.33
490.42	2.3
490.619	2.37
490.817	2.43
491.016	2.38
491.214	2.41
491.413	2.48
491.611	2.38
491.81	2.41
492.008	2.5
492.207	2.57
492.405	2.53
492.604	2.51
492.802	2.58
493	2.67
493.199	2.62
493.397	2.64
493.595	2.7
493.794	2.69
493.992	2.81
494.19	2.7
494.388	2.84
494.587	2.8
494.785	2.79
494.983	2.76
495.181	2.85
495.379	2.92
495.578	2.94
495.776	2.99
495.974	2.96
496.172	2.99
496.37	3.13
496.568	3.09
496.766	3.11
496.964	3.18
497.162	3.16
497.36	3.25
497.558	3.22
497.756	3.31
497.954	3.29
498.152	3.36
498.35	3.43
498.548	3.38
498.746	3.38
498.944	3.41
499.142	3.45
499.34	3.53
499.538	3.62
499.736	3.55
499.933	3.64
500.131	3.61
500.329	3.8
500.527	3.78
500.725	3.9
500.922	3.87
501.12	3.88
501.318	3.97
501.516	3.9
501.713	4.01
501.911	3.98
502.109	3.95
502.306	4.11
