Data from Apollo_Calib_20240827__AbsoluteIrradiance__868__13-37-01-983.txt Node

Date: Wed Aug 28 13:37:01 BST 2024
User: biology
Spectrometer: FLMT08252
Trigger mode: 0
Integration Time (sec): 5.000000E-1
Scans to average: 5
Electric dark correction enabled: true
Nonlinearity correction enabled: false
Boxcar width: 0
XAxis mode: Wavelengths
Number of Pixels in Spectrum: 3648
>>>>>Begin Spectral Data<<<<<
179.588	-0
179.809	-0
180.03	-0
180.251	-0
180.473	-0
180.694	0
180.915	0
181.136	-0
181.357	0
181.578	-0
181.799	0
182.02	-0
182.241	-0
182.462	-0
182.683	0
182.904	-0
183.125	-0
183.346	0
183.567	0
183.788	0
184.009	0
184.23	0
184.451	0
184.672	0
184.892	0
185.113	0
185.334	0
185.555	0
185.776	0
185.996	0
186.217	0
186.438	0
186.659	0
186.879	0
187.1	0
187.321	0
187.541	0
187.762	0
187.983	0
188.203	0
188.424	0
188.644	0
188.865	0
189.086	0
189.306	0
189.527	0
189.747	0
189.968	0
190.188	0
190.409	0
190.629	0
190.849	0
191.07	0
191.29	0
191.511	0
191.731	0
191.951	0
192.172	0
192.392	0
192.612	0
192.833	0
193.053	0
193.273	0
193.493	0
193.714	0
193.934	0
194.154	0
194.374	0
194.594	0
194.815	0
195.035	0
195.255	0
195.475	0
195.695	0
195.915	0
196.135	0
196.355	0
196.575	0
196.795	0
197.015	0
197.235	0
197.455	0
197.675	0
197.895	0
198.115	0
198.335	0
198.555	0
198.775	0
198.995	0
199.214	0
199.434	0
199.654	0
199.874	0
200.094	3.67
200.313	2.83
200.533	1.32
200.753	1.33
200.973	3.1
201.192	3.27
201.412	1.18
201.632	2.04
201.851	3.54
202.071	2.33
202.291	1.4
202.51	1.19
202.73	2.46
202.95	1.6
203.169	0.87
203.389	1.54
203.608	2.24
203.828	1.82
204.047	1.14
204.267	1.99
204.486	2.33
204.706	1.96
204.925	1.89
205.145	1.27
205.364	2.8
205.583	3
205.803	1.33
206.022	0.96
206.242	1.57
206.461	1.44
206.68	1.28
206.9	1.4
207.119	2.27
207.338	1.9
207.557	0.94
207.777	1.07
207.996	1.48
208.215	2.17
208.434	0.92
208.654	0.73
208.873	1.55
209.092	2.1
209.311	0.79
209.53	0.95
209.749	1.03
209.968	1.11
210.187	0.77
210.407	0.7
210.626	1.3
210.845	1.7
211.064	0.95
211.283	0.72
211.502	1.74
211.721	1.14
211.94	1.08
212.159	1.17
212.377	1.61
212.596	1.31
212.815	1.02
213.034	1.22
213.253	1.26
213.472	1.21
213.691	1.07
213.91	0.69
214.128	0.74
214.347	1.42
214.566	0.46
214.785	0.53
215.003	1.17
215.222	1
215.441	0.86
215.66	0.22
215.878	0.92
216.097	1.28
216.316	0.74
216.534	0.92
216.753	0.93
216.972	0.64
217.19	0.72
217.409	0.62
217.627	0.76
217.846	0.6
218.064	0.98
218.283	0.59
218.501	1.32
218.72	1.22
218.938	0.7
219.157	0.66
219.375	1.06
219.594	1.05
219.812	0.5
220.031	0.51
220.249	1.39
220.467	1.08
220.686	0.81
220.904	0.41
221.122	0.76
221.341	1.05
221.559	0.81
221.777	0.44
221.995	0.83
222.214	0.82
222.432	0.52
222.65	0.73
222.868	0.67
223.086	0.68
223.305	0.92
223.523	0.68
223.741	1.13
223.959	0.59
224.177	0.46
224.395	0.47
224.613	0.71
224.831	0.95
225.049	0.26
225.267	0.55
225.485	0.74
225.703	0.51
225.921	0.57
226.139	0.41
226.357	0.78
226.575	0.73
226.793	0.46
227.011	1.74
227.229	0.79
227.447	0.86
227.665	0.48
227.883	0.39
228.1	0.68
228.318	0.79
228.536	0.37
228.754	0.43
228.972	0.68
229.189	0.74
229.407	0.43
229.625	0.56
229.843	0.91
230.06	0.68
230.278	0.52
230.496	0.51
230.713	0.6
230.931	0.67
231.149	0.47
231.366	0.21
231.584	0.63
231.801	1.17
232.019	0.37
232.236	0.29
232.454	0.46
232.671	0.67
232.889	0.34
233.106	0.35
233.324	0.63
233.541	0.49
233.759	0.51
233.976	0.43
234.194	0.47
234.411	0.66
234.628	0.38
234.846	0.43
235.063	0.65
235.28	0.57
235.498	0.46
235.715	0.3
235.932	0.72
236.149	0.46
236.367	0.36
236.584	0.53
236.801	0.51
237.018	0.64
237.236	0.47
237.453	0.18
237.67	0.77
237.887	0.47
238.104	0.34
238.321	0.42
238.538	0.4
238.755	0.75
238.973	0.24
239.19	0.34
239.407	0.56
239.624	0.45
239.841	0.31
240.058	0.33
240.275	0.45
240.492	0.51
240.709	0.44
240.925	0.41
241.142	0.56
241.359	0.38
241.576	0.28
241.793	0.22
242.01	0.48
242.227	0.66
242.444	0.47
242.66	0.57
242.877	0.56
243.094	0.46
243.311	0.4
243.527	0.35
243.744	0.58
243.961	0.46
244.178	0.37
244.394	0.38
244.611	0.6
244.828	0.71
245.044	0.32
245.261	0.34
245.477	0.52
245.694	0.56
245.911	0.26
246.127	0.4
246.344	0.67
246.56	0.51
246.777	0.36
246.993	0.49
247.21	0.44
247.426	0.56
247.643	0.35
247.859	0.28
248.076	0.36
248.292	0.69
248.508	0.32
248.725	0.45
248.941	0.49
249.157	0.66
249.374	0.25
249.59	0.38
249.806	0.42
250.023	0.6
250.239	0.3
250.455	0.28
250.671	0.49
250.888	0.46
251.104	0.46
251.32	0.35
251.536	0.38
251.752	0.36
251.969	0.43
252.185	0.38
252.401	0.72
252.617	0.46
252.833	0.35
253.049	0.36
253.265	0.39
253.481	0.47
253.697	0.3
253.913	0.3
254.129	0.52
254.345	0.45
254.561	0.33
254.777	0.36
254.993	0.46
255.209	0.39
255.425	0.34
255.641	0.27
255.857	0.51
256.073	0.43
256.288	0.23
256.504	0.28
256.72	0.44
256.936	0.6
257.152	0.39
257.367	0.32
257.583	0.4
257.799	0.54
258.015	0.24
258.23	0.26
258.446	0.61
258.662	0.41
258.877	0.22
259.093	0.2
259.309	0.37
259.524	0.41
259.74	0.24
259.955	0.19
260.171	0.34
260.387	0.45
260.602	0.34
260.818	0.36
261.033	0.32
261.249	0.4
261.464	0.26
261.68	0.22
261.895	0.43
262.11	0.43
262.326	0.31
262.541	0.2
262.757	0.37
262.972	0.42
263.187	0.38
263.403	0.37
263.618	0.45
263.833	0.32
264.049	0.34
264.264	0.32
264.479	0.4
264.694	0.48
264.91	0.26
265.125	0.31
265.34	0.46
265.555	0.58
265.77	0.32
265.986	0.24
266.201	0.41
266.416	0.48
266.631	0.26
266.846	0.29
267.061	0.44
267.276	0.42
267.491	0.11
267.706	0.43
267.921	0.35
268.136	0.38
268.351	0.3
268.566	0.22
268.781	0.46
268.996	0.44
269.211	0.34
269.426	0.24
269.641	0.35
269.856	0.51
270.071	0.27
270.285	0.15
270.5	0.35
270.715	0.41
270.93	0.25
271.145	0.36
271.359	0.48
271.574	0.33
271.789	0.31
272.004	0.31
272.218	0.32
272.433	0.34
272.648	0.24
272.862	0.4
273.077	0.34
273.292	0.36
273.506	0.31
273.721	0.28
273.936	0.42
274.15	0.43
274.365	0.25
274.579	0.41
274.794	0.42
275.008	0.43
275.223	0.17
275.437	0.26
275.652	0.43
275.866	0.37
276.081	0.3
276.295	0.45
276.509	0.37
276.724	0.33
276.938	0.37
277.153	0.33
277.367	0.4
277.581	0.27
277.796	0.28
278.01	0.17
278.224	0.37
278.438	0.47
278.653	0.28
278.867	0.24
279.081	0.38
279.295	0.29
279.51	0.33
279.724	0.2
279.938	0.39
280.152	0.42
280.366	0.28
280.58	0.31
280.794	0.47
281.008	0.39
281.222	0.31
281.437	0.52
281.651	0.34
281.865	0.44
282.079	0.35
282.293	0.17
282.507	0.29
282.721	0.27
282.935	0.21
283.148	0.18
283.362	0.25
283.576	0.25
283.79	0.24
284.004	0.26
284.218	0.44
284.432	0.29
284.646	0.28
284.859	0.24
285.073	0.26
285.287	0.32
285.501	0.27
285.714	0.28
285.928	0.36
286.142	0.35
286.356	0.25
286.569	0.23
286.783	0.4
286.997	0.33
287.21	0.31
287.424	0.27
287.637	0.24
287.851	0.23
288.065	0.33
288.278	0.25
288.492	0.31
288.705	0.23
288.919	0.27
289.132	0.16
289.346	0.38
289.559	0.18
289.773	0.18
289.986	0.29
290.2	0.34
290.413	0.4
290.626	0.22
290.84	0.22
291.053	0.32
291.267	0.32
291.48	0.26
291.693	0.25
291.906	0.26
292.12	0.27
292.333	0.23
292.546	0.21
292.76	0.44
292.973	0.3
293.186	0.34
293.399	0.22
293.612	0.34
293.826	0.29
294.039	0.24
294.252	0.19
294.465	0.31
294.678	0.27
294.891	0.25
295.104	0.19
295.317	0.25
295.53	0.32
295.743	0.27
295.956	0.2
296.169	0.4
296.382	0.32
296.595	0.24
296.808	0.22
297.021	0.3
297.234	0.33
297.447	0.26
297.66	0.34
297.873	0.4
298.086	0.32
298.299	0.22
298.511	0.19
298.724	0.3
298.937	0.25
299.15	0.16
299.363	0.22
299.575	0.33
299.788	0.29
300.001	0.24
300.213	0.21
300.426	0.24
300.639	0.25
300.852	0.23
301.064	0.26
301.277	0.4
301.489	0.29
301.702	0.25
301.915	0.28
302.127	0.25
302.34	0.28
302.552	0.25
302.765	0.22
302.977	0.31
303.19	0.23
303.402	0.23
303.615	0.2
303.827	0.25
304.04	0.23
304.252	0.29
304.464	0.27
304.677	0.42
304.889	0.35
305.102	0.16
305.314	0.21
305.526	0.29
305.739	0.29
305.951	0.22
306.163	0.23
306.375	0.35
306.588	0.22
306.8	0.23
307.012	0.16
307.224	0.32
307.436	0.38
307.649	0.15
307.861	0.29
308.073	0.3
308.285	0.25
308.497	0.2
308.709	0.17
308.921	0.22
309.133	0.33
309.346	0.21
309.558	0.24
309.77	0.25
309.982	0.39
310.194	0.27
310.406	0.23
310.617	0.36
310.829	0.25
311.041	0.26
311.253	0.21
311.465	0.26
311.677	0.29
311.889	0.29
312.101	0.21
312.313	0.33
312.524	0.31
312.736	0.21
312.948	0.21
313.16	0.34
313.372	0.32
313.583	0.26
313.795	0.22
314.007	0.2
314.218	0.29
314.43	0.22
314.642	0.23
314.853	0.12
315.065	0.28
315.277	0.27
315.488	0.28
315.7	0.32
315.912	0.27
316.123	0.27
316.335	0.23
316.546	0.34
316.758	0.24
316.969	0.22
317.181	0.27
317.392	0.28
317.604	0.34
317.815	0.21
318.026	0.27
318.238	0.25
318.449	0.34
318.661	0.16
318.872	0.17
319.083	0.23
319.295	0.25
319.506	0.22
319.717	0.28
319.929	0.29
320.14	0.24
320.351	0.26
320.562	0.2
320.774	0.29
320.985	0.27
321.196	0.21
321.407	0.15
321.618	0.32
321.829	0.28
322.041	0.29
322.252	0.2
322.463	0.32
322.674	0.28
322.885	0.2
323.096	0.25
323.307	0.24
323.518	0.24
323.729	0.23
323.94	0.21
324.151	0.24
324.362	0.31
324.573	0.27
324.784	0.22
324.995	0.33
325.206	0.24
325.417	0.24
325.628	0.19
325.838	0.3
326.049	0.27
326.26	0.32
326.471	0.24
326.682	0.24
326.892	0.26
327.103	0.14
327.314	0.18
327.525	0.33
327.735	0.27
327.946	0.19
328.157	0.21
328.368	0.29
328.578	0.27
328.789	0.3
328.999	0.26
329.21	0.25
329.421	0.35
329.631	0.22
329.842	0.2
330.052	0.31
330.263	0.21
330.473	0.27
330.684	0.24
330.894	0.23
331.105	0.23
331.315	0.26
331.526	0.19
331.736	0.36
331.947	0.31
332.157	0.24
332.367	0.17
332.578	0.25
332.788	0.34
332.999	0.3
333.209	0.24
333.419	0.17
333.629	0.3
333.84	0.26
334.05	0.24
334.26	0.34
334.47	0.3
334.681	0.32
334.891	0.21
335.101	0.29
335.311	0.34
335.521	0.25
335.732	0.22
335.942	0.35
336.152	0.26
336.362	0.22
336.572	0.27
336.782	0.28
336.992	0.21
337.202	0.25
337.412	0.2
337.622	0.27
337.832	0.25
338.042	0.27
338.252	0.2
338.462	0.24
338.672	0.27
338.882	0.17
339.092	0.24
339.302	0.31
339.511	0.32
339.721	0.2
339.931	0.14
340.141	0.34
340.351	0.28
340.561	0.23
340.77	0.28
340.98	0.25
341.19	0.28
341.4	0.24
341.609	0.19
341.819	0.21
342.029	0.2
342.238	0.29
342.448	0.2
342.658	0.31
342.867	0.24
343.077	0.25
343.286	0.22
343.496	0.24
343.706	0.36
343.915	0.21
344.125	0.23
344.334	0.3
344.544	0.18
344.753	0.23
344.963	0.22
345.172	0.21
345.381	0.29
345.591	0.16
345.8	0.28
346.01	0.29
346.219	0.31
346.428	0.1
346.638	0.23
346.847	0.27
347.056	0.36
347.266	0.19
347.475	0.23
347.684	0.28
347.893	0.32
348.103	0.29
348.312	0.17
348.521	0.24
348.73	0.26
348.94	0.25
349.149	0.21
349.358	0.26
349.567	0.2
349.776	0.18
349.985	0.2
350.194	0.28
350.403	0.32
350.612	0.16
350.821	0.24
351.03	0.25
351.239	0.2
351.448	0.26
351.657	0.17
351.866	0.34
352.075	0.24
352.284	0.29
352.493	0.18
352.702	0.36
352.911	0.29
353.12	0.25
353.329	0.14
353.538	0.29
353.746	0.24
353.955	0.18
354.164	0.27
354.373	0.22
354.582	0.32
354.79	0.22
354.999	0.25
355.208	0.21
355.416	0.36
355.625	0.18
355.834	0.19
356.042	0.3
356.251	0.25
356.46	0.18
356.668	0.23
356.877	0.34
357.085	0.31
357.294	0.17
357.503	0.25
357.711	0.26
357.92	0.35
358.128	0.25
358.337	0.23
358.545	0.32
358.754	0.22
358.962	0.3
359.17	0.25
359.379	0.29
359.587	0.25
359.796	0.23
360.004	0.31
360.212	0.28
360.421	0.31
360.629	0.26
360.837	0.23
361.046	0.32
361.254	0.4
361.462	0.25
361.67	0.22
361.879	0.29
362.087	0.34
362.295	0.25
362.503	0.24
362.711	0.17
362.92	0.24
363.128	0.22
363.336	0.21
363.544	0.18
363.752	0.2
363.96	0.25
364.168	0.19
364.376	0.25
364.584	0.27
364.792	0.28
365	0.26
365.208	0.24
365.416	0.29
365.624	0.33
365.832	0.24
366.04	0.33
366.248	0.31
366.456	0.27
366.664	0.23
366.872	0.25
367.079	0.24
367.287	0.21
367.495	0.27
367.703	0.2
367.911	0.25
368.118	0.22
368.326	0.26
368.534	0.19
368.742	0.32
368.949	0.17
369.157	0.22
369.365	0.27
369.572	0.24
369.78	0.2
369.988	0.29
370.195	0.24
370.403	0.34
370.61	0.22
370.818	0.21
371.026	0.38
371.233	0.24
371.441	0.25
371.648	0.23
371.856	0.25
372.063	0.26
372.271	0.25
372.478	0.19
372.685	0.22
372.893	0.31
373.1	0.21
373.308	0.22
373.515	0.37
373.722	0.36
373.93	0.22
374.137	0.27
374.344	0.34
374.552	0.34
374.759	0.28
374.966	0.22
375.173	0.25
375.381	0.35
375.588	0.22
375.795	0.13
376.002	0.27
376.209	0.25
376.417	0.22
376.624	0.27
376.831	0.3
377.038	0.24
377.245	0.18
377.452	0.2
377.659	0.28
377.866	0.2
378.073	0.27
378.28	0.23
378.487	0.32
378.694	0.32
378.901	0.23
379.108	0.22
379.315	0.32
379.522	0.36
379.729	0.26
379.936	0.24
380.143	0.3
380.35	0.31
380.557	0.21
380.763	0.24
380.97	0.28
381.177	0.32
381.384	0.27
381.591	0.2
381.797	0.3
382.004	0.31
382.211	0.26
382.418	0.22
382.624	0.28
382.831	0.32
383.038	0.26
383.244	0.32
383.451	0.27
383.658	0.31
383.864	0.29
384.071	0.25
384.277	0.37
384.484	0.25
384.69	0.33
384.897	0.26
385.103	0.25
385.31	0.22
385.516	0.25
385.723	0.25
385.929	0.29
386.136	0.25
386.342	0.31
386.549	0.24
386.755	0.34
386.961	0.34
387.168	0.25
387.374	0.29
387.58	0.29
387.787	0.26
387.993	0.26
388.199	0.24
388.406	0.24
388.612	0.26
388.818	0.28
389.024	0.24
389.231	0.27
389.437	0.39
389.643	0.28
389.849	0.27
390.055	0.31
390.261	0.3
390.467	0.36
390.674	0.26
390.88	0.3
391.086	0.31
391.292	0.17
391.498	0.34
391.704	0.28
391.91	0.25
392.116	0.3
392.322	0.19
392.528	0.34
392.734	0.29
392.94	0.27
393.146	0.32
393.352	0.34
393.557	0.29
393.763	0.32
393.969	0.34
394.175	0.3
394.381	0.29
394.587	0.26
394.792	0.33
394.998	0.36
395.204	0.39
395.41	0.21
395.615	0.34
395.821	0.32
396.027	0.37
396.233	0.24
396.438	0.31
396.644	0.39
396.85	0.33
397.055	0.31
397.261	0.34
397.466	0.45
397.672	0.35
397.878	0.39
398.083	0.37
398.289	0.31
398.494	0.44
398.7	0.38
398.905	0.26
399.111	0.46
399.316	0.28
399.522	0.33
399.727	0.32
399.932	0.31
400.138	0.33
400.343	0.35
400.549	0.32
400.754	0.3
400.959	0.39
401.165	0.37
401.37	0.38
401.575	0.5
401.78	0.37
401.986	0.38
402.191	0.28
402.396	0.35
402.601	0.36
402.807	0.41
403.012	0.38
403.217	0.41
403.422	0.42
403.627	0.39
403.832	0.35
404.037	0.45
404.243	0.48
404.448	0.42
404.653	0.47
404.858	0.48
405.063	0.42
405.268	0.41
405.473	0.39
405.678	0.43
405.883	0.65
406.088	0.48
406.293	0.38
406.498	0.43
406.703	0.51
406.907	0.45
407.112	0.48
407.317	0.54
407.522	0.57
407.727	0.47
407.932	0.53
408.136	0.68
408.341	0.54
408.546	0.59
408.751	0.57
408.956	0.57
409.16	0.71
409.365	0.57
409.57	0.57
409.774	0.66
409.979	0.71
410.184	0.68
410.388	0.62
410.593	0.79
410.798	0.79
411.002	0.76
411.207	0.8
411.411	0.83
411.616	0.75
411.82	0.84
412.025	0.89
412.229	0.88
412.434	0.94
412.638	0.89
412.843	0.91
413.047	0.96
413.252	0.95
413.456	1.03
413.66	1.08
413.865	1.07
414.069	1.13
414.273	1.12
414.478	1.14
414.682	1.14
414.886	1.27
415.091	1.21
415.295	1.24
415.499	1.43
415.703	1.39
415.908	1.47
416.112	1.39
416.316	1.61
416.52	1.55
416.724	1.6
416.929	1.61
417.133	1.89
417.337	1.75
417.541	1.76
417.745	1.84
417.949	2
418.153	2.06
418.357	1.98
418.561	2.31
418.765	2.25
418.969	2.39
419.173	2.49
419.377	2.33
419.581	2.72
419.785	2.69
419.989	2.67
420.193	2.87
420.397	2.95
420.601	3.15
420.804	3.17
421.008	3.15
421.212	3.28
421.416	3.32
421.62	3.29
421.823	3.37
422.027	3.6
422.231	3.56
422.435	3.55
422.638	3.64
422.842	3.77
423.046	3.83
423.249	4.01
423.453	4.02
423.657	4.18
423.86	4.27
424.064	4.41
424.268	4.56
424.471	4.55
424.675	4.82
424.878	4.92
425.082	4.93
425.285	5.33
425.489	5.16
425.692	5.3
425.896	5.34
426.099	5.52
426.303	5.71
426.506	5.75
426.71	6.04
426.913	6.27
427.116	6.44
427.32	6.43
427.523	6.51
427.726	6.84
427.93	6.89
428.133	7.18
428.336	7.35
428.54	7.55
428.743	7.83
428.946	8.04
429.149	8.02
429.353	7.97
429.556	8.12
429.759	8.13
429.962	8.29
430.165	8.49
430.368	8.14
430.571	8.15
430.775	8.21
430.978	8.15
431.181	8.25
431.384	8.29
431.587	8.49
431.79	8.78
431.993	8.74
432.196	9.04
432.399	9.38
432.602	9.49
432.805	9.62
433.008	10.25
433.211	10.04
433.414	10.45
433.616	10.41
433.819	10.38
434.022	10.55
434.225	10.73
434.428	10.78
434.631	11.21
434.833	10.94
435.036	11.26
435.239	11.41
435.442	11.48
435.645	11.56
435.847	11.61
436.05	12.09
436.253	12.32
436.455	12.22
436.658	12.04
436.861	12.53
437.063	12.46
437.266	12.4
437.468	12.93
437.671	13.21
437.874	13.28
438.076	13.04
438.279	13.51
438.481	13.68
438.684	14.34
438.886	13.94
439.089	14.26
439.291	14.26
439.494	14.67
439.696	14.84
439.899	15.42
440.101	15.65
440.303	15.81
440.506	16.57
440.708	16.32
440.91	16.6
441.113	16.74
441.315	17.06
441.517	16.89
441.72	17.5
441.922	16.97
442.124	16.94
442.326	17.42
442.529	17.65
442.731	17.46
442.933	17.86
443.135	17.59
443.337	17.53
443.539	18.07
443.742	17.8
443.944	18.47
444.146	18.23
444.348	18.15
444.55	17.98
444.752	18.3
444.954	18.25
445.156	18.08
445.358	18.5
445.56	18.88
445.762	18.57
445.964	18.97
446.166	18.7
446.368	18.56
446.57	18.61
446.772	18.22
446.974	18.03
447.175	18.32
447.377	17.89
447.579	18.43
447.781	18.05
447.983	17.81
448.184	17.38
448.386	17.69
448.588	17.28
448.79	17.12
448.991	17.49
449.193	17.46
449.395	16.76
449.597	16.46
449.798	16.25
450	15.89
450.202	15.8
450.403	15.76
450.605	15.7
450.806	15.26
451.008	15.14
451.21	14.97
451.411	14.47
451.613	13.71
451.814	13.94
452.016	13.87
452.217	13.21
452.419	13.23
452.62	12.77
452.821	12.52
453.023	12.57
453.224	12.08
453.426	11.84
453.627	10.97
453.828	11.11
454.03	11.2
454.231	11.1
454.432	11.01
454.634	10.74
454.835	10.44
455.036	10.27
455.238	9.97
455.439	9.75
455.64	9.4
455.841	9.3
456.042	9.41
456.244	9.04
456.445	8.84
456.646	8.5
456.847	8.5
457.048	8.27
457.249	8.33
457.45	8.19
457.651	7.65
457.852	7.49
458.054	7.15
458.255	7.06
458.456	7.25
458.657	6.96
458.858	6.68
459.058	6.59
459.259	6.62
459.46	6.31
459.661	6.31
459.862	6.44
460.063	6.29
460.264	6.19
460.465	5.95
460.666	6.05
460.866	5.69
461.067	5.44
461.268	5.41
461.469	5.47
461.67	5.27
461.87	5.18
462.071	5.22
462.272	5.05
462.473	5.02
462.673	5.17
462.874	5.12
463.075	5.09
463.275	5.1
463.476	5.21
463.676	5.08
463.877	4.88
464.078	4.89
464.278	4.96
464.479	4.8
464.679	4.76
464.88	4.69
465.08	4.65
465.281	4.38
465.481	4.2
465.682	4.08
465.882	4.11
466.083	4.08
466.283	3.92
466.483	3.83
466.684	3.73
466.884	3.58
467.085	3.6
467.285	3.68
467.485	3.52
467.686	3.48
467.886	3.43
468.086	3.28
468.286	3.34
468.487	3.41
468.687	3.25
468.887	3.21
469.087	3.37
469.287	3.2
469.488	2.97
469.688	3.1
469.888	3.19
470.088	3.11
470.288	2.99
470.488	3.04
470.688	2.84
470.888	2.77
471.088	2.68
471.288	2.83
471.488	2.76
471.688	2.71
471.888	2.62
472.088	2.79
472.288	2.69
472.488	2.53
472.688	2.55
472.888	2.58
473.088	2.6
473.288	2.44
473.488	2.45
473.688	2.56
473.887	2.44
474.087	2.41
474.287	2.41
474.487	2.37
474.687	2.48
474.886	2.3
475.086	2.3
475.286	2.3
475.486	2.23
475.685	2.22
475.885	2.15
476.085	2.25
476.284	2.25
476.484	2.29
476.684	2.17
476.883	2.28
477.083	2.13
477.282	2.07
477.482	2.19
477.681	2.12
477.881	2.04
478.08	2.05
478.28	1.99
478.479	2.06
478.679	2.12
478.878	2.05
479.078	2.02
479.277	2.04
479.477	2.08
479.676	1.98
479.875	2.03
480.075	1.93
480.274	2.05
480.473	2.02
480.673	2.02
480.872	2.07
481.071	2.03
481.271	2.04
481.47	1.96
481.669	2
481.868	1.95
482.067	1.97
482.267	1.88
482.466	1.93
482.665	1.93
482.864	1.97
483.063	1.91
483.262	2
483.461	2.03
483.661	2.08
483.86	2
484.059	2.05
484.258	2.04
484.457	2
484.656	1.98
484.855	2.08
485.054	1.91
485.253	1.97
485.452	1.96
485.651	2.05
485.849	2.01
486.048	2
486.247	2
486.446	2.05
486.645	1.97
486.844	2.02
487.043	2.02
487.241	2.06
487.44	2.04
487.639	2.12
487.838	2.07
488.037	2.11
488.235	2.23
488.434	2.17
488.633	2.06
488.831	2.25
489.03	2.21
489.229	2.2
489.427	2.21
489.626	2.25
489.825	2.26
490.023	2.26
490.222	2.26
490.42	2.29
490.619	2.34
490.817	2.36
491.016	2.32
491.214	2.43
491.413	2.4
491.611	2.38
491.81	2.38
492.008	2.44
492.207	2.55
492.405	2.58
492.604	2.43
492.802	2.55
493	2.61
493.199	2.63
493.397	2.62
493.595	2.71
493.794	2.67
493.992	2.77
494.19	2.71
494.388	2.81
494.587	2.76
494.785	2.8
494.983	2.71
495.181	2.87
495.379	2.9
495.578	2.87
495.776	2.96
495.974	2.93
496.172	2.96
496.37	3.08
496.568	3.13
496.766	3.07
496.964	3.21
497.162	3.19
497.36	3.22
497.558	3.28
497.756	3.32
497.954	3.26
498.152	3.33
498.35	3.44
498.548	3.36
498.746	3.39
498.944	3.4
499.142	3.44
499.34	3.56
499.538	3.64
499.736	3.53
499.933	3.66
500.131	3.62
500.329	3.77
500.527	3.77
500.725	3.87
500.922	3.87
501.12	3.85
501.318	3.99
501.516	3.94
501.713	4.04
501.911	4.07
502.109	3.93
502.306	4.09
502.504	4.03
