Data from Apollo_Calib_20240827__AbsoluteIrradiance__818__12-47-00-498.txt Node

Date: Wed Aug 28 12:47:00 BST 2024
User: biology
Spectrometer: FLMT08252
Trigger mode: 0
Integration Time (sec): 5.000000E-1
Scans to average: 5
Electric dark correction enabled: true
Nonlinearity correction enabled: false
Boxcar width: 0
XAxis mode: Wavelengths
Number of Pixels in Spectrum: 3648
>>>>>Begin Spectral Data<<<<<
179.588	-0
179.809	-0
180.03	-0
180.251	-0
180.473	-0
180.694	0
180.915	0
181.136	-0
181.357	0
181.578	-0
181.799	-0
182.02	-0
182.241	-0
182.462	-0
182.683	0
182.904	-0
183.125	-0
183.346	0
183.567	0
183.788	0
184.009	0
184.23	0
184.451	0
184.672	0
184.892	0
185.113	0
185.334	0
185.555	0
185.776	0
185.996	0
186.217	0
186.438	0
186.659	0
186.879	0
187.1	0
187.321	0
187.541	0
187.762	0
187.983	0
188.203	0
188.424	0
188.644	0
188.865	0
189.086	0
189.306	0
189.527	0
189.747	0
189.968	0
190.188	0
190.409	0
190.629	0
190.849	0
191.07	0
191.29	0
191.511	0
191.731	0
191.951	0
192.172	0
192.392	0
192.612	0
192.833	0
193.053	0
193.273	0
193.493	0
193.714	0
193.934	0
194.154	0
194.374	0
194.594	0
194.815	0
195.035	0
195.255	0
195.475	0
195.695	0
195.915	0
196.135	0
196.355	0
196.575	0
196.795	0
197.015	0
197.235	0
197.455	0
197.675	0
197.895	0
198.115	0
198.335	0
198.555	0
198.775	0
198.995	0
199.214	0
199.434	0
199.654	0
199.874	0
200.094	4.12
200.313	2.61
200.533	2.09
200.753	1.63
200.973	4.04
201.192	2.88
201.412	1.22
201.632	1.71
201.851	3.71
202.071	1.74
202.291	1.42
202.51	1.93
202.73	2.94
202.95	1.99
203.169	1.08
203.389	1.91
203.608	2.48
203.828	1.71
204.047	1.26
204.267	2.36
204.486	2.08
204.706	2.49
204.925	1.74
205.145	1.42
205.364	2.25
205.583	3
205.803	1.38
206.022	1.12
206.242	2.01
206.461	1.79
206.68	1.31
206.9	1.56
207.119	2.46
207.338	2.47
207.557	1.12
207.777	1.45
207.996	1.66
208.215	2.14
208.434	1.19
208.654	0.95
208.873	1.63
209.092	1.92
209.311	1.21
209.53	1.11
209.749	1.3
209.968	1.15
210.187	1.17
210.407	0.87
210.626	1.08
210.845	1.59
211.064	1.21
211.283	0.67
211.502	1.52
211.721	1.1
211.94	1.22
212.159	1.58
212.377	1.55
212.596	1.32
212.815	1.26
213.034	1.13
213.253	1.26
213.472	1.32
213.691	0.83
213.91	0.77
214.128	1
214.347	1.67
214.566	0.6
214.785	0.52
215.003	1.43
215.222	1.37
215.441	0.91
215.66	0.5
215.878	1
216.097	1.31
216.316	0.66
216.534	0.73
216.753	1.08
216.972	1.11
217.19	0.77
217.409	0.77
217.627	0.84
217.846	0.84
218.064	0.9
218.283	0.62
218.501	1.35
218.72	1.22
218.938	0.53
219.157	0.64
219.375	1.07
219.594	1.04
219.812	0.49
220.031	0.68
220.249	1.3
220.467	1.08
220.686	0.63
220.904	0.69
221.122	0.84
221.341	1.18
221.559	0.82
221.777	0.56
221.995	0.89
222.214	0.81
222.432	0.55
222.65	0.87
222.868	0.78
223.086	0.96
223.305	0.85
223.523	0.75
223.741	1.16
223.959	0.79
224.177	0.37
224.395	0.53
224.613	0.8
224.831	1
225.049	0.47
225.267	0.56
225.485	0.79
225.703	0.78
225.921	0.46
226.139	0.46
226.357	0.78
226.575	0.92
226.793	0.45
227.011	1.54
227.229	0.81
227.447	0.89
227.665	0.52
227.883	0.42
228.1	0.6
228.318	0.76
228.536	0.33
228.754	0.46
228.972	0.75
229.189	0.96
229.407	0.59
229.625	0.51
229.843	0.79
230.06	0.85
230.278	0.6
230.496	0.71
230.713	0.7
230.931	0.82
231.149	0.55
231.366	0.31
231.584	0.51
231.801	1.02
232.019	0.47
232.236	0.44
232.454	0.41
232.671	0.68
232.889	0.53
233.106	0.43
233.324	0.52
233.541	0.48
233.759	0.66
233.976	0.42
234.194	0.5
234.411	0.57
234.628	0.39
234.846	0.54
235.063	0.55
235.28	0.65
235.498	0.49
235.715	0.33
235.932	0.82
236.149	0.72
236.367	0.41
236.584	0.66
236.801	0.41
237.018	0.65
237.236	0.52
237.453	0.23
237.67	0.77
237.887	0.47
238.104	0.42
238.321	0.32
238.538	0.38
238.755	0.71
238.973	0.29
239.19	0.46
239.407	0.57
239.624	0.63
239.841	0.38
240.058	0.3
240.275	0.61
240.492	0.55
240.709	0.43
240.925	0.43
241.142	0.45
241.359	0.39
241.576	0.26
241.793	0.42
242.01	0.48
242.227	0.62
242.444	0.54
242.66	0.65
242.877	0.57
243.094	0.36
243.311	0.4
243.527	0.35
243.744	0.63
243.961	0.52
244.178	0.39
244.394	0.44
244.611	0.59
244.828	0.75
245.044	0.33
245.261	0.34
245.477	0.58
245.694	0.57
245.911	0.36
246.127	0.47
246.344	0.64
246.56	0.59
246.777	0.35
246.993	0.39
247.21	0.56
247.426	0.52
247.643	0.32
247.859	0.31
248.076	0.4
248.292	0.74
248.508	0.35
248.725	0.42
248.941	0.49
249.157	0.56
249.374	0.31
249.59	0.37
249.806	0.39
250.023	0.5
250.239	0.27
250.455	0.38
250.671	0.59
250.888	0.49
251.104	0.56
251.32	0.34
251.536	0.4
251.752	0.39
251.969	0.37
252.185	0.33
252.401	0.66
252.617	0.48
252.833	0.34
253.049	0.44
253.265	0.43
253.481	0.42
253.697	0.39
253.913	0.35
254.129	0.46
254.345	0.47
254.561	0.39
254.777	0.36
254.993	0.45
255.209	0.38
255.425	0.39
255.641	0.28
255.857	0.46
256.073	0.46
256.288	0.2
256.504	0.36
256.72	0.48
256.936	0.59
257.152	0.31
257.367	0.29
257.583	0.4
257.799	0.47
258.015	0.29
258.23	0.34
258.446	0.63
258.662	0.39
258.877	0.33
259.093	0.29
259.309	0.42
259.524	0.35
259.74	0.31
259.955	0.23
260.171	0.41
260.387	0.39
260.602	0.48
260.818	0.4
261.033	0.27
261.249	0.39
261.464	0.3
261.68	0.26
261.895	0.4
262.11	0.41
262.326	0.34
262.541	0.26
262.757	0.49
262.972	0.45
263.187	0.45
263.403	0.38
263.618	0.5
263.833	0.38
264.049	0.31
264.264	0.34
264.479	0.36
264.694	0.52
264.91	0.27
265.125	0.31
265.34	0.47
265.555	0.58
265.77	0.41
265.986	0.25
266.201	0.48
266.416	0.53
266.631	0.32
266.846	0.26
267.061	0.43
267.276	0.43
267.491	0.2
267.706	0.43
267.921	0.45
268.136	0.4
268.351	0.33
268.566	0.21
268.781	0.42
268.996	0.47
269.211	0.36
269.426	0.27
269.641	0.33
269.856	0.41
270.071	0.27
270.285	0.28
270.5	0.47
270.715	0.43
270.93	0.38
271.145	0.36
271.359	0.46
271.574	0.27
271.789	0.29
272.004	0.28
272.218	0.32
272.433	0.35
272.648	0.27
272.862	0.4
273.077	0.32
273.292	0.39
273.506	0.29
273.721	0.3
273.936	0.4
274.15	0.42
274.365	0.29
274.579	0.38
274.794	0.44
275.008	0.41
275.223	0.23
275.437	0.3
275.652	0.46
275.866	0.36
276.081	0.34
276.295	0.32
276.509	0.36
276.724	0.37
276.938	0.28
277.153	0.34
277.367	0.39
277.581	0.3
277.796	0.3
278.01	0.24
278.224	0.37
278.438	0.48
278.653	0.21
278.867	0.27
279.081	0.39
279.295	0.32
279.51	0.34
279.724	0.14
279.938	0.37
280.152	0.38
280.366	0.26
280.58	0.36
280.794	0.46
281.008	0.38
281.222	0.35
281.437	0.47
281.651	0.31
281.865	0.46
282.079	0.29
282.293	0.19
282.507	0.26
282.721	0.26
282.935	0.29
283.148	0.24
283.362	0.29
283.576	0.29
283.79	0.34
284.004	0.22
284.218	0.37
284.432	0.25
284.646	0.34
284.859	0.27
285.073	0.28
285.287	0.3
285.501	0.28
285.714	0.28
285.928	0.34
286.142	0.31
286.356	0.28
286.569	0.2
286.783	0.43
286.997	0.36
287.21	0.29
287.424	0.26
287.637	0.32
287.851	0.29
288.065	0.35
288.278	0.27
288.492	0.29
288.705	0.32
288.919	0.32
289.132	0.21
289.346	0.39
289.559	0.22
289.773	0.24
289.986	0.29
290.2	0.3
290.413	0.37
290.626	0.25
290.84	0.22
291.053	0.31
291.267	0.39
291.48	0.27
291.693	0.29
291.906	0.28
292.12	0.3
292.333	0.21
292.546	0.31
292.76	0.36
292.973	0.31
293.186	0.36
293.399	0.22
293.612	0.31
293.826	0.23
294.039	0.28
294.252	0.2
294.465	0.36
294.678	0.33
294.891	0.24
295.104	0.22
295.317	0.28
295.53	0.27
295.743	0.33
295.956	0.25
296.169	0.41
296.382	0.33
296.595	0.24
296.808	0.27
297.021	0.32
297.234	0.34
297.447	0.28
297.66	0.3
297.873	0.35
298.086	0.3
298.299	0.22
298.511	0.18
298.724	0.27
298.937	0.19
299.15	0.2
299.363	0.27
299.575	0.31
299.788	0.33
300.001	0.24
300.213	0.2
300.426	0.21
300.639	0.22
300.852	0.23
301.064	0.3
301.277	0.36
301.489	0.3
301.702	0.28
301.915	0.24
302.127	0.28
302.34	0.3
302.552	0.28
302.765	0.21
302.977	0.34
303.19	0.26
303.402	0.26
303.615	0.23
303.827	0.29
304.04	0.26
304.252	0.31
304.464	0.24
304.677	0.45
304.889	0.3
305.102	0.22
305.314	0.19
305.526	0.32
305.739	0.32
305.951	0.25
306.163	0.24
306.375	0.37
306.588	0.27
306.8	0.23
307.012	0.23
307.224	0.32
307.436	0.4
307.649	0.2
307.861	0.27
308.073	0.31
308.285	0.25
308.497	0.24
308.709	0.24
308.921	0.25
309.133	0.34
309.346	0.25
309.558	0.24
309.77	0.33
309.982	0.33
310.194	0.3
310.406	0.23
310.617	0.35
310.829	0.28
311.041	0.32
311.253	0.21
311.465	0.29
311.677	0.3
311.889	0.23
312.101	0.18
312.313	0.33
312.524	0.32
312.736	0.2
312.948	0.23
313.16	0.33
313.372	0.3
313.583	0.29
313.795	0.23
314.007	0.25
314.218	0.36
314.43	0.29
314.642	0.18
314.853	0.21
315.065	0.34
315.277	0.24
315.488	0.26
315.7	0.32
315.912	0.28
316.123	0.26
316.335	0.28
316.546	0.4
316.758	0.33
316.969	0.24
317.181	0.3
317.392	0.25
317.604	0.3
317.815	0.24
318.026	0.21
318.238	0.23
318.449	0.3
318.661	0.18
318.872	0.22
319.083	0.24
319.295	0.31
319.506	0.23
319.717	0.26
319.929	0.31
320.14	0.28
320.351	0.28
320.562	0.24
320.774	0.32
320.985	0.28
321.196	0.24
321.407	0.18
321.618	0.33
321.829	0.36
322.041	0.27
322.252	0.25
322.463	0.3
322.674	0.29
322.885	0.24
323.096	0.3
323.307	0.28
323.518	0.29
323.729	0.2
323.94	0.2
324.151	0.27
324.362	0.27
324.573	0.26
324.784	0.28
324.995	0.33
325.206	0.3
325.417	0.24
325.628	0.23
325.838	0.24
326.049	0.26
326.26	0.28
326.471	0.22
326.682	0.28
326.892	0.26
327.103	0.19
327.314	0.23
327.525	0.33
327.735	0.29
327.946	0.23
328.157	0.21
328.368	0.33
328.578	0.29
328.789	0.28
328.999	0.21
329.21	0.22
329.421	0.31
329.631	0.23
329.842	0.2
330.052	0.29
330.263	0.27
330.473	0.29
330.684	0.23
330.894	0.26
331.105	0.25
331.315	0.28
331.526	0.2
331.736	0.37
331.947	0.29
332.157	0.31
332.367	0.2
332.578	0.31
332.788	0.31
332.999	0.28
333.209	0.25
333.419	0.19
333.629	0.31
333.84	0.29
334.05	0.24
334.26	0.36
334.47	0.3
334.681	0.26
334.891	0.26
335.101	0.32
335.311	0.37
335.521	0.24
335.732	0.23
335.942	0.31
336.152	0.27
336.362	0.25
336.572	0.27
336.782	0.32
336.992	0.22
337.202	0.25
337.412	0.26
337.622	0.25
337.832	0.24
338.042	0.24
338.252	0.18
338.462	0.3
338.672	0.3
338.882	0.25
339.092	0.25
339.302	0.33
339.511	0.31
339.721	0.26
339.931	0.21
340.141	0.28
340.351	0.3
340.561	0.29
340.77	0.28
340.98	0.28
341.19	0.28
341.4	0.23
341.609	0.22
341.819	0.3
342.029	0.2
342.238	0.28
342.448	0.26
342.658	0.3
342.867	0.26
343.077	0.23
343.286	0.25
343.496	0.28
343.706	0.36
343.915	0.23
344.125	0.3
344.334	0.29
344.544	0.22
344.753	0.23
344.963	0.21
345.172	0.23
345.381	0.22
345.591	0.19
345.8	0.23
346.01	0.34
346.219	0.36
346.428	0.22
346.638	0.21
346.847	0.25
347.056	0.36
347.266	0.24
347.475	0.21
347.684	0.26
347.893	0.32
348.103	0.29
348.312	0.26
348.521	0.28
348.73	0.28
348.94	0.28
349.149	0.22
349.358	0.24
349.567	0.24
349.776	0.19
349.985	0.22
350.194	0.31
350.403	0.31
350.612	0.17
350.821	0.2
351.03	0.28
351.239	0.23
351.448	0.26
351.657	0.25
351.866	0.35
352.075	0.25
352.284	0.2
352.493	0.2
352.702	0.33
352.911	0.26
353.12	0.27
353.329	0.24
353.538	0.3
353.746	0.27
353.955	0.25
354.164	0.21
354.373	0.23
354.582	0.3
354.79	0.26
354.999	0.35
355.208	0.21
355.416	0.37
355.625	0.17
355.834	0.25
356.042	0.27
356.251	0.2
356.46	0.19
356.668	0.3
356.877	0.38
357.085	0.3
357.294	0.12
357.503	0.27
357.711	0.29
357.92	0.43
358.128	0.26
358.337	0.23
358.545	0.31
358.754	0.22
358.962	0.3
359.17	0.22
359.379	0.28
359.587	0.29
359.796	0.28
360.004	0.28
360.212	0.27
360.421	0.32
360.629	0.24
360.837	0.26
361.046	0.29
361.254	0.41
361.462	0.24
361.67	0.26
361.879	0.29
362.087	0.33
362.295	0.24
362.503	0.22
362.711	0.21
362.92	0.23
363.128	0.22
363.336	0.2
363.544	0.22
363.752	0.22
363.96	0.2
364.168	0.22
364.376	0.25
364.584	0.29
364.792	0.35
365	0.24
365.208	0.29
365.416	0.3
365.624	0.34
365.832	0.22
366.04	0.31
366.248	0.28
366.456	0.28
366.664	0.22
366.872	0.27
367.079	0.2
367.287	0.25
367.495	0.26
367.703	0.21
367.911	0.26
368.118	0.26
368.326	0.23
368.534	0.22
368.742	0.38
368.949	0.17
369.157	0.19
369.365	0.27
369.572	0.23
369.78	0.19
369.988	0.31
370.195	0.25
370.403	0.29
370.61	0.21
370.818	0.31
371.026	0.33
371.233	0.24
371.441	0.25
371.648	0.23
371.856	0.3
372.063	0.28
372.271	0.25
372.478	0.25
372.685	0.26
372.893	0.3
373.1	0.26
373.308	0.21
373.515	0.37
373.722	0.36
373.93	0.29
374.137	0.29
374.344	0.33
374.552	0.29
374.759	0.3
374.966	0.25
375.173	0.25
375.381	0.31
375.588	0.26
375.795	0.2
376.002	0.28
376.209	0.24
376.417	0.24
376.624	0.28
376.831	0.36
377.038	0.27
377.245	0.18
377.452	0.24
377.659	0.28
377.866	0.23
378.073	0.26
378.28	0.26
378.487	0.31
378.694	0.29
378.901	0.22
379.108	0.23
379.315	0.29
379.522	0.39
379.729	0.28
379.936	0.24
380.143	0.28
380.35	0.32
380.557	0.26
380.763	0.28
380.97	0.3
381.177	0.28
381.384	0.3
381.591	0.27
381.797	0.27
382.004	0.29
382.211	0.3
382.418	0.26
382.624	0.3
382.831	0.35
383.038	0.24
383.244	0.3
383.451	0.27
383.658	0.31
383.864	0.25
384.071	0.24
384.277	0.41
384.484	0.27
384.69	0.35
384.897	0.27
385.103	0.3
385.31	0.29
385.516	0.24
385.723	0.23
385.929	0.29
386.136	0.24
386.342	0.34
386.549	0.25
386.755	0.35
386.961	0.31
387.168	0.27
387.374	0.29
387.58	0.32
387.787	0.29
387.993	0.3
388.199	0.27
388.406	0.24
388.612	0.33
388.818	0.26
389.024	0.23
389.231	0.27
389.437	0.4
389.643	0.34
389.849	0.33
390.055	0.3
390.261	0.33
390.467	0.38
390.674	0.27
390.88	0.32
391.086	0.33
391.292	0.25
391.498	0.34
391.704	0.38
391.91	0.28
392.116	0.3
392.322	0.2
392.528	0.35
392.734	0.28
392.94	0.35
393.146	0.27
393.352	0.32
393.557	0.29
393.763	0.28
393.969	0.35
394.175	0.35
394.381	0.32
394.587	0.28
394.792	0.31
394.998	0.4
395.204	0.37
395.41	0.27
395.615	0.32
395.821	0.35
396.027	0.36
396.233	0.29
396.438	0.36
396.644	0.37
396.85	0.35
397.055	0.32
397.261	0.38
397.466	0.33
397.672	0.38
397.878	0.35
398.083	0.37
398.289	0.31
398.494	0.38
398.7	0.37
398.905	0.26
399.111	0.44
399.316	0.26
399.522	0.33
399.727	0.34
399.932	0.35
400.138	0.35
400.343	0.38
400.549	0.34
400.754	0.37
400.959	0.36
401.165	0.34
401.37	0.38
401.575	0.35
401.78	0.39
401.986	0.34
402.191	0.35
402.396	0.41
402.601	0.41
402.807	0.44
403.012	0.41
403.217	0.44
403.422	0.44
403.627	0.45
403.832	0.39
404.037	0.47
404.243	0.48
404.448	0.37
404.653	0.43
404.858	0.45
405.063	0.48
405.268	0.43
405.473	0.41
405.678	0.43
405.883	0.6
406.088	0.49
406.293	0.4
406.498	0.47
406.703	0.53
406.907	0.48
407.112	0.46
407.317	0.53
407.522	0.61
407.727	0.45
407.932	0.56
408.136	0.63
408.341	0.53
408.546	0.54
408.751	0.59
408.956	0.57
409.16	0.67
409.365	0.6
409.57	0.65
409.774	0.63
409.979	0.71
410.184	0.68
410.388	0.65
410.593	0.79
410.798	0.7
411.002	0.71
411.207	0.84
411.411	0.81
411.616	0.75
411.82	0.79
412.025	0.86
412.229	0.83
412.434	0.94
412.638	0.89
412.843	0.88
413.047	0.95
413.252	0.95
413.456	1.02
413.66	1.04
413.865	1.07
414.069	1.11
414.273	1.05
414.478	1.08
414.682	1.17
414.886	1.25
415.091	1.19
415.295	1.11
415.499	1.41
415.703	1.31
415.908	1.37
416.112	1.38
416.316	1.51
416.52	1.55
416.724	1.5
416.929	1.53
417.133	1.81
417.337	1.72
417.541	1.74
417.745	1.76
417.949	1.88
418.153	1.97
418.357	1.91
418.561	2.22
418.765	2.16
418.969	2.3
419.173	2.31
419.377	2.27
419.581	2.55
419.785	2.56
419.989	2.52
420.193	2.69
420.397	2.79
420.601	2.94
420.804	2.99
421.008	3.01
421.212	3.18
421.416	3.16
421.62	3.17
421.823	3.21
422.027	3.43
422.231	3.36
422.435	3.32
422.638	3.41
422.842	3.57
423.046	3.58
423.249	3.79
423.453	3.79
423.657	4.02
423.86	3.97
424.064	4.16
424.268	4.31
424.471	4.25
424.675	4.54
424.878	4.54
425.082	4.63
425.285	5.04
425.489	4.97
425.692	5
425.896	5.12
426.099	5.26
426.303	5.35
426.506	5.55
426.71	5.69
426.913	5.93
427.116	6.11
427.32	6.01
427.523	6.22
427.726	6.48
427.93	6.56
428.133	6.93
428.336	7.01
428.54	7.17
428.743	7.37
428.946	7.73
429.149	7.64
429.353	7.62
429.556	7.77
429.759	7.81
429.962	7.96
430.165	8.07
430.368	7.69
430.571	7.82
430.775	7.87
430.978	7.78
431.181	7.94
431.384	8.04
431.587	8.09
431.79	8.38
431.993	8.28
432.196	8.62
432.399	9.03
432.602	9.24
432.805	9.38
433.008	9.83
433.211	9.71
433.414	10.12
433.616	10.06
433.819	10.17
434.022	10.3
434.225	10.41
434.428	10.4
434.631	10.86
434.833	10.51
435.036	10.8
435.239	10.99
435.442	11.17
435.645	11.19
435.847	11.38
436.05	11.67
436.253	11.98
436.455	11.75
436.658	11.72
436.861	12.18
437.063	12.21
437.266	12.17
437.468	12.47
437.671	12.84
437.874	12.91
438.076	12.56
438.279	13.09
438.481	13.19
438.684	14
438.886	13.6
439.089	13.79
439.291	13.88
439.494	14.16
439.696	14.38
439.899	14.8
440.101	15.44
440.303	15.35
440.506	16.24
440.708	15.93
440.91	16.12
441.113	16.29
441.315	16.61
441.517	16.46
441.72	16.84
441.922	16.45
442.124	16.53
442.326	16.92
442.529	17.08
442.731	16.98
442.933	17.43
443.135	17.07
443.337	17.14
443.539	17.93
443.742	17.27
443.944	18.01
444.146	17.69
444.348	17.85
444.55	17.65
444.752	17.84
444.954	17.9
445.156	17.56
445.358	18.12
445.56	18.49
445.762	18.29
445.964	18.57
446.166	18.25
446.368	18.33
446.57	18.49
446.772	18.05
446.974	17.8
447.175	18.1
447.377	17.83
447.579	18.2
447.781	17.86
447.983	17.72
448.184	17.14
448.386	17.67
448.588	17.23
448.79	17.06
448.991	17.44
449.193	17.45
449.395	16.75
449.597	16.45
449.798	16.42
450	15.88
450.202	15.92
450.403	15.97
450.605	15.82
450.806	15.48
451.008	15.18
451.21	14.98
451.411	14.54
451.613	13.91
451.814	14.14
452.016	14.14
452.217	13.44
452.419	13.5
452.62	13.06
452.821	12.95
453.023	12.83
453.224	12.45
453.426	11.9
453.627	11.19
453.828	11.48
454.03	11.38
454.231	11.42
454.432	11.2
454.634	10.98
454.835	10.71
455.036	10.57
455.238	10.17
455.439	10.05
455.64	9.72
455.841	9.59
456.042	9.73
456.244	9.39
456.445	9.03
456.646	8.88
456.847	8.72
457.048	8.64
457.249	8.61
457.45	8.48
457.651	7.95
457.852	7.81
458.054	7.41
458.255	7.35
458.456	7.5
458.657	7.26
458.858	6.81
459.058	6.8
459.259	6.86
459.46	6.56
459.661	6.54
459.862	6.63
460.063	6.45
460.264	6.37
460.465	6.17
460.666	6.2
460.866	5.85
461.067	5.63
461.268	5.65
461.469	5.54
461.67	5.42
461.87	5.28
462.071	5.42
462.272	5.22
462.473	5.11
462.673	5.4
462.874	5.31
463.075	5.26
463.275	5.2
463.476	5.11
463.676	5.21
463.877	5.04
464.078	5.07
464.278	5.11
464.479	4.95
464.679	4.9
464.88	4.76
465.08	4.76
465.281	4.58
465.481	4.41
465.682	4.19
465.882	4.25
466.083	4.25
466.283	4.13
466.483	3.96
466.684	3.88
466.884	3.75
467.085	3.76
467.285	3.82
467.485	3.75
467.686	3.69
467.886	3.51
468.086	3.46
468.286	3.45
468.487	3.47
468.687	3.37
468.887	3.29
469.087	3.47
469.287	3.31
469.488	3.1
469.688	3.27
469.888	3.3
470.088	3.21
470.288	3.1
470.488	3.19
470.688	2.97
470.888	2.94
471.088	2.75
471.288	2.89
471.488	2.91
471.688	2.78
471.888	2.77
472.088	2.88
472.288	2.82
472.488	2.65
472.688	2.65
472.888	2.69
473.088	2.66
473.288	2.59
473.488	2.53
473.688	2.7
473.887	2.54
474.087	2.48
474.287	2.51
474.487	2.45
474.687	2.44
474.886	2.41
475.086	2.4
475.286	2.4
475.486	2.32
475.685	2.28
475.885	2.28
476.085	2.33
476.284	2.37
476.484	2.3
476.684	2.24
476.883	2.3
477.083	2.23
477.282	2.16
477.482	2.29
477.681	2.2
477.881	2.14
478.08	2.13
478.28	2.12
478.479	2.12
478.679	2.22
478.878	2.12
479.078	2.09
479.277	2.13
479.477	2.13
479.676	2.05
479.875	2.04
480.075	2.02
480.274	2.02
480.473	2.1
480.673	2.01
480.872	2.14
481.071	2.08
481.271	2.08
481.47	2.01
481.669	2.04
481.868	1.94
482.067	2.02
482.267	1.96
482.466	1.98
482.665	1.98
482.864	1.98
483.063	1.99
483.262	2.07
483.461	2.12
483.661	2.09
483.86	2.05
484.059	2.12
484.258	2.04
484.457	2.03
484.656	2.04
484.855	2.14
485.054	1.96
485.253	2.02
485.452	1.97
485.651	2.01
485.849	2.05
486.048	2.01
486.247	2.04
486.446	2.15
486.645	2.04
486.844	2.11
487.043	2.08
487.241	2.1
487.44	2.11
487.639	2.15
487.838	2.13
488.037	2.15
488.235	2.22
488.434	2.18
488.633	2.09
488.831	2.24
489.03	2.23
489.229	2.23
489.427	2.25
489.626	2.3
489.825	2.33
490.023	2.31
490.222	2.29
490.42	2.37
490.619	2.34
490.817	2.38
491.016	2.35
491.214	2.45
491.413	2.4
491.611	2.37
491.81	2.44
492.008	2.45
492.207	2.57
492.405	2.55
492.604	2.44
492.802	2.56
493	2.6
493.199	2.65
493.397	2.63
493.595	2.7
493.794	2.7
493.992	2.76
494.19	2.71
494.388	2.83
494.587	2.77
494.785	2.8
494.983	2.73
495.181	2.91
495.379	2.9
495.578	2.96
495.776	2.94
495.974	2.94
496.172	2.96
496.37	3.09
496.568	3.07
496.766	3.08
496.964	3.16
497.162	3.18
497.36	3.19
497.558	3.24
497.756	3.29
497.954	3.28
498.152	3.38
498.35	3.42
498.548	3.36
498.746	3.43
498.944	3.39
499.142	3.41
499.34	3.53
499.538	3.63
499.736	3.52
499.933	3.64
500.131	3.65
500.329	3.77
500.527	3.72
500.725	3.84
500.922	3.88
501.12	3.86
501.318	3.92
501.516	3.9
501.713	4.03
501.911	3.96
502.109	3.97
502.306	4.09
502.504	4
502.701	4.06
