Data from Apollo_Calib_20240827__AbsoluteIrradiance__5__23-14-01-063.txt Node

Date: Tue Aug 27 23:14:01 BST 2024
User: biology
Spectrometer: FLMT08252
Trigger mode: 0
Integration Time (sec): 5.000000E-1
Scans to average: 5
Electric dark correction enabled: true
Nonlinearity correction enabled: false
Boxcar width: 0
XAxis mode: Wavelengths
Number of Pixels in Spectrum: 3648
>>>>>Begin Spectral Data<<<<<
179.588	-0
179.809	-0
180.03	-0
180.251	-0
180.473	-0
180.694	0
180.915	0
181.136	-0
181.357	-0
181.578	-0
181.799	-0
182.02	-0
182.241	0
182.462	0
182.683	0
182.904	-0
183.125	-0
183.346	-0
183.567	0
183.788	0
184.009	0
184.23	0
184.451	0
184.672	0
184.892	0
185.113	0
185.334	0
185.555	0
185.776	0
185.996	0
186.217	0
186.438	0
186.659	0
186.879	0
187.1	0
187.321	0
187.541	0
187.762	0
187.983	0
188.203	0
188.424	0
188.644	0
188.865	0
189.086	0
189.306	0
189.527	0
189.747	0
189.968	0
190.188	0
190.409	0
190.629	0
190.849	0
191.07	0
191.29	0
191.511	0
191.731	0
191.951	0
192.172	0
192.392	0
192.612	0
192.833	0
193.053	0
193.273	0
193.493	0
193.714	0
193.934	0
194.154	0
194.374	0
194.594	0
194.815	0
195.035	0
195.255	0
195.475	0
195.695	0
195.915	0
196.135	0
196.355	0
196.575	0
196.795	0
197.015	0
197.235	0
197.455	0
197.675	0
197.895	0
198.115	0
198.335	0
198.555	0
198.775	0
198.995	0
199.214	0
199.434	0
199.654	0
199.874	0
200.094	3.24
200.313	2.64
200.533	2.32
200.753	2.28
200.973	3.31
201.192	2.61
201.412	1.67
201.632	2.41
201.851	3.13
202.071	2.07
202.291	2.14
202.51	2.01
202.73	2.41
202.95	1.62
203.169	1.85
203.389	2.23
203.608	2.23
203.828	1.6
204.047	2.07
204.267	2.13
204.486	1.83
204.706	1.99
204.925	2.13
205.145	1.64
205.364	2.29
205.583	2.25
205.803	1.51
206.022	1.58
206.242	1.7
206.461	1.54
206.68	1.68
206.9	1.99
207.119	2.06
207.338	2.16
207.557	1.51
207.777	1.23
207.996	1.44
208.215	1.93
208.434	1.2
208.654	1.36
208.873	1.51
209.092	1.94
209.311	1.44
209.53	1.22
209.749	1.01
209.968	0.99
210.187	1.31
210.407	0.99
210.626	1.41
210.845	1.51
211.064	1.18
211.283	1.15
211.502	1.51
211.721	1.44
211.94	1.38
212.159	1.55
212.377	1.29
212.596	1.39
212.815	1.08
213.034	1.15
213.253	1.28
213.472	1.49
213.691	0.93
213.91	0.87
214.128	0.95
214.347	1.16
214.566	0.9
214.785	0.72
215.003	0.96
215.222	1.05
215.441	1.04
215.66	0.63
215.878	0.94
216.097	1.13
216.316	0.91
216.534	1.1
216.753	0.86
216.972	1.09
217.19	0.95
217.409	0.78
217.627	0.71
217.846	0.81
218.064	0.99
218.283	0.81
218.501	1.17
218.72	0.94
218.938	0.8
219.157	0.9
219.375	0.9
219.594	0.79
219.812	0.69
220.031	0.79
220.249	1.26
220.467	1.1
220.686	0.77
220.904	0.75
221.122	0.62
221.341	1.1
221.559	0.83
221.777	0.63
221.995	0.81
222.214	0.71
222.432	0.65
222.65	0.95
222.868	0.73
223.086	0.75
223.305	0.98
223.523	0.76
223.741	1.08
223.959	0.4
224.177	0.53
224.395	0.82
224.613	0.73
224.831	0.78
225.049	0.57
225.267	0.66
225.485	0.75
225.703	0.71
225.921	0.72
226.139	0.65
226.357	0.82
226.575	0.72
226.793	0.61
227.011	1.11
227.229	0.6
227.447	0.74
227.665	0.6
227.883	0.5
228.1	0.82
228.318	0.76
228.536	0.48
228.754	0.58
228.972	0.76
229.189	0.92
229.407	0.65
229.625	0.63
229.843	0.75
230.06	0.62
230.278	0.54
230.496	0.63
230.713	0.65
230.931	0.79
231.149	0.62
231.366	0.48
231.584	0.56
231.801	0.88
232.019	0.62
232.236	0.45
232.454	0.53
232.671	0.54
232.889	0.58
233.106	0.57
233.324	0.53
233.541	0.51
233.759	0.7
233.976	0.58
234.194	0.57
234.411	0.6
234.628	0.52
234.846	0.49
235.063	0.62
235.28	0.49
235.498	0.65
235.715	0.47
235.932	0.69
236.149	0.53
236.367	0.48
236.584	0.67
236.801	0.4
237.018	0.55
237.236	0.64
237.453	0.47
237.67	0.61
237.887	0.45
238.104	0.49
238.321	0.47
238.538	0.48
238.755	0.61
238.973	0.49
239.19	0.59
239.407	0.54
239.624	0.56
239.841	0.39
240.058	0.42
240.275	0.6
240.492	0.41
240.709	0.54
240.925	0.43
241.142	0.49
241.359	0.32
241.576	0.5
241.793	0.53
242.01	0.49
242.227	0.62
242.444	0.62
242.66	0.66
242.877	0.42
243.094	0.43
243.311	0.46
243.527	0.54
243.744	0.51
243.961	0.61
244.178	0.43
244.394	0.51
244.611	0.5
244.828	0.6
245.044	0.37
245.261	0.5
245.477	0.52
245.694	0.45
245.911	0.42
246.127	0.44
246.344	0.59
246.56	0.5
246.777	0.47
246.993	0.5
247.21	0.46
247.426	0.41
247.643	0.53
247.859	0.37
248.076	0.42
248.292	0.54
248.508	0.39
248.725	0.53
248.941	0.49
249.157	0.51
249.374	0.38
249.59	0.42
249.806	0.41
250.023	0.48
250.239	0.38
250.455	0.36
250.671	0.43
250.888	0.46
251.104	0.47
251.32	0.38
251.536	0.37
251.752	0.38
251.969	0.41
252.185	0.54
252.401	0.59
252.617	0.42
252.833	0.39
253.049	0.41
253.265	0.42
253.481	0.45
253.697	0.38
253.913	0.39
254.129	0.46
254.345	0.43
254.561	0.4
254.777	0.42
254.993	0.51
255.209	0.42
255.425	0.43
255.641	0.32
255.857	0.51
256.073	0.38
256.288	0.44
256.504	0.44
256.72	0.43
256.936	0.52
257.152	0.41
257.367	0.33
257.583	0.4
257.799	0.4
258.015	0.26
258.23	0.39
258.446	0.46
258.662	0.38
258.877	0.31
259.093	0.4
259.309	0.39
259.524	0.42
259.74	0.42
259.955	0.26
260.171	0.39
260.387	0.34
260.602	0.43
260.818	0.43
261.033	0.31
261.249	0.36
261.464	0.38
261.68	0.25
261.895	0.38
262.11	0.48
262.326	0.35
262.541	0.3
262.757	0.47
262.972	0.33
263.187	0.41
263.403	0.32
263.618	0.37
263.833	0.36
264.049	0.36
264.264	0.4
264.479	0.4
264.694	0.42
264.91	0.32
265.125	0.36
265.34	0.36
265.555	0.51
265.77	0.37
265.986	0.34
266.201	0.41
266.416	0.46
266.631	0.36
266.846	0.36
267.061	0.41
267.276	0.39
267.491	0.29
267.706	0.33
267.921	0.34
268.136	0.36
268.351	0.32
268.566	0.3
268.781	0.46
268.996	0.33
269.211	0.35
269.426	0.3
269.641	0.3
269.856	0.4
270.071	0.29
270.285	0.26
270.5	0.36
270.715	0.42
270.93	0.38
271.145	0.38
271.359	0.36
271.574	0.3
271.789	0.4
272.004	0.4
272.218	0.29
272.433	0.44
272.648	0.25
272.862	0.35
273.077	0.3
273.292	0.39
273.506	0.33
273.721	0.27
273.936	0.35
274.15	0.35
274.365	0.3
274.579	0.4
274.794	0.35
275.008	0.34
275.223	0.29
275.437	0.36
275.652	0.5
275.866	0.4
276.081	0.29
276.295	0.4
276.509	0.3
276.724	0.28
276.938	0.33
277.153	0.35
277.367	0.4
277.581	0.23
277.796	0.32
278.01	0.31
278.224	0.35
278.438	0.42
278.653	0.27
278.867	0.37
279.081	0.1
279.295	0.31
279.51	0.34
279.724	0.28
279.938	0.37
280.152	0.34
280.366	0.26
280.58	0.35
280.794	0.43
281.008	0.32
281.222	0.31
281.437	0.41
281.651	0.38
281.865	0.38
282.079	0.31
282.293	0.24
282.507	0.25
282.721	0.29
282.935	0.31
283.148	0.26
283.362	0.28
283.576	0.28
283.79	0.33
284.004	0.29
284.218	0.37
284.432	0.28
284.646	0.31
284.859	0.33
285.073	0.3
285.287	0.25
285.501	0.34
285.714	0.27
285.928	0.33
286.142	0.25
286.356	0.25
286.569	0.3
286.783	0.37
286.997	0.29
287.21	0.31
287.424	0.31
287.637	0.34
287.851	0.28
288.065	0.3
288.278	0.31
288.492	0.28
288.705	0.23
288.919	0.31
289.132	0.22
289.346	0.37
289.559	0.18
289.773	0.22
289.986	0.31
290.2	0.3
290.413	0.36
290.626	0.24
290.84	0.31
291.053	0.26
291.267	0.37
291.48	0.29
291.693	0.29
291.906	0.24
292.12	0.27
292.333	0.23
292.546	0.26
292.76	0.36
292.973	0.26
293.186	0.26
293.399	0.27
293.612	0.3
293.826	0.31
294.039	0.25
294.252	0.28
294.465	0.31
294.678	0.32
294.891	0.26
295.104	0.24
295.317	0.31
295.53	0.24
295.743	0.28
295.956	0.23
296.169	0.33
296.382	0.33
296.595	0.26
296.808	0.2
297.021	0.29
297.234	0.31
297.447	0.29
297.66	0.28
297.873	0.33
298.086	0.26
298.299	0.22
298.511	0.22
298.724	0.24
298.937	0.27
299.15	0.25
299.363	0.24
299.575	0.26
299.788	0.26
300.001	0.26
300.213	0.22
300.426	0.26
300.639	0.21
300.852	0.27
301.064	0.3
301.277	0.31
301.489	0.25
301.702	0.32
301.915	0.29
302.127	0.2
302.34	0.28
302.552	0.28
302.765	0.22
302.977	0.31
303.19	0.22
303.402	0.25
303.615	0.25
303.827	0.22
304.04	0.21
304.252	0.34
304.464	0.27
304.677	0.33
304.889	0.29
305.102	0.22
305.314	0.24
305.526	0.29
305.739	0.27
305.951	0.24
306.163	0.28
306.375	0.34
306.588	0.27
306.8	0.23
307.012	0.24
307.224	0.24
307.436	0.32
307.649	0.17
307.861	0.29
308.073	0.3
308.285	0.27
308.497	0.2
308.709	0.23
308.921	0.25
309.133	0.28
309.346	0.26
309.558	0.27
309.77	0.28
309.982	0.21
310.194	0.33
310.406	0.21
310.617	0.33
310.829	0.28
311.041	0.29
311.253	0.23
311.465	0.27
311.677	0.25
311.889	0.27
312.101	0.28
312.313	0.29
312.524	0.27
312.736	0.19
312.948	0.24
313.16	0.34
313.372	0.27
313.583	0.27
313.795	0.23
314.007	0.19
314.218	0.28
314.43	0.27
314.642	0.21
314.853	0.22
315.065	0.29
315.277	0.23
315.488	0.28
315.7	0.31
315.912	0.27
316.123	0.25
316.335	0.27
316.546	0.3
316.758	0.22
316.969	0.25
317.181	0.26
317.392	0.29
317.604	0.31
317.815	0.3
318.026	0.22
318.238	0.23
318.449	0.31
318.661	0.19
318.872	0.22
319.083	0.21
319.295	0.34
319.506	0.24
319.717	0.32
319.929	0.27
320.14	0.27
320.351	0.26
320.562	0.24
320.774	0.25
320.985	0.24
321.196	0.24
321.407	0.19
321.618	0.28
321.829	0.29
322.041	0.28
322.252	0.22
322.463	0.29
322.674	0.32
322.885	0.18
323.096	0.29
323.307	0.24
323.518	0.26
323.729	0.22
323.94	0.25
324.151	0.22
324.362	0.26
324.573	0.25
324.784	0.21
324.995	0.3
325.206	0.25
325.417	0.28
325.628	0.28
325.838	0.23
326.049	0.28
326.26	0.29
326.471	0.28
326.682	0.27
326.892	0.22
327.103	0.24
327.314	0.19
327.525	0.29
327.735	0.26
327.946	0.23
328.157	0.27
328.368	0.28
328.578	0.21
328.789	0.3
328.999	0.27
329.21	0.25
329.421	0.29
329.631	0.25
329.842	0.21
330.052	0.27
330.263	0.28
330.473	0.27
330.684	0.27
330.894	0.23
331.105	0.2
331.315	0.24
331.526	0.18
331.736	0.32
331.947	0.27
332.157	0.29
332.367	0.24
332.578	0.29
332.788	0.35
332.999	0.28
333.209	0.26
333.419	0.2
333.629	0.24
333.84	0.35
334.05	0.29
334.26	0.32
334.47	0.3
334.681	0.29
334.891	0.25
335.101	0.32
335.311	0.27
335.521	0.25
335.732	0.21
335.942	0.32
336.152	0.24
336.362	0.27
336.572	0.25
336.782	0.27
336.992	0.27
337.202	0.21
337.412	0.23
337.622	0.24
337.832	0.27
338.042	0.26
338.252	0.21
338.462	0.21
338.672	0.23
338.882	0.23
339.092	0.22
339.302	0.3
339.511	0.29
339.721	0.26
339.931	0.22
340.141	0.23
340.351	0.3
340.561	0.28
340.77	0.27
340.98	0.25
341.19	0.26
341.4	0.23
341.609	0.24
341.819	0.22
342.029	0.2
342.238	0.28
342.448	0.23
342.658	0.29
342.867	0.3
343.077	0.27
343.286	0.28
343.496	0.26
343.706	0.28
343.915	0.22
344.125	0.27
344.334	0.29
344.544	0.21
344.753	0.26
344.963	0.25
345.172	0.22
345.381	0.2
345.591	0.23
345.8	0.26
346.01	0.26
346.219	0.26
346.428	0.12
346.638	0.25
346.847	0.24
347.056	0.3
347.266	0.24
347.475	0.31
347.684	0.24
347.893	0.26
348.103	0.31
348.312	0.24
348.521	0.25
348.73	0.24
348.94	0.27
349.149	0.23
349.358	0.24
349.567	0.22
349.776	0.2
349.985	0.23
350.194	0.26
350.403	0.23
350.612	0.19
350.821	0.24
351.03	0.2
351.239	0.24
351.448	0.25
351.657	0.2
351.866	0.27
352.075	0.25
352.284	0.29
352.493	0.23
352.702	0.27
352.911	0.25
353.12	0.25
353.329	0.25
353.538	0.25
353.746	0.25
353.955	0.23
354.164	0.26
354.373	0.27
354.582	0.27
354.79	0.25
354.999	0.28
355.208	0.23
355.416	0.3
355.625	0.23
355.834	0.24
356.042	0.25
356.251	0.22
356.46	0.2
356.668	0.27
356.877	0.32
357.085	0.3
357.294	0.2
357.503	0.28
357.711	0.2
357.92	0.33
358.128	0.25
358.337	0.24
358.545	0.27
358.754	0.24
358.962	0.29
359.17	0.26
359.379	0.25
359.587	0.29
359.796	0.24
360.004	0.25
360.212	0.23
360.421	0.27
360.629	0.22
360.837	0.26
361.046	0.26
361.254	0.32
361.462	0.28
361.67	0.26
361.879	0.26
362.087	0.28
362.295	0.26
362.503	0.23
362.711	0.16
362.92	0.21
363.128	0.23
363.336	0.21
363.544	0.2
363.752	0.22
363.96	0.24
364.168	0.21
364.376	0.21
364.584	0.25
364.792	0.29
365	0.24
365.208	0.25
365.416	0.26
365.624	0.26
365.832	0.22
366.04	0.23
366.248	0.22
366.456	0.24
366.664	0.27
366.872	0.23
367.079	0.21
367.287	0.24
367.495	0.29
367.703	0.24
367.911	0.2
368.118	0.24
368.326	0.25
368.534	0.23
368.742	0.31
368.949	0.18
369.157	0.2
369.365	0.25
369.572	0.25
369.78	0.21
369.988	0.26
370.195	0.28
370.403	0.26
370.61	0.23
370.818	0.29
371.026	0.3
371.233	0.21
371.441	0.24
371.648	0.24
371.856	0.25
372.063	0.26
372.271	0.24
372.478	0.24
372.685	0.24
372.893	0.28
373.1	0.23
373.308	0.26
373.515	0.27
373.722	0.25
373.93	0.26
374.137	0.26
374.344	0.28
374.552	0.3
374.759	0.29
374.966	0.23
375.173	0.24
375.381	0.28
375.588	0.26
375.795	0.17
376.002	0.24
376.209	0.23
376.417	0.24
376.624	0.29
376.831	0.24
377.038	0.23
377.245	0.18
377.452	0.21
377.659	0.28
377.866	0.26
378.073	0.26
378.28	0.27
378.487	0.3
378.694	0.32
378.901	0.34
379.108	0.28
379.315	0.3
379.522	0.31
379.729	0.27
379.936	0.23
380.143	0.25
380.35	0.31
380.557	0.29
380.763	0.29
380.97	0.22
381.177	0.27
381.384	0.3
381.591	0.3
381.797	0.25
382.004	0.25
382.211	0.29
382.418	0.29
382.624	0.31
382.831	0.3
383.038	0.28
383.244	0.28
383.451	0.24
383.658	0.25
383.864	0.26
384.071	0.24
384.277	0.31
384.484	0.24
384.69	0.29
384.897	0.24
385.103	0.27
385.31	0.25
385.516	0.27
385.723	0.27
385.929	0.23
386.136	0.24
386.342	0.28
386.549	0.26
386.755	0.34
386.961	0.24
387.168	0.28
387.374	0.31
387.58	0.3
387.787	0.28
387.993	0.31
388.199	0.28
388.406	0.22
388.612	0.23
388.818	0.3
389.024	0.29
389.231	0.31
389.437	0.32
389.643	0.31
389.849	0.28
390.055	0.29
390.261	0.29
390.467	0.31
390.674	0.25
390.88	0.29
391.086	0.34
391.292	0.29
391.498	0.36
391.704	0.28
391.91	0.32
392.116	0.27
392.322	0.22
392.528	0.32
392.734	0.27
392.94	0.28
393.146	0.32
393.352	0.29
393.557	0.29
393.763	0.3
393.969	0.33
394.175	0.27
394.381	0.31
394.587	0.27
394.792	0.32
394.998	0.33
395.204	0.36
395.41	0.27
395.615	0.3
395.821	0.31
396.027	0.33
396.233	0.3
396.438	0.37
396.644	0.37
396.85	0.36
397.055	0.33
397.261	0.32
397.466	0.35
397.672	0.34
397.878	0.42
398.083	0.35
398.289	0.28
398.494	0.4
398.7	0.33
398.905	0.3
399.111	0.39
399.316	0.28
399.522	0.37
399.727	0.35
399.932	0.37
400.138	0.33
400.343	0.37
400.549	0.35
400.754	0.33
400.959	0.38
401.165	0.33
401.37	0.35
401.575	0.45
401.78	0.36
401.986	0.35
402.191	0.36
402.396	0.4
402.601	0.39
402.807	0.42
403.012	0.43
403.217	0.42
403.422	0.38
403.627	0.4
403.832	0.41
404.037	0.47
404.243	0.47
404.448	0.43
404.653	0.37
404.858	0.45
405.063	0.43
405.268	0.38
405.473	0.39
405.678	0.42
405.883	0.53
406.088	0.44
406.293	0.43
406.498	0.4
406.703	0.47
406.907	0.47
407.112	0.46
407.317	0.54
407.522	0.58
407.727	0.46
407.932	0.53
408.136	0.59
408.341	0.56
408.546	0.59
408.751	0.6
408.956	0.59
409.16	0.63
409.365	0.6
409.57	0.64
409.774	0.62
409.979	0.68
410.184	0.65
410.388	0.61
410.593	0.73
410.798	0.7
411.002	0.7
411.207	0.77
411.411	0.83
411.616	0.8
411.82	0.75
412.025	0.85
412.229	0.79
412.434	0.87
412.638	0.89
412.843	0.89
413.047	0.91
413.252	0.92
413.456	1.03
413.66	1.03
413.865	0.98
414.069	1.1
414.273	1.08
414.478	1.09
414.682	1.16
414.886	1.15
415.091	1.2
415.295	1.22
415.499	1.29
415.703	1.36
415.908	1.41
416.112	1.35
416.316	1.49
416.52	1.48
416.724	1.52
416.929	1.59
417.133	1.8
417.337	1.68
417.541	1.78
417.745	1.77
417.949	1.87
418.153	2.01
418.357	1.94
418.561	2.15
418.765	2.08
418.969	2.24
419.173	2.41
419.377	2.32
419.581	2.57
419.785	2.58
419.989	2.6
420.193	2.7
420.397	2.86
420.601	2.89
420.804	3.02
421.008	2.96
421.212	3.11
421.416	3.12
421.62	3.19
421.823	3.3
422.027	3.46
422.231	3.4
422.435	3.44
422.638	3.51
422.842	3.53
423.046	3.62
423.249	3.8
423.453	3.88
423.657	4
423.86	4.06
424.064	4.2
424.268	4.37
424.471	4.37
424.675	4.59
424.878	4.66
425.082	4.74
425.285	5.05
425.489	4.93
425.692	5.05
425.896	5.19
426.099	5.27
426.303	5.4
426.506	5.62
426.71	5.82
426.913	6
427.116	6.11
427.32	6.14
427.523	6.25
427.726	6.51
427.93	6.58
428.133	6.99
428.336	7.04
428.54	7.27
428.743	7.44
428.946	7.6
429.149	7.83
429.353	7.69
429.556	7.91
429.759	7.85
429.962	8.02
430.165	8.2
430.368	7.8
430.571	7.89
430.775	7.85
430.978	7.95
431.181	8.01
431.384	8.11
431.587	8.13
431.79	8.57
431.993	8.53
432.196	8.85
432.399	9.27
432.602	9.22
432.805	9.37
433.008	9.91
433.211	9.82
433.414	10.21
433.616	10.11
433.819	10.11
434.022	10.27
434.225	10.37
434.428	10.53
434.631	10.89
434.833	10.72
435.036	10.93
435.239	11.13
435.442	11.2
435.645	11.36
435.847	11.39
436.05	11.65
436.253	11.93
436.455	11.97
436.658	11.92
436.861	12.27
437.063	12.35
437.266	12.31
437.468	12.62
437.671	12.88
437.874	12.95
438.076	12.86
438.279	13.22
438.481	13.39
438.684	14.1
438.886	13.58
439.089	14.03
439.291	13.9
439.494	14.33
439.696	14.57
439.899	14.99
440.101	15.34
440.303	15.61
440.506	16.46
440.708	16.07
440.91	16.24
441.113	16.64
441.315	16.84
441.517	16.66
441.72	17.07
441.922	16.83
442.124	16.62
442.326	16.98
442.529	17.23
442.731	17.23
442.933	17.63
443.135	17.32
443.337	17.28
443.539	17.87
443.742	17.42
443.944	18.25
444.146	18.02
444.348	17.79
444.55	17.92
444.752	17.99
444.954	17.97
445.156	17.92
445.358	18.41
445.56	18.75
445.762	18.31
445.964	18.75
446.166	18.5
446.368	18.45
446.57	18.49
446.772	18.24
446.974	17.87
447.175	18.27
447.377	17.99
447.579	18.48
447.781	18.11
447.983	17.84
448.184	17.3
448.386	17.8
448.588	17.38
448.79	17.31
448.991	17.51
449.193	17.66
449.395	16.95
449.597	16.57
449.798	16.38
450	16.09
450.202	15.93
450.403	16.04
450.605	15.85
450.806	15.48
451.008	15.4
451.21	15.17
451.411	14.73
451.613	14.07
451.814	14.33
452.016	14.29
452.217	13.49
452.419	13.57
452.62	13.28
452.821	12.93
453.023	12.9
453.224	12.4
453.426	12.02
453.627	11.39
453.828	11.48
454.03	11.66
454.231	11.49
454.432	11.27
454.634	11.06
454.835	10.83
455.036	10.63
455.238	10.28
455.439	10.05
455.64	9.78
455.841	9.58
456.042	9.68
456.244	9.45
456.445	9.17
456.646	8.86
456.847	8.72
457.048	8.63
457.249	8.61
457.45	8.26
457.651	7.91
457.852	7.62
458.054	7.37
458.255	7.37
458.456	7.45
458.657	7.38
458.858	6.94
459.058	6.7
459.259	6.87
459.46	6.53
459.661	6.53
459.862	6.55
460.063	6.53
460.264	6.35
460.465	6.13
460.666	6.22
460.866	5.93
461.067	5.61
461.268	5.66
461.469	5.56
461.67	5.47
461.87	5.27
462.071	5.36
462.272	5.24
462.473	5.17
462.673	5.45
462.874	5.24
463.075	5.27
463.275	5.16
463.476	5.25
463.676	5.14
463.877	5.09
464.078	5.01
464.278	5.03
464.479	4.95
464.679	4.83
464.88	4.86
465.08	4.71
465.281	4.64
465.481	4.36
465.682	4.17
465.882	4.18
466.083	4.2
466.283	4.13
466.483	3.97
466.684	3.84
466.884	3.64
467.085	3.77
467.285	3.82
467.485	3.79
467.686	3.55
467.886	3.52
468.086	3.42
468.286	3.44
468.487	3.58
468.687	3.33
468.887	3.28
469.087	3.39
469.287	3.34
469.488	3.11
469.688	3.15
469.888	3.18
470.088	3.22
470.288	3.16
470.488	3
470.688	2.89
470.888	2.9
471.088	2.74
471.288	2.86
471.488	2.83
471.688	2.85
471.888	2.74
472.088	2.84
472.288	2.77
472.488	2.63
472.688	2.6
472.888	2.66
473.088	2.65
473.288	2.54
473.488	2.57
473.688	2.63
473.887	2.52
474.087	2.47
474.287	2.49
474.487	2.45
474.687	2.45
474.886	2.38
475.086	2.27
475.286	2.34
475.486	2.33
475.685	2.31
475.885	2.24
476.085	2.27
476.284	2.26
476.484	2.27
476.684	2.24
476.883	2.33
477.083	2.3
477.282	2.13
477.482	2.2
477.681	2.14
477.881	2.06
478.08	2.1
478.28	2.08
478.479	2.1
478.679	2.16
478.878	2.02
479.078	2.09
479.277	2.13
479.477	2.11
479.676	2.05
479.875	2.06
480.075	2.04
480.274	2.02
480.473	2.1
480.673	2.07
480.872	2.11
481.071	2.06
481.271	2.06
481.47	2.02
481.669	2.06
481.868	1.94
482.067	1.99
482.267	1.98
482.466	1.96
482.665	1.94
482.864	1.98
483.063	2.01
483.262	2.06
483.461	2.02
483.661	2.08
483.86	2
484.059	2.05
484.258	2.05
484.457	2.05
484.656	1.99
484.855	2.12
485.054	1.94
485.253	2.02
485.452	1.98
485.651	2.07
485.849	2.03
486.048	2.04
486.247	2.04
486.446	2.09
486.645	2.08
486.844	2.12
487.043	2.05
487.241	2.06
487.44	2.07
487.639	2.14
487.838	2.12
488.037	2.13
488.235	2.15
488.434	2.18
488.633	2.05
488.831	2.21
489.03	2.26
489.229	2.23
489.427	2.2
489.626	2.24
489.825	2.26
490.023	2.29
490.222	2.26
490.42	2.33
490.619	2.35
490.817	2.37
491.016	2.36
491.214	2.42
491.413	2.4
491.611	2.36
491.81	2.41
492.008	2.38
492.207	2.56
492.405	2.5
492.604	2.44
492.802	2.55
493	2.59
493.199	2.61
493.397	2.69
493.595	2.66
493.794	2.58
493.992	2.74
494.19	2.76
494.388	2.82
494.587	2.73
494.785	2.72
494.983	2.7
495.181	2.83
495.379	2.88
495.578	2.89
495.776	2.97
495.974	2.89
496.172	2.96
496.37	3.1
496.568	3.1
496.766	3.06
496.964	3.17
497.162	3.13
497.36	3.2
497.558	3.21
497.756	3.28
497.954	3.31
498.152	3.31
498.35	3.43
498.548	3.36
498.746	3.36
498.944	3.4
499.142	3.44
499.34	3.46
499.538	3.62
499.736	3.49
499.933	3.57
500.131	3.62
500.329	3.77
500.527	3.73
500.725	3.82
500.922	3.82
501.12	3.86
501.318	3.93
501.516	3.89
501.713	4
501.911	3.97
502.109	3.96
502.306	4.05
502.504	3.99
502.701	4.02
