Data from Apollo_Calib_20240827__AbsoluteIrradiance__762__11-51-00-624.txt Node

Date: Wed Aug 28 11:51:00 BST 2024
User: biology
Spectrometer: FLMT08252
Trigger mode: 0
Integration Time (sec): 5.000000E-1
Scans to average: 5
Electric dark correction enabled: true
Nonlinearity correction enabled: false
Boxcar width: 0
XAxis mode: Wavelengths
Number of Pixels in Spectrum: 3648
>>>>>Begin Spectral Data<<<<<
179.588	-0
179.809	-0
180.03	-0
180.251	-0
180.473	-0
180.694	0
180.915	0
181.136	-0
181.357	0
181.578	0
181.799	0
182.02	-0
182.241	0
182.462	-0
182.683	0
182.904	-0
183.125	-0
183.346	0
183.567	0
183.788	0
184.009	0
184.23	0
184.451	0
184.672	0
184.892	0
185.113	0
185.334	0
185.555	0
185.776	0
185.996	0
186.217	0
186.438	0
186.659	0
186.879	0
187.1	0
187.321	0
187.541	0
187.762	0
187.983	0
188.203	0
188.424	0
188.644	0
188.865	0
189.086	0
189.306	0
189.527	0
189.747	0
189.968	0
190.188	0
190.409	0
190.629	0
190.849	0
191.07	0
191.29	0
191.511	0
191.731	0
191.951	0
192.172	0
192.392	0
192.612	0
192.833	0
193.053	0
193.273	0
193.493	0
193.714	0
193.934	0
194.154	0
194.374	0
194.594	0
194.815	0
195.035	0
195.255	0
195.475	0
195.695	0
195.915	0
196.135	0
196.355	0
196.575	0
196.795	0
197.015	0
197.235	0
197.455	0
197.675	0
197.895	0
198.115	0
198.335	0
198.555	0
198.775	0
198.995	0
199.214	0
199.434	0
199.654	0
199.874	0
200.094	3.58
200.313	2.2
200.533	1.63
200.753	1.33
200.973	3.38
201.192	2.57
201.412	1.07
201.632	1.82
201.851	3.14
202.071	1.47
202.291	1.07
202.51	0.94
202.73	3.18
202.95	1.59
203.169	1.02
203.389	1.49
203.608	1.9
203.828	1.19
204.047	1.51
204.267	2.26
204.486	1.61
204.706	1.94
204.925	1.69
205.145	1.37
205.364	2.12
205.583	2.11
205.803	1.49
206.022	1.17
206.242	1.69
206.461	1.23
206.68	1.26
206.9	1.49
207.119	2.31
207.338	1.83
207.557	1.33
207.777	1.13
207.996	0.85
208.215	2.17
208.434	0.72
208.654	1.03
208.873	1.62
209.092	1.8
209.311	1.04
209.53	1.27
209.749	1.14
209.968	0.92
210.187	0.83
210.407	0.58
210.626	1.27
210.845	1.43
211.064	0.97
211.283	0.75
211.502	1.45
211.721	1.24
211.94	0.83
212.159	1.23
212.377	1.2
212.596	1.17
212.815	0.92
213.034	1.17
213.253	1.28
213.472	1.23
213.691	0.77
213.91	0.76
214.128	0.61
214.347	1.23
214.566	0.35
214.785	0.58
215.003	0.93
215.222	1.01
215.441	0.72
215.66	0.51
215.878	0.78
216.097	1.02
216.316	0.65
216.534	0.84
216.753	0.83
216.972	0.89
217.19	0.65
217.409	0.56
217.627	0.7
217.846	0.62
218.064	0.99
218.283	0.59
218.501	1.37
218.72	1.01
218.938	0.47
219.157	0.51
219.375	0.95
219.594	1.06
219.812	0.5
220.031	0.6
220.249	1.22
220.467	1.17
220.686	0.63
220.904	0.43
221.122	0.63
221.341	1.17
221.559	0.65
221.777	0.51
221.995	0.7
222.214	1.08
222.432	0.58
222.65	0.79
222.868	0.76
223.086	0.67
223.305	0.83
223.523	0.58
223.741	1.02
223.959	0.54
224.177	0.37
224.395	0.56
224.613	0.8
224.831	0.76
225.049	0.41
225.267	0.5
225.485	0.7
225.703	0.37
225.921	0.73
226.139	0.5
226.357	0.57
226.575	0.76
226.793	0.48
227.011	1.48
227.229	0.6
227.447	0.77
227.665	0.55
227.883	0.23
228.1	0.7
228.318	0.62
228.536	0.25
228.754	0.34
228.972	0.64
229.189	0.75
229.407	0.57
229.625	0.52
229.843	0.82
230.06	0.61
230.278	0.47
230.496	0.56
230.713	0.66
230.931	0.69
231.149	0.49
231.366	0.26
231.584	0.59
231.801	1.06
232.019	0.48
232.236	0.36
232.454	0.4
232.671	0.62
232.889	0.59
233.106	0.31
233.324	0.6
233.541	0.5
233.759	0.57
233.976	0.42
234.194	0.51
234.411	0.53
234.628	0.38
234.846	0.48
235.063	0.57
235.28	0.5
235.498	0.53
235.715	0.25
235.932	0.68
236.149	0.41
236.367	0.36
236.584	0.5
236.801	0.34
237.018	0.63
237.236	0.42
237.453	0.25
237.67	0.67
237.887	0.53
238.104	0.36
238.321	0.29
238.538	0.27
238.755	0.65
238.973	0.26
239.19	0.48
239.407	0.48
239.624	0.48
239.841	0.36
240.058	0.3
240.275	0.44
240.492	0.34
240.709	0.48
240.925	0.34
241.142	0.53
241.359	0.33
241.576	0.36
241.793	0.37
242.01	0.4
242.227	0.54
242.444	0.5
242.66	0.55
242.877	0.51
243.094	0.29
243.311	0.45
243.527	0.46
243.744	0.43
243.961	0.5
244.178	0.35
244.394	0.42
244.611	0.52
244.828	0.63
245.044	0.28
245.261	0.39
245.477	0.4
245.694	0.46
245.911	0.4
246.127	0.44
246.344	0.69
246.56	0.46
246.777	0.34
246.993	0.36
247.21	0.45
247.426	0.55
247.643	0.29
247.859	0.28
248.076	0.32
248.292	0.57
248.508	0.31
248.725	0.4
248.941	0.5
249.157	0.46
249.374	0.34
249.59	0.33
249.806	0.38
250.023	0.62
250.239	0.31
250.455	0.33
250.671	0.41
250.888	0.36
251.104	0.42
251.32	0.33
251.536	0.37
251.752	0.36
251.969	0.34
252.185	0.33
252.401	0.62
252.617	0.45
252.833	0.33
253.049	0.3
253.265	0.38
253.481	0.36
253.697	0.34
253.913	0.34
254.129	0.34
254.345	0.4
254.561	0.31
254.777	0.37
254.993	0.48
255.209	0.34
255.425	0.33
255.641	0.32
255.857	0.47
256.073	0.39
256.288	0.26
256.504	0.26
256.72	0.39
256.936	0.44
257.152	0.32
257.367	0.31
257.583	0.38
257.799	0.44
258.015	0.28
258.23	0.33
258.446	0.46
258.662	0.32
258.877	0.27
259.093	0.26
259.309	0.38
259.524	0.36
259.74	0.24
259.955	0.16
260.171	0.36
260.387	0.38
260.602	0.41
260.818	0.35
261.033	0.2
261.249	0.38
261.464	0.35
261.68	0.27
261.895	0.39
262.11	0.46
262.326	0.26
262.541	0.2
262.757	0.42
262.972	0.38
263.187	0.35
263.403	0.34
263.618	0.37
263.833	0.33
264.049	0.25
264.264	0.3
264.479	0.32
264.694	0.47
264.91	0.2
265.125	0.27
265.34	0.42
265.555	0.52
265.77	0.34
265.986	0.34
266.201	0.4
266.416	0.48
266.631	0.28
266.846	0.3
267.061	0.39
267.276	0.34
267.491	0.2
267.706	0.34
267.921	0.33
268.136	0.36
268.351	0.27
268.566	0.28
268.781	0.43
268.996	0.34
269.211	0.3
269.426	0.18
269.641	0.3
269.856	0.39
270.071	0.23
270.285	0.19
270.5	0.36
270.715	0.36
270.93	0.27
271.145	0.32
271.359	0.33
271.574	0.29
271.789	0.29
272.004	0.26
272.218	0.3
272.433	0.38
272.648	0.25
272.862	0.37
273.077	0.33
273.292	0.34
273.506	0.23
273.721	0.28
273.936	0.32
274.15	0.37
274.365	0.25
274.579	0.31
274.794	0.32
275.008	0.4
275.223	0.22
275.437	0.35
275.652	0.38
275.866	0.35
276.081	0.29
276.295	0.35
276.509	0.26
276.724	0.3
276.938	0.22
277.153	0.33
277.367	0.3
277.581	0.23
277.796	0.27
278.01	0.2
278.224	0.34
278.438	0.46
278.653	0.23
278.867	0.26
279.081	0.33
279.295	0.3
279.51	0.32
279.724	0.18
279.938	0.36
280.152	0.35
280.366	0.22
280.58	0.31
280.794	0.37
281.008	0.31
281.222	0.36
281.437	0.46
281.651	0.34
281.865	0.37
282.079	0.2
282.293	0.15
282.507	0.26
282.721	0.3
282.935	0.32
283.148	0.22
283.362	0.28
283.576	0.2
283.79	0.28
284.004	0.22
284.218	0.39
284.432	0.26
284.646	0.28
284.859	0.24
285.073	0.26
285.287	0.29
285.501	0.26
285.714	0.25
285.928	0.29
286.142	0.29
286.356	0.19
286.569	0.22
286.783	0.34
286.997	0.33
287.21	0.26
287.424	0.2
287.637	0.24
287.851	0.26
288.065	0.32
288.278	0.27
288.492	0.24
288.705	0.23
288.919	0.27
289.132	0.22
289.346	0.3
289.559	0.21
289.773	0.2
289.986	0.24
290.2	0.25
290.413	0.28
290.626	0.22
290.84	0.26
291.053	0.29
291.267	0.33
291.48	0.24
291.693	0.27
291.906	0.18
292.12	0.23
292.333	0.26
292.546	0.17
292.76	0.33
292.973	0.3
293.186	0.33
293.399	0.2
293.612	0.33
293.826	0.23
294.039	0.26
294.252	0.19
294.465	0.29
294.678	0.29
294.891	0.23
295.104	0.17
295.317	0.22
295.53	0.25
295.743	0.23
295.956	0.22
296.169	0.31
296.382	0.31
296.595	0.21
296.808	0.18
297.021	0.31
297.234	0.29
297.447	0.22
297.66	0.3
297.873	0.32
298.086	0.31
298.299	0.19
298.511	0.18
298.724	0.22
298.937	0.21
299.15	0.21
299.363	0.21
299.575	0.3
299.788	0.27
300.001	0.17
300.213	0.23
300.426	0.25
300.639	0.17
300.852	0.16
301.064	0.3
301.277	0.29
301.489	0.27
301.702	0.25
301.915	0.24
302.127	0.2
302.34	0.24
302.552	0.23
302.765	0.18
302.977	0.27
303.19	0.25
303.402	0.22
303.615	0.21
303.827	0.23
304.04	0.23
304.252	0.27
304.464	0.18
304.677	0.32
304.889	0.31
305.102	0.23
305.314	0.23
305.526	0.23
305.739	0.27
305.951	0.18
306.163	0.22
306.375	0.35
306.588	0.23
306.8	0.2
307.012	0.18
307.224	0.2
307.436	0.31
307.649	0.14
307.861	0.22
308.073	0.26
308.285	0.21
308.497	0.23
308.709	0.22
308.921	0.23
309.133	0.28
309.346	0.2
309.558	0.22
309.77	0.27
309.982	0.35
310.194	0.24
310.406	0.19
310.617	0.32
310.829	0.27
311.041	0.3
311.253	0.2
311.465	0.24
311.677	0.26
311.889	0.23
312.101	0.21
312.313	0.3
312.524	0.26
312.736	0.17
312.948	0.24
313.16	0.32
313.372	0.28
313.583	0.24
313.795	0.21
314.007	0.21
314.218	0.28
314.43	0.3
314.642	0.21
314.853	0.17
315.065	0.29
315.277	0.21
315.488	0.24
315.7	0.26
315.912	0.25
316.123	0.29
316.335	0.22
316.546	0.32
316.758	0.24
316.969	0.21
317.181	0.25
317.392	0.25
317.604	0.28
317.815	0.2
318.026	0.23
318.238	0.23
318.449	0.24
318.661	0.15
318.872	0.16
319.083	0.23
319.295	0.27
319.506	0.21
319.717	0.24
319.929	0.25
320.14	0.26
320.351	0.25
320.562	0.22
320.774	0.25
320.985	0.28
321.196	0.13
321.407	0.13
321.618	0.29
321.829	0.26
322.041	0.22
322.252	0.26
322.463	0.25
322.674	0.23
322.885	0.16
323.096	0.18
323.307	0.27
323.518	0.25
323.729	0.19
323.94	0.2
324.151	0.22
324.362	0.26
324.573	0.24
324.784	0.21
324.995	0.28
325.206	0.25
325.417	0.21
325.628	0.17
325.838	0.26
326.049	0.24
326.26	0.31
326.471	0.22
326.682	0.32
326.892	0.26
327.103	0.17
327.314	0.18
327.525	0.3
327.735	0.28
327.946	0.24
328.157	0.19
328.368	0.27
328.578	0.23
328.789	0.25
328.999	0.25
329.21	0.22
329.421	0.29
329.631	0.18
329.842	0.2
330.052	0.25
330.263	0.27
330.473	0.28
330.684	0.18
330.894	0.28
331.105	0.24
331.315	0.23
331.526	0.17
331.736	0.33
331.947	0.27
332.157	0.3
332.367	0.16
332.578	0.28
332.788	0.3
332.999	0.26
333.209	0.24
333.419	0.15
333.629	0.3
333.84	0.24
334.05	0.26
334.26	0.29
334.47	0.26
334.681	0.28
334.891	0.21
335.101	0.26
335.311	0.31
335.521	0.21
335.732	0.2
335.942	0.3
336.152	0.24
336.362	0.21
336.572	0.21
336.782	0.25
336.992	0.24
337.202	0.2
337.412	0.18
337.622	0.26
337.832	0.22
338.042	0.21
338.252	0.18
338.462	0.2
338.672	0.26
338.882	0.23
339.092	0.19
339.302	0.33
339.511	0.26
339.721	0.18
339.931	0.17
340.141	0.27
340.351	0.28
340.561	0.23
340.77	0.23
340.98	0.2
341.19	0.22
341.4	0.19
341.609	0.17
341.819	0.26
342.029	0.14
342.238	0.2
342.448	0.18
342.658	0.28
342.867	0.22
343.077	0.22
343.286	0.22
343.496	0.22
343.706	0.32
343.915	0.14
344.125	0.24
344.334	0.26
344.544	0.19
344.753	0.16
344.963	0.16
345.172	0.19
345.381	0.21
345.591	0.18
345.8	0.23
346.01	0.33
346.219	0.29
346.428	0.07
346.638	0.22
346.847	0.28
347.056	0.31
347.266	0.19
347.475	0.2
347.684	0.23
347.893	0.24
348.103	0.22
348.312	0.23
348.521	0.22
348.73	0.25
348.94	0.25
349.149	0.19
349.358	0.22
349.567	0.19
349.776	0.13
349.985	0.21
350.194	0.3
350.403	0.3
350.612	0.1
350.821	0.21
351.03	0.2
351.239	0.16
351.448	0.18
351.657	0.23
351.866	0.29
352.075	0.25
352.284	0.17
352.493	0.17
352.702	0.28
352.911	0.24
353.12	0.25
353.329	0.2
353.538	0.26
353.746	0.21
353.955	0.17
354.164	0.29
354.373	0.22
354.582	0.25
354.79	0.22
354.999	0.24
355.208	0.26
355.416	0.29
355.625	0.17
355.834	0.2
356.042	0.27
356.251	0.2
356.46	0.21
356.668	0.25
356.877	0.31
357.085	0.3
357.294	0.15
357.503	0.23
357.711	0.21
357.92	0.37
358.128	0.26
358.337	0.24
358.545	0.26
358.754	0.18
358.962	0.27
359.17	0.22
359.379	0.27
359.587	0.24
359.796	0.24
360.004	0.26
360.212	0.27
360.421	0.25
360.629	0.21
360.837	0.19
361.046	0.28
361.254	0.35
361.462	0.19
361.67	0.17
361.879	0.21
362.087	0.27
362.295	0.2
362.503	0.23
362.711	0.15
362.92	0.22
363.128	0.18
363.336	0.17
363.544	0.15
363.752	0.2
363.96	0.18
364.168	0.21
364.376	0.24
364.584	0.2
364.792	0.28
365	0.23
365.208	0.23
365.416	0.28
365.624	0.3
365.832	0.21
366.04	0.27
366.248	0.25
366.456	0.27
366.664	0.28
366.872	0.23
367.079	0.21
367.287	0.26
367.495	0.22
367.703	0.23
367.911	0.23
368.118	0.21
368.326	0.24
368.534	0.19
368.742	0.27
368.949	0.15
369.157	0.21
369.365	0.23
369.572	0.19
369.78	0.2
369.988	0.29
370.195	0.26
370.403	0.26
370.61	0.22
370.818	0.21
371.026	0.32
371.233	0.19
371.441	0.24
371.648	0.2
371.856	0.22
372.063	0.26
372.271	0.21
372.478	0.19
372.685	0.2
372.893	0.3
373.1	0.21
373.308	0.2
373.515	0.34
373.722	0.28
373.93	0.25
374.137	0.28
374.344	0.32
374.552	0.28
374.759	0.31
374.966	0.25
375.173	0.18
375.381	0.28
375.588	0.23
375.795	0.14
376.002	0.17
376.209	0.22
376.417	0.23
376.624	0.26
376.831	0.3
377.038	0.24
377.245	0.09
377.452	0.2
377.659	0.24
377.866	0.17
378.073	0.27
378.28	0.24
378.487	0.28
378.694	0.28
378.901	0.23
379.108	0.22
379.315	0.29
379.522	0.3
379.729	0.28
379.936	0.19
380.143	0.19
380.35	0.26
380.557	0.23
380.763	0.25
380.97	0.26
381.177	0.27
381.384	0.24
381.591	0.26
381.797	0.26
382.004	0.3
382.211	0.25
382.418	0.18
382.624	0.26
382.831	0.3
383.038	0.2
383.244	0.31
383.451	0.24
383.658	0.3
383.864	0.23
384.071	0.2
384.277	0.38
384.484	0.25
384.69	0.3
384.897	0.21
385.103	0.23
385.31	0.2
385.516	0.22
385.723	0.22
385.929	0.29
386.136	0.22
386.342	0.28
386.549	0.24
386.755	0.31
386.961	0.26
387.168	0.25
387.374	0.28
387.58	0.31
387.787	0.29
387.993	0.28
388.199	0.21
388.406	0.23
388.612	0.23
388.818	0.21
389.024	0.23
389.231	0.25
389.437	0.37
389.643	0.31
389.849	0.26
390.055	0.28
390.261	0.29
390.467	0.24
390.674	0.25
390.88	0.27
391.086	0.31
391.292	0.2
391.498	0.3
391.704	0.33
391.91	0.3
392.116	0.2
392.322	0.17
392.528	0.3
392.734	0.26
392.94	0.25
393.146	0.23
393.352	0.26
393.557	0.25
393.763	0.25
393.969	0.37
394.175	0.29
394.381	0.26
394.587	0.23
394.792	0.28
394.998	0.33
395.204	0.35
395.41	0.26
395.615	0.34
395.821	0.3
396.027	0.3
396.233	0.26
396.438	0.31
396.644	0.34
396.85	0.35
397.055	0.26
397.261	0.26
397.466	0.3
397.672	0.27
397.878	0.33
398.083	0.36
398.289	0.26
398.494	0.38
398.7	0.32
398.905	0.2
399.111	0.39
399.316	0.26
399.522	0.34
399.727	0.31
399.932	0.27
400.138	0.26
400.343	0.39
400.549	0.29
400.754	0.33
400.959	0.36
401.165	0.32
401.37	0.34
401.575	0.42
401.78	0.32
401.986	0.33
402.191	0.36
402.396	0.36
402.601	0.33
402.807	0.38
403.012	0.34
403.217	0.39
403.422	0.37
403.627	0.39
403.832	0.33
404.037	0.4
404.243	0.39
404.448	0.36
404.653	0.41
404.858	0.43
405.063	0.37
405.268	0.34
405.473	0.31
405.678	0.39
405.883	0.62
406.088	0.44
406.293	0.33
406.498	0.39
406.703	0.46
406.907	0.44
407.112	0.39
407.317	0.47
407.522	0.54
407.727	0.41
407.932	0.44
408.136	0.57
408.341	0.49
408.546	0.49
408.751	0.52
408.956	0.54
409.16	0.58
409.365	0.56
409.57	0.54
409.774	0.57
409.979	0.65
410.184	0.6
410.388	0.53
410.593	0.71
410.798	0.64
411.002	0.67
411.207	0.69
411.411	0.7
411.616	0.69
411.82	0.71
412.025	0.79
412.229	0.77
412.434	0.85
412.638	0.8
412.843	0.79
413.047	0.88
413.252	0.82
413.456	0.89
413.66	0.95
413.865	0.92
414.069	0.96
414.273	0.96
414.478	0.95
414.682	0.99
414.886	1.08
415.091	1.1
415.295	1.07
415.499	1.26
415.703	1.16
415.908	1.26
416.112	1.14
416.316	1.42
416.52	1.37
416.724	1.34
416.929	1.45
417.133	1.63
417.337	1.51
417.541	1.59
417.745	1.65
417.949	1.71
418.153	1.73
418.357	1.76
418.561	1.93
418.765	1.94
418.969	2.02
419.173	2.15
419.377	2.07
419.581	2.35
419.785	2.28
419.989	2.32
420.193	2.47
420.397	2.51
420.601	2.59
420.804	2.79
421.008	2.68
421.212	2.87
421.416	2.9
421.62	2.88
421.823	2.89
422.027	3.15
422.231	3.04
422.435	3.07
422.638	3.17
422.842	3.18
423.046	3.25
423.249	3.48
423.453	3.45
423.657	3.59
423.86	3.62
424.064	3.82
424.268	3.89
424.471	3.98
424.675	4.11
424.878	4.23
425.082	4.32
425.285	4.69
425.489	4.47
425.692	4.65
425.896	4.63
426.099	4.86
426.303	4.85
426.506	5.01
426.71	5.26
426.913	5.43
427.116	5.64
427.32	5.57
427.523	5.6
427.726	6.01
427.93	6.03
428.133	6.32
428.336	6.44
428.54	6.53
428.743	6.82
428.946	7.04
429.149	7
429.353	6.99
429.556	7.11
429.759	7.12
429.962	7.25
430.165	7.4
430.368	7.04
430.571	7.16
430.775	7.26
430.978	7.15
431.181	7.26
431.384	7.33
431.587	7.39
431.79	7.78
431.993	7.71
432.196	7.92
432.399	8.25
432.602	8.48
432.805	8.5
433.008	9.07
433.211	8.83
433.414	9.12
433.616	9.22
433.819	9.08
434.022	9.34
434.225	9.55
434.428	9.48
434.631	9.84
434.833	9.67
435.036	9.96
435.239	10.1
435.442	10.17
435.645	10.39
435.847	10.49
436.05	10.64
436.253	10.95
436.455	10.87
436.658	10.74
436.861	11.13
437.063	11.23
437.266	11.19
437.468	11.45
437.671	11.79
437.874	11.75
438.076	11.65
438.279	12.05
438.481	12.1
438.684	12.87
438.886	12.41
439.089	12.78
439.291	12.75
439.494	13.14
439.696	13.21
439.899	13.8
440.101	14.16
440.303	14.33
440.506	14.94
440.708	14.83
440.91	14.97
441.113	15.04
441.315	15.22
441.517	15.16
441.72	15.61
441.922	15.36
442.124	15.13
442.326	15.47
442.529	15.83
442.731	15.82
442.933	16.13
443.135	15.82
443.337	15.83
443.539	16.38
443.742	16.02
443.944	16.66
444.146	16.45
444.348	16.52
444.55	16.34
444.752	16.53
444.954	16.51
445.156	16.46
445.358	16.92
445.56	17.04
445.762	16.87
445.964	17.24
446.166	17.04
446.368	17.15
446.57	17.1
446.772	16.63
446.974	16.58
447.175	16.89
447.377	16.72
447.579	16.95
447.781	16.56
447.983	16.45
448.184	16.03
448.386	16.4
448.588	15.93
448.79	15.95
448.991	16.36
449.193	16.18
449.395	15.72
449.597	15.34
449.798	15.3
450	14.82
450.202	14.69
450.403	14.91
450.605	14.75
450.806	14.3
451.008	14.25
451.21	14.05
451.411	13.61
451.613	12.94
451.814	13.17
452.016	13.23
452.217	12.55
452.419	12.5
452.62	12.15
452.821	11.98
453.023	11.83
453.224	11.52
453.426	11.07
453.627	10.47
453.828	10.66
454.03	10.59
454.231	10.64
454.432	10.4
454.634	10.22
454.835	9.88
455.036	9.78
455.238	9.53
455.439	9.25
455.64	8.93
455.841	8.81
456.042	9.02
456.244	8.74
456.445	8.52
456.646	8.19
456.847	8.07
457.048	8.02
457.249	8.09
457.45	7.79
457.651	7.28
457.852	7.11
458.054	6.89
458.255	6.74
458.456	6.86
458.657	6.83
458.858	6.4
459.058	6.27
459.259	6.36
459.46	6.05
459.661	6.04
459.862	6.15
460.063	5.99
460.264	5.88
460.465	5.65
460.666	5.69
460.866	5.45
461.067	5.26
461.268	5.24
461.469	5.25
461.67	5.11
461.87	4.97
462.071	4.87
462.272	4.87
462.473	4.78
462.673	5.02
462.874	4.81
463.075	4.79
463.275	4.81
463.476	4.83
463.676	4.82
463.877	4.66
464.078	4.63
464.278	4.66
464.479	4.54
464.679	4.49
464.88	4.48
465.08	4.36
465.281	4.29
465.481	4.1
465.682	3.84
465.882	3.89
466.083	3.85
466.283	3.85
466.483	3.73
466.684	3.5
466.884	3.42
467.085	3.46
467.285	3.54
467.485	3.44
467.686	3.33
467.886	3.28
468.086	3.19
468.286	3.2
468.487	3.21
468.687	3.12
468.887	3
469.087	3.2
469.287	3.1
469.488	2.85
469.688	2.97
469.888	2.98
470.088	2.96
470.288	2.89
470.488	2.84
470.688	2.68
470.888	2.73
471.088	2.62
471.288	2.61
471.488	2.65
471.688	2.58
471.888	2.47
472.088	2.71
472.288	2.57
472.488	2.43
472.688	2.43
472.888	2.43
473.088	2.44
473.288	2.32
473.488	2.35
473.688	2.46
473.887	2.3
474.087	2.25
474.287	2.29
474.487	2.22
474.687	2.29
474.886	2.25
475.086	2.13
475.286	2.2
475.486	2.16
475.685	2.09
475.885	2.12
476.085	2.12
476.284	2.15
476.484	2.15
476.684	2.09
476.883	2.2
477.083	2.01
477.282	1.94
477.482	2.09
477.681	2
477.881	1.91
478.08	1.95
478.28	1.91
478.479	1.99
478.679	2.03
478.878	1.91
479.078	1.9
479.277	1.96
479.477	1.88
479.676	1.95
479.875	1.9
480.075	1.81
480.274	1.9
480.473	1.92
480.673	1.86
480.872	1.97
481.071	1.9
481.271	1.92
481.47	1.86
481.669	1.87
481.868	1.87
482.067	1.84
482.267	1.8
482.466	1.84
482.665	1.82
482.864	1.85
483.063	1.76
483.262	1.86
483.461	1.9
483.661	1.94
483.86	1.88
484.059	1.94
484.258	1.91
484.457	1.86
484.656	1.94
484.855	1.95
485.054	1.77
485.253	1.81
485.452	1.83
485.651	1.94
485.849	1.89
486.048	1.84
486.247	1.9
486.446	1.96
486.645	1.95
486.844	1.95
487.043	1.92
487.241	1.93
487.44	1.9
487.639	2
487.838	2
488.037	1.97
488.235	2.08
488.434	2
488.633	1.91
488.831	2.08
489.03	2.09
489.229	2.08
489.427	2.08
489.626	2.11
489.825	2.12
490.023	2.15
490.222	2.11
490.42	2.13
490.619	2.17
490.817	2.21
491.016	2.18
491.214	2.27
491.413	2.24
491.611	2.16
491.81	2.21
492.008	2.25
492.207	2.34
492.405	2.32
492.604	2.27
492.802	2.41
493	2.42
493.199	2.45
493.397	2.45
493.595	2.52
493.794	2.45
493.992	2.63
494.19	2.56
494.388	2.61
494.587	2.56
494.785	2.57
494.983	2.53
495.181	2.69
495.379	2.73
495.578	2.72
495.776	2.71
495.974	2.7
496.172	2.74
496.37	2.87
496.568	2.86
496.766	2.86
496.964	2.95
497.162	2.94
497.36	2.99
497.558	3.06
497.756	3.06
497.954	3.03
498.152	3.09
498.35	3.14
498.548	3.12
498.746	3.11
498.944	3.14
499.142	3.2
499.34	3.27
499.538	3.35
499.736	3.28
499.933	3.38
500.131	3.35
500.329	3.46
500.527	3.48
500.725	3.57
500.922	3.58
501.12	3.59
501.318	3.64
501.516	3.62
501.713	3.72
501.911	3.69
502.109	3.66
502.306	3.77
502.504	3.7
502.701	3.79
502.899	3.84
503.097	4.03
