Data from Apollo_Calib_20240827__AbsoluteIrradiance__737__11-26-03-082.txt Node

Date: Wed Aug 28 11:26:03 BST 2024
User: biology
Spectrometer: FLMT08252
Trigger mode: 0
Integration Time (sec): 5.000000E-1
Scans to average: 5
Electric dark correction enabled: true
Nonlinearity correction enabled: false
Boxcar width: 0
XAxis mode: Wavelengths
Number of Pixels in Spectrum: 3648
>>>>>Begin Spectral Data<<<<<
179.588	-0
179.809	-0
180.03	-0
180.251	-0
180.473	-0
180.694	0
180.915	0
181.136	-0
181.357	0
181.578	0
181.799	0
182.02	-0
182.241	0
182.462	-0
182.683	0
182.904	-0
183.125	-0
183.346	0
183.567	0
183.788	0
184.009	0
184.23	0
184.451	0
184.672	0
184.892	0
185.113	0
185.334	0
185.555	0
185.776	0
185.996	0
186.217	0
186.438	0
186.659	0
186.879	0
187.1	0
187.321	0
187.541	0
187.762	0
187.983	0
188.203	0
188.424	0
188.644	0
188.865	0
189.086	0
189.306	0
189.527	0
189.747	0
189.968	0
190.188	0
190.409	0
190.629	0
190.849	0
191.07	0
191.29	0
191.511	0
191.731	0
191.951	0
192.172	0
192.392	0
192.612	0
192.833	0
193.053	0
193.273	0
193.493	0
193.714	0
193.934	0
194.154	0
194.374	0
194.594	0
194.815	0
195.035	0
195.255	0
195.475	0
195.695	0
195.915	0
196.135	0
196.355	0
196.575	0
196.795	0
197.015	0
197.235	0
197.455	0
197.675	0
197.895	0
198.115	0
198.335	0
198.555	0
198.775	0
198.995	0
199.214	0
199.434	0
199.654	0
199.874	0
200.094	2.38
200.313	1.2
200.533	0.89
200.753	0.56
200.973	2.71
201.192	2
201.412	0.43
201.632	0.99
201.851	2.47
202.071	0.56
202.291	0.97
202.51	0.84
202.73	1.92
202.95	0.99
203.169	0.34
203.389	1.02
203.608	1.56
203.828	0.56
204.047	0.56
204.267	1.19
204.486	1.01
204.706	1.1
204.925	0.71
205.145	0.76
205.364	1.33
205.583	1.17
205.803	0.66
206.022	0.03
206.242	0.58
206.461	0.97
206.68	0.38
206.9	0.94
207.119	1.5
207.338	1.59
207.557	0.39
207.777	0.68
207.996	0.72
208.215	1.16
208.434	0.5
208.654	0.17
208.873	0.68
209.092	1.28
209.311	0.62
209.53	0.85
209.749	0.51
209.968	0.71
210.187	0.56
210.407	0.28
210.626	0.58
210.845	0.8
211.064	0.51
211.283	0.39
211.502	0.87
211.721	0.46
211.94	0.46
212.159	0.95
212.377	0.95
212.596	1.14
212.815	0.49
213.034	0.54
213.253	0.68
213.472	0.76
213.691	0.27
213.91	0.22
214.128	0.46
214.347	1.13
214.566	0.11
214.785	0.36
215.003	0.67
215.222	0.62
215.441	0.47
215.66	0.14
215.878	0.47
216.097	0.83
216.316	0.22
216.534	0.4
216.753	0.69
216.972	0.48
217.19	0.31
217.409	0.34
217.627	0.39
217.846	0.44
218.064	0.46
218.283	0.18
218.501	0.75
218.72	0.59
218.938	0.22
219.157	0.3
219.375	0.55
219.594	0.59
219.812	0.26
220.031	0.3
220.249	0.69
220.467	0.79
220.686	0.3
220.904	0.05
221.122	0.34
221.341	0.78
221.559	0.51
221.777	0.24
221.995	0.45
222.214	0.64
222.432	0.46
222.65	0.57
222.868	0.51
223.086	0.5
223.305	0.44
223.523	0.4
223.741	0.64
223.959	0.28
224.177	0.34
224.395	0.26
224.613	0.52
224.831	0.47
225.049	0.34
225.267	0.34
225.485	0.54
225.703	0.41
225.921	0.35
226.139	0.27
226.357	0.63
226.575	0.51
226.793	0.11
227.011	1.04
227.229	0.38
227.447	0.61
227.665	0.37
227.883	0.08
228.1	0.33
228.318	0.41
228.536	0.15
228.754	0.15
228.972	0.46
229.189	0.38
229.407	0.22
229.625	0.24
229.843	0.53
230.06	0.43
230.278	0.33
230.496	0.37
230.713	0.39
230.931	0.52
231.149	0.14
231.366	0.03
231.584	0.32
231.801	0.57
232.019	0.31
232.236	0.11
232.454	0.25
232.671	0.29
232.889	0.28
233.106	0.07
233.324	0.28
233.541	0.28
233.759	0.26
233.976	0.15
234.194	0.3
234.411	0.26
234.628	0.31
234.846	0.18
235.063	0.38
235.28	0.27
235.498	0.26
235.715	0.17
235.932	0.48
236.149	0.34
236.367	0.2
236.584	0.34
236.801	0.15
237.018	0.43
237.236	0.19
237.453	0.09
237.67	0.43
237.887	0.2
238.104	0.17
238.321	0.19
238.538	0.12
238.755	0.46
238.973	-0
239.19	0.23
239.407	0.31
239.624	0.37
239.841	0.14
240.058	0.12
240.275	0.25
240.492	0.23
240.709	0.26
240.925	0.16
241.142	0.22
241.359	0.05
241.576	0.16
241.793	0.15
242.01	0.28
242.227	0.37
242.444	0.24
242.66	0.41
242.877	0.26
243.094	0.17
243.311	0.35
243.527	0.19
243.744	0.22
243.961	0.29
244.178	0.06
244.394	0.28
244.611	0.34
244.828	0.44
245.044	0.06
245.261	0.13
245.477	0.26
245.694	0.27
245.911	0.13
246.127	0.25
246.344	0.44
246.56	0.27
246.777	0.21
246.993	0.22
247.21	0.26
247.426	0.26
247.643	0.17
247.859	0.16
248.076	0.2
248.292	0.47
248.508	0.17
248.725	0.26
248.941	0.3
249.157	0.26
249.374	0.19
249.59	0.21
249.806	0.2
250.023	0.37
250.239	0.16
250.455	0.18
250.671	0.2
250.888	0.24
251.104	0.29
251.32	0.23
251.536	0.12
251.752	0.19
251.969	0.22
252.185	0.23
252.401	0.43
252.617	0.33
252.833	0.2
253.049	0.23
253.265	0.29
253.481	0.26
253.697	0.18
253.913	0.17
254.129	0.23
254.345	0.2
254.561	0.18
254.777	0.2
254.993	0.26
255.209	0.25
255.425	0.17
255.641	0.06
255.857	0.33
256.073	0.25
256.288	0.13
256.504	0.11
256.72	0.26
256.936	0.35
257.152	0.18
257.367	0.09
257.583	0.2
257.799	0.25
258.015	0.17
258.23	0.15
258.446	0.38
258.662	0.23
258.877	0.17
259.093	0.13
259.309	0.21
259.524	0.25
259.74	0.15
259.955	0.08
260.171	0.17
260.387	0.24
260.602	0.3
260.818	0.26
261.033	0.18
261.249	0.16
261.464	0.15
261.68	0.09
261.895	0.2
262.11	0.23
262.326	0.11
262.541	0.1
262.757	0.23
262.972	0.23
263.187	0.16
263.403	0.17
263.618	0.23
263.833	0.17
264.049	0.09
264.264	0.21
264.479	0.18
264.694	0.33
264.91	0.1
265.125	0.18
265.34	0.24
265.555	0.4
265.77	0.21
265.986	0.1
266.201	0.26
266.416	0.29
266.631	0.13
266.846	0.18
267.061	0.24
267.276	0.22
267.491	0.01
267.706	0.26
267.921	0.21
268.136	0.23
268.351	0.13
268.566	0.08
268.781	0.24
268.996	0.25
269.211	0.21
269.426	0.11
269.641	0.15
269.856	0.19
270.071	0.15
270.285	0.07
270.5	0.17
270.715	0.26
270.93	0.15
271.145	0.3
271.359	0.27
271.574	0.17
271.789	0.21
272.004	0.07
272.218	0.15
272.433	0.27
272.648	0.06
272.862	0.26
273.077	0.13
273.292	0.25
273.506	0.05
273.721	0.15
273.936	0.23
274.15	0.22
274.365	0.12
274.579	0.19
274.794	0.2
275.008	0.26
275.223	0.08
275.437	0.17
275.652	0.26
275.866	0.22
276.081	0.13
276.295	0.27
276.509	0.17
276.724	0.21
276.938	0.18
277.153	0.18
277.367	0.23
277.581	0.11
277.796	0.19
278.01	0.07
278.224	0.19
278.438	0.29
278.653	0.13
278.867	0.16
279.081	0.18
279.295	0.14
279.51	0.15
279.724	0.08
279.938	0.22
280.152	0.16
280.366	0.13
280.58	0.12
280.794	0.28
281.008	0.19
281.222	0.22
281.437	0.24
281.651	0.18
281.865	0.24
282.079	0.13
282.293	0.06
282.507	0.07
282.721	0.21
282.935	0.12
283.148	0.11
283.362	0.15
283.576	0.11
283.79	0.21
284.004	0.12
284.218	0.24
284.432	0.12
284.646	0.13
284.859	0.04
285.073	0.15
285.287	0.16
285.501	0.18
285.714	0.08
285.928	0.15
286.142	0.13
286.356	0.16
286.569	0.15
286.783	0.23
286.997	0.26
287.21	0.2
287.424	0.14
287.637	0.18
287.851	0.11
288.065	0.17
288.278	0.16
288.492	0.14
288.705	0.14
288.919	0.19
289.132	0.07
289.346	0.24
289.559	0.03
289.773	0.1
289.986	0.17
290.2	0.14
290.413	0.19
290.626	0.08
290.84	0.11
291.053	0.17
291.267	0.19
291.48	0.12
291.693	0.15
291.906	0.06
292.12	0.18
292.333	0.09
292.546	0.15
292.76	0.2
292.973	0.16
293.186	0.17
293.399	0.1
293.612	0.22
293.826	0.1
294.039	0.14
294.252	0.11
294.465	0.23
294.678	0.18
294.891	0.14
295.104	0.05
295.317	0.12
295.53	0.18
295.743	0.13
295.956	0.12
296.169	0.25
296.382	0.21
296.595	0.09
296.808	0.07
297.021	0.24
297.234	0.17
297.447	0.18
297.66	0.14
297.873	0.17
298.086	0.2
298.299	0.08
298.511	0.09
298.724	0.14
298.937	0.11
299.15	0.1
299.363	0.14
299.575	0.17
299.788	0.19
300.001	0.12
300.213	0.13
300.426	0.12
300.639	0.12
300.852	0.11
301.064	0.18
301.277	0.22
301.489	0.17
301.702	0.16
301.915	0.15
302.127	0.12
302.34	0.16
302.552	0.18
302.765	0.07
302.977	0.18
303.19	0.11
303.402	0.13
303.615	0.12
303.827	0.14
304.04	0.13
304.252	0.17
304.464	0.1
304.677	0.23
304.889	0.2
305.102	0.09
305.314	0.1
305.526	0.17
305.739	0.21
305.951	0.11
306.163	0.11
306.375	0.24
306.588	0.12
306.8	0.08
307.012	0.07
307.224	0.16
307.436	0.19
307.649	0.08
307.861	0.12
308.073	0.18
308.285	0.1
308.497	0.11
308.709	0.08
308.921	0.13
309.133	0.19
309.346	0.14
309.558	0.1
309.77	0.17
309.982	0.18
310.194	0.15
310.406	0.1
310.617	0.19
310.829	0.15
311.041	0.18
311.253	0.14
311.465	0.12
311.677	0.15
311.889	0.18
312.101	0.08
312.313	0.2
312.524	0.15
312.736	0.08
312.948	0.12
313.16	0.19
313.372	0.17
313.583	0.15
313.795	0.1
314.007	0.1
314.218	0.21
314.43	0.12
314.642	0.08
314.853	0.04
315.065	0.14
315.277	0.11
315.488	0.14
315.7	0.21
315.912	0.18
316.123	0.12
316.335	0.14
316.546	0.28
316.758	0.14
316.969	0.1
317.181	0.18
317.392	0.13
317.604	0.2
317.815	0.06
318.026	0.09
318.238	0.14
318.449	0.17
318.661	0.09
318.872	0.08
319.083	0.06
319.295	0.18
319.506	0.11
319.717	0.13
319.929	0.17
320.14	0.13
320.351	0.13
320.562	0.09
320.774	0.15
320.985	0.19
321.196	0.1
321.407	0.06
321.618	0.18
321.829	0.16
322.041	0.18
322.252	0.14
322.463	0.17
322.674	0.19
322.885	0.11
323.096	0.04
323.307	0.17
323.518	0.18
323.729	0.12
323.94	0.1
324.151	0.11
324.362	0.17
324.573	0.15
324.784	0.09
324.995	0.22
325.206	0.18
325.417	0.12
325.628	0.12
325.838	0.12
326.049	0.14
326.26	0.19
326.471	0.12
326.682	0.15
326.892	0.17
327.103	0.09
327.314	0.06
327.525	0.19
327.735	0.17
327.946	0.13
328.157	0.11
328.368	0.19
328.578	0.13
328.789	0.15
328.999	0.16
329.21	0.11
329.421	0.21
329.631	0.06
329.842	0.11
330.052	0.15
330.263	0.18
330.473	0.18
330.684	0.12
330.894	0.14
331.105	0.18
331.315	0.13
331.526	0.1
331.736	0.23
331.947	0.1
332.157	0.13
332.367	0.08
332.578	0.16
332.788	0.2
332.999	0.17
333.209	0.12
333.419	0.05
333.629	0.17
333.84	0.13
334.05	0.08
334.26	0.17
334.47	0.18
334.681	0.18
334.891	0.1
335.101	0.14
335.311	0.2
335.521	0.1
335.732	0.06
335.942	0.19
336.152	0.15
336.362	0.11
336.572	0.16
336.782	0.18
336.992	0.15
337.202	0.16
337.412	0.12
337.622	0.15
337.832	0.15
338.042	0.15
338.252	0.1
338.462	0.12
338.672	0.14
338.882	0.08
339.092	0.1
339.302	0.2
339.511	0.15
339.721	0.15
339.931	0.07
340.141	0.21
340.351	0.21
340.561	0.16
340.77	0.12
340.98	0.14
341.19	0.17
341.4	0.06
341.609	0.11
341.819	0.14
342.029	0.04
342.238	0.16
342.448	0.1
342.658	0.16
342.867	0.12
343.077	0.15
343.286	0.12
343.496	0.15
343.706	0.23
343.915	0.12
344.125	0.12
344.334	0.15
344.544	0.03
344.753	0.12
344.963	0.1
345.172	0.08
345.381	0.11
345.591	0.08
345.8	0.14
346.01	0.21
346.219	0.18
346.428	0.01
346.638	0.14
346.847	0.14
347.056	0.22
347.266	0.09
347.475	0.11
347.684	0.22
347.893	0.21
348.103	0.17
348.312	0.11
348.521	0.12
348.73	0.13
348.94	0.17
349.149	0.12
349.358	0.06
349.567	0.1
349.776	0.08
349.985	0.1
350.194	0.18
350.403	0.21
350.612	0.07
350.821	0.09
351.03	0.16
351.239	0.1
351.448	0.15
351.657	0.05
351.866	0.23
352.075	0.14
352.284	0.16
352.493	0.06
352.702	0.21
352.911	0.17
353.12	0.14
353.329	0.09
353.538	0.13
353.746	0.13
353.955	0.12
354.164	0.15
354.373	0.14
354.582	0.19
354.79	0.13
354.999	0.15
355.208	0.13
355.416	0.21
355.625	0.08
355.834	0.11
356.042	0.15
356.251	0.11
356.46	0.08
356.668	0.15
356.877	0.18
357.085	0.18
357.294	0.05
357.503	0.18
357.711	0.13
357.92	0.24
358.128	0.13
358.337	0.08
358.545	0.12
358.754	0.07
358.962	0.14
359.17	0.13
359.379	0.16
359.587	0.18
359.796	0.13
360.004	0.18
360.212	0.2
360.421	0.18
360.629	0.14
360.837	0.14
361.046	0.17
361.254	0.24
361.462	0.13
361.67	0.13
361.879	0.17
362.087	0.18
362.295	0.16
362.503	0.12
362.711	0.07
362.92	0.11
363.128	0.13
363.336	0.13
363.544	0.11
363.752	0.16
363.96	0.11
364.168	0.09
364.376	0.13
364.584	0.18
364.792	0.15
365	0.18
365.208	0.13
365.416	0.16
365.624	0.18
365.832	0.11
366.04	0.19
366.248	0.13
366.456	0.12
366.664	0.14
366.872	0.13
367.079	0.12
367.287	0.18
367.495	0.14
367.703	0.11
367.911	0.13
368.118	0.15
368.326	0.09
368.534	0.1
368.742	0.21
368.949	0.1
369.157	0.09
369.365	0.18
369.572	0.1
369.78	0.09
369.988	0.19
370.195	0.13
370.403	0.15
370.61	0.11
370.818	0.13
371.026	0.17
371.233	0.15
371.441	0.14
371.648	0.12
371.856	0.14
372.063	0.16
372.271	0.12
372.478	0.13
372.685	0.1
372.893	0.15
373.1	0.14
373.308	0.12
373.515	0.24
373.722	0.15
373.93	0.14
374.137	0.15
374.344	0.2
374.552	0.12
374.759	0.16
374.966	0.15
375.173	0.11
375.381	0.23
375.588	0.14
375.795	0.07
376.002	0.12
376.209	0.07
376.417	0.1
376.624	0.14
376.831	0.14
377.038	0.13
377.245	0.03
377.452	0.15
377.659	0.13
377.866	0.09
378.073	0.11
378.28	0.16
378.487	0.18
378.694	0.17
378.901	0.11
379.108	0.11
379.315	0.16
379.522	0.24
379.729	0.15
379.936	0.1
380.143	0.17
380.35	0.14
380.557	0.12
380.763	0.16
380.97	0.15
381.177	0.17
381.384	0.14
381.591	0.15
381.797	0.16
382.004	0.15
382.211	0.17
382.418	0.06
382.624	0.21
382.831	0.18
383.038	0.08
383.244	0.14
383.451	0.1
383.658	0.16
383.864	0.15
384.071	0.11
384.277	0.25
384.484	0.16
384.69	0.17
384.897	0.15
385.103	0.12
385.31	0.07
385.516	0.1
385.723	0.11
385.929	0.14
386.136	0.11
386.342	0.13
386.549	0.11
386.755	0.21
386.961	0.15
387.168	0.09
387.374	0.16
387.58	0.19
387.787	0.13
387.993	0.18
388.199	0.14
388.406	0.11
388.612	0.13
388.818	0.13
389.024	0.09
389.231	0.16
389.437	0.22
389.643	0.18
389.849	0.17
390.055	0.18
390.261	0.18
390.467	0.16
390.674	0.09
390.88	0.13
391.086	0.18
391.292	0.08
391.498	0.17
391.704	0.2
391.91	0.16
392.116	0.13
392.322	0.09
392.528	0.19
392.734	0.15
392.94	0.18
393.146	0.17
393.352	0.18
393.557	0.13
393.763	0.15
393.969	0.19
394.175	0.15
394.381	0.18
394.587	0.14
394.792	0.14
394.998	0.2
395.204	0.21
395.41	0.12
395.615	0.16
395.821	0.22
396.027	0.17
396.233	0.16
396.438	0.22
396.644	0.21
396.85	0.2
397.055	0.16
397.261	0.16
397.466	0.16
397.672	0.2
397.878	0.22
398.083	0.19
398.289	0.13
398.494	0.19
398.7	0.2
398.905	0.11
399.111	0.26
399.316	0.12
399.522	0.15
399.727	0.19
399.932	0.17
400.138	0.13
400.343	0.19
400.549	0.19
400.754	0.22
400.959	0.22
401.165	0.15
401.37	0.2
401.575	0.21
401.78	0.18
401.986	0.19
402.191	0.16
402.396	0.2
402.601	0.25
402.807	0.2
403.012	0.21
403.217	0.26
403.422	0.25
403.627	0.18
403.832	0.19
404.037	0.27
404.243	0.27
404.448	0.19
404.653	0.26
404.858	0.23
405.063	0.28
405.268	0.17
405.473	0.15
405.678	0.21
405.883	0.39
406.088	0.24
406.293	0.15
406.498	0.21
406.703	0.27
406.907	0.23
407.112	0.2
407.317	0.27
407.522	0.32
407.727	0.2
407.932	0.26
408.136	0.38
408.341	0.25
408.546	0.31
408.751	0.31
408.956	0.27
409.16	0.32
409.365	0.29
409.57	0.3
409.774	0.33
409.979	0.35
410.184	0.34
410.388	0.32
410.593	0.39
410.798	0.33
411.002	0.37
411.207	0.39
411.411	0.4
411.616	0.36
411.82	0.37
412.025	0.45
412.229	0.44
412.434	0.44
412.638	0.46
412.843	0.42
413.047	0.45
413.252	0.43
413.456	0.49
413.66	0.51
413.865	0.48
414.069	0.65
414.273	0.51
414.478	0.51
414.682	0.53
414.886	0.6
415.091	0.48
415.295	0.59
415.499	0.66
415.703	0.64
415.908	0.71
416.112	0.61
416.316	0.77
416.52	0.72
416.724	0.73
416.929	0.8
417.133	0.96
417.337	0.88
417.541	0.83
417.745	0.82
417.949	0.89
418.153	1.01
418.357	0.9
418.561	1.13
418.765	1.02
418.969	1.22
419.173	1.18
419.377	1.11
419.581	1.25
419.785	1.22
419.989	1.24
420.193	1.3
420.397	1.32
420.601	1.47
420.804	1.53
421.008	1.49
421.212	1.56
421.416	1.65
421.62	1.52
421.823	1.6
422.027	1.72
422.231	1.7
422.435	1.7
422.638	1.79
422.842	1.76
423.046	1.79
423.249	1.95
423.453	1.94
423.657	1.98
423.86	2.06
424.064	2.13
424.268	2.23
424.471	2.15
424.675	2.39
424.878	2.32
425.082	2.33
425.285	2.59
425.489	2.48
425.692	2.54
425.896	2.51
426.099	2.63
426.303	2.71
426.506	2.81
426.71	2.9
426.913	3.08
427.116	3.13
427.32	3.11
427.523	3.13
427.726	3.33
427.93	3.26
428.133	3.52
428.336	3.53
428.54	3.66
428.743	3.8
428.946	3.87
429.149	3.84
429.353	3.85
429.556	3.9
429.759	3.93
429.962	3.85
430.165	4.16
430.368	3.88
430.571	3.94
430.775	3.92
430.978	3.94
431.181	3.98
431.384	4.03
431.587	4.04
431.79	4.25
431.993	4.15
432.196	4.32
432.399	4.54
432.602	4.67
432.805	4.62
433.008	4.9
433.211	4.82
433.414	5.06
433.616	5.09
433.819	5.01
434.022	5.04
434.225	5.26
434.428	5.18
434.631	5.49
434.833	5.36
435.036	5.48
435.239	5.55
435.442	5.66
435.645	5.67
435.847	5.72
436.05	5.91
436.253	6.06
436.455	6.03
436.658	6.03
436.861	6.21
437.063	6.2
437.266	6.13
437.468	6.34
437.671	6.6
437.874	6.62
438.076	6.46
438.279	6.78
438.481	6.79
438.684	7.13
438.886	6.94
439.089	7.16
439.291	7.14
439.494	7.39
439.696	7.44
439.899	7.77
440.101	7.97
440.303	8.02
440.506	8.41
440.708	8.35
440.91	8.51
441.113	8.64
441.315	8.76
441.517	8.69
441.72	9
441.922	8.75
442.124	8.68
442.326	9.03
442.529	9.2
442.731	9.28
442.933	9.38
443.135	9.27
443.337	9.2
443.539	9.53
443.742	9.32
443.944	9.69
444.146	9.55
444.348	9.69
444.55	9.56
444.752	9.65
444.954	9.64
445.156	9.82
445.358	9.96
445.56	10.14
445.762	10.1
445.964	10.2
446.166	10.2
446.368	10.12
446.57	10.19
446.772	9.97
446.974	9.78
447.175	10.04
447.377	9.88
447.579	10.12
447.781	9.99
447.983	10.03
448.184	9.64
448.386	9.92
448.588	9.63
448.79	9.66
448.991	9.68
449.193	9.76
449.395	9.41
449.597	9.13
449.798	9.21
450	8.94
450.202	8.97
450.403	8.92
450.605	8.79
450.806	8.65
451.008	8.51
451.21	8.44
451.411	8.17
451.613	7.74
451.814	7.93
452.016	7.89
452.217	7.42
452.419	7.51
452.62	7.26
452.821	7.17
453.023	7.13
453.224	6.98
453.426	6.59
453.627	6.21
453.828	6.31
454.03	6.35
454.231	6.25
454.432	6.13
454.634	6.16
454.835	5.81
455.036	5.78
455.238	5.72
455.439	5.48
455.64	5.26
455.841	5.14
456.042	5.25
456.244	5.12
456.445	4.83
456.646	4.68
456.847	4.66
457.048	4.59
457.249	4.65
457.45	4.67
457.651	4.28
457.852	4.13
458.054	3.91
458.255	3.93
458.456	4.11
458.657	3.88
458.858	3.66
459.058	3.6
459.259	3.69
459.46	3.54
459.661	3.44
459.862	3.46
460.063	3.34
460.264	3.43
460.465	3.29
460.666	3.36
460.866	3.06
461.067	2.96
461.268	3.06
461.469	2.96
461.67	2.94
461.87	2.85
462.071	2.82
462.272	2.74
462.473	2.81
462.673	2.83
462.874	2.8
463.075	2.75
463.275	2.73
463.476	2.78
463.676	2.82
463.877	2.66
464.078	2.67
464.278	2.68
464.479	2.71
464.679	2.56
464.88	2.57
465.08	2.51
465.281	2.44
465.481	2.37
465.682	2.21
465.882	2.24
466.083	2.24
466.283	2.18
466.483	2.14
466.684	2.01
466.884	1.99
467.085	2
467.285	1.99
467.485	1.95
467.686	1.94
467.886	1.78
468.086	1.85
468.286	1.79
468.487	1.86
468.687	1.69
468.887	1.69
469.087	1.81
469.287	1.71
469.488	1.62
469.688	1.71
469.888	1.77
470.088	1.71
470.288	1.67
470.488	1.63
470.688	1.51
470.888	1.51
471.088	1.37
471.288	1.49
471.488	1.49
471.688	1.47
471.888	1.42
472.088	1.52
472.288	1.45
472.488	1.37
472.688	1.36
472.888	1.39
473.088	1.39
473.288	1.31
473.488	1.24
473.688	1.42
473.887	1.31
474.087	1.27
474.287	1.3
474.487	1.24
474.687	1.25
474.886	1.22
475.086	1.21
475.286	1.19
475.486	1.16
475.685	1.15
475.885	1.16
476.085	1.17
476.284	1.17
476.484	1.15
476.684	1.18
476.883	1.24
477.083	1.12
477.282	1.07
477.482	1.12
477.681	1.14
477.881	1.12
478.08	1.07
478.28	1.03
478.479	1.13
478.679	1.16
478.878	1.08
479.078	1.05
479.277	1.11
479.477	1.06
479.676	1.1
479.875	1.05
480.075	1.03
480.274	1.07
480.473	1.11
480.673	1.01
480.872	1.11
481.071	1.09
481.271	1.1
481.47	1.04
481.669	1.05
481.868	1.02
482.067	1.03
482.267	1
482.466	1.02
482.665	0.99
482.864	0.99
483.063	1.01
483.262	1.06
483.461	1.09
483.661	1.1
483.86	1.02
484.059	1.1
484.258	1.06
484.457	1.03
484.656	1.07
484.855	1.13
485.054	0.98
485.253	1.02
485.452	1
485.651	1.11
485.849	1.05
486.048	1.04
486.247	1.03
486.446	1.11
486.645	1.05
486.844	1.1
487.043	1.04
487.241	1.1
487.44	1.06
487.639	1.09
487.838	1.11
488.037	1.11
488.235	1.19
488.434	1.12
488.633	1.05
488.831	1.19
489.03	1.16
489.229	1.16
489.427	1.18
489.626	1.21
489.825	1.2
490.023	1.2
490.222	1.19
490.42	1.25
490.619	1.22
490.817	1.24
491.016	1.25
491.214	1.29
491.413	1.28
491.611	1.25
491.81	1.25
492.008	1.33
492.207	1.35
492.405	1.32
492.604	1.3
492.802	1.37
493	1.39
493.199	1.41
493.397	1.41
493.595	1.46
493.794	1.4
493.992	1.53
494.19	1.48
494.388	1.51
494.587	1.47
494.785	1.47
494.983	1.44
495.181	1.54
495.379	1.57
495.578	1.58
495.776	1.59
495.974	1.58
496.172	1.58
496.37	1.64
496.568	1.63
496.766	1.64
496.964	1.69
497.162	1.74
497.36	1.69
497.558	1.75
497.756	1.78
497.954	1.78
498.152	1.82
498.35	1.86
498.548	1.8
498.746	1.85
498.944	1.78
499.142	1.88
499.34	1.89
499.538	1.99
499.736	1.9
499.933	1.98
500.131	1.98
500.329	2.02
500.527	2.06
500.725	2.08
500.922	2.1
501.12	2.1
501.318	2.16
501.516	2.15
501.713	2.19
501.911	2.16
502.109	2.12
502.306	2.23
502.504	2.19
502.701	2.24
502.899	2.28
503.097	2.43
503.294	2.33
503.492	2.35
503.689	2.42
503.887	2.37
