Data from Apollo_Calib_20240827__AbsoluteIrradiance__780__12-09-02-184.txt Node

Date: Wed Aug 28 12:09:02 BST 2024
User: biology
Spectrometer: FLMT08252
Trigger mode: 0
Integration Time (sec): 5.000000E-1
Scans to average: 5
Electric dark correction enabled: true
Nonlinearity correction enabled: false
Boxcar width: 0
XAxis mode: Wavelengths
Number of Pixels in Spectrum: 3648
>>>>>Begin Spectral Data<<<<<
179.588	-0
179.809	-0
180.03	-0
180.251	-0
180.473	-0
180.694	0
180.915	0
181.136	-0
181.357	0
181.578	0
181.799	-0
182.02	-0
182.241	-0
182.462	-0
182.683	0
182.904	-0
183.125	-0
183.346	0
183.567	0
183.788	0
184.009	0
184.23	0
184.451	0
184.672	0
184.892	0
185.113	0
185.334	0
185.555	0
185.776	0
185.996	0
186.217	0
186.438	0
186.659	0
186.879	0
187.1	0
187.321	0
187.541	0
187.762	0
187.983	0
188.203	0
188.424	0
188.644	0
188.865	0
189.086	0
189.306	0
189.527	0
189.747	0
189.968	0
190.188	0
190.409	0
190.629	0
190.849	0
191.07	0
191.29	0
191.511	0
191.731	0
191.951	0
192.172	0
192.392	0
192.612	0
192.833	0
193.053	0
193.273	0
193.493	0
193.714	0
193.934	0
194.154	0
194.374	0
194.594	0
194.815	0
195.035	0
195.255	0
195.475	0
195.695	0
195.915	0
196.135	0
196.355	0
196.575	0
196.795	0
197.015	0
197.235	0
197.455	0
197.675	0
197.895	0
198.115	0
198.335	0
198.555	0
198.775	0
198.995	0
199.214	0
199.434	0
199.654	0
199.874	0
200.094	3.81
200.313	2.47
200.533	2.03
200.753	1.59
200.973	3.68
201.192	2.86
201.412	1.11
201.632	1.52
201.851	3.3
202.071	1.69
202.291	1.59
202.51	1.22
202.73	2.27
202.95	1.67
203.169	0.57
203.389	1.85
203.608	1.89
203.828	1.35
204.047	1.19
204.267	2.45
204.486	1.61
204.706	2.32
204.925	1.83
205.145	1.32
205.364	2.06
205.583	2.24
205.803	1.25
206.022	1.07
206.242	1.91
206.461	1.79
206.68	1.33
206.9	1.8
207.119	2.23
207.338	2.05
207.557	1.3
207.777	0.94
207.996	1.35
208.215	1.66
208.434	1.05
208.654	0.67
208.873	1.45
209.092	1.96
209.311	1.07
209.53	1.2
209.749	1.1
209.968	0.98
210.187	0.91
210.407	0.63
210.626	1.03
210.845	1.82
211.064	1.17
211.283	0.62
211.502	1.66
211.721	0.98
211.94	0.98
212.159	1.22
212.377	1.16
212.596	1.47
212.815	1.08
213.034	1.18
213.253	1.3
213.472	1.18
213.691	0.89
213.91	0.64
214.128	0.88
214.347	1.42
214.566	0.5
214.785	0.39
215.003	1.16
215.222	1.18
215.441	0.72
215.66	0.74
215.878	0.91
216.097	1.21
216.316	0.62
216.534	0.74
216.753	1.01
216.972	0.83
217.19	0.91
217.409	0.55
217.627	0.88
217.846	0.82
218.064	1.02
218.283	0.71
218.501	1.66
218.72	1.18
218.938	0.64
219.157	0.69
219.375	1.05
219.594	0.94
219.812	0.45
220.031	0.53
220.249	1.26
220.467	0.99
220.686	0.64
220.904	0.61
221.122	0.73
221.341	1.06
221.559	0.77
221.777	0.55
221.995	0.74
222.214	0.83
222.432	0.6
222.65	0.76
222.868	0.78
223.086	0.71
223.305	0.92
223.523	0.65
223.741	1.16
223.959	0.5
224.177	0.47
224.395	0.58
224.613	0.8
224.831	0.84
225.049	0.43
225.267	0.52
225.485	0.76
225.703	0.44
225.921	0.48
226.139	0.59
226.357	0.79
226.575	0.75
226.793	0.41
227.011	1.43
227.229	0.66
227.447	0.78
227.665	0.48
227.883	0.43
228.1	0.61
228.318	0.76
228.536	0.24
228.754	0.33
228.972	0.49
229.189	0.64
229.407	0.57
229.625	0.52
229.843	0.82
230.06	0.8
230.278	0.6
230.496	0.65
230.713	0.52
230.931	0.78
231.149	0.4
231.366	0.3
231.584	0.6
231.801	1.01
232.019	0.48
232.236	0.37
232.454	0.44
232.671	0.53
232.889	0.42
233.106	0.39
233.324	0.54
233.541	0.56
233.759	0.49
233.976	0.46
234.194	0.58
234.411	0.52
234.628	0.38
234.846	0.64
235.063	0.47
235.28	0.55
235.498	0.62
235.715	0.32
235.932	0.75
236.149	0.6
236.367	0.36
236.584	0.52
236.801	0.52
237.018	0.55
237.236	0.42
237.453	0.25
237.67	0.57
237.887	0.49
238.104	0.4
238.321	0.3
238.538	0.37
238.755	0.61
238.973	0.33
239.19	0.44
239.407	0.59
239.624	0.52
239.841	0.35
240.058	0.26
240.275	0.56
240.492	0.43
240.709	0.37
240.925	0.35
241.142	0.47
241.359	0.45
241.576	0.35
241.793	0.35
242.01	0.45
242.227	0.61
242.444	0.57
242.66	0.55
242.877	0.55
243.094	0.34
243.311	0.54
243.527	0.41
243.744	0.53
243.961	0.48
244.178	0.31
244.394	0.28
244.611	0.56
244.828	0.7
245.044	0.35
245.261	0.39
245.477	0.44
245.694	0.59
245.911	0.32
246.127	0.37
246.344	0.52
246.56	0.52
246.777	0.33
246.993	0.37
247.21	0.5
247.426	0.45
247.643	0.28
247.859	0.39
248.076	0.32
248.292	0.68
248.508	0.34
248.725	0.4
248.941	0.46
249.157	0.56
249.374	0.31
249.59	0.38
249.806	0.48
250.023	0.57
250.239	0.36
250.455	0.29
250.671	0.41
250.888	0.48
251.104	0.51
251.32	0.25
251.536	0.43
251.752	0.4
251.969	0.43
252.185	0.4
252.401	0.64
252.617	0.46
252.833	0.38
253.049	0.35
253.265	0.4
253.481	0.45
253.697	0.37
253.913	0.29
254.129	0.45
254.345	0.46
254.561	0.32
254.777	0.32
254.993	0.41
255.209	0.4
255.425	0.29
255.641	0.22
255.857	0.43
256.073	0.39
256.288	0.26
256.504	0.3
256.72	0.34
256.936	0.55
257.152	0.33
257.367	0.3
257.583	0.34
257.799	0.4
258.015	0.25
258.23	0.32
258.446	0.63
258.662	0.32
258.877	0.36
259.093	0.27
259.309	0.43
259.524	0.46
259.74	0.34
259.955	0.26
260.171	0.34
260.387	0.4
260.602	0.47
260.818	0.38
261.033	0.29
261.249	0.3
261.464	0.3
261.68	0.23
261.895	0.42
262.11	0.45
262.326	0.31
262.541	0.23
262.757	0.43
262.972	0.44
263.187	0.36
263.403	0.34
263.618	0.53
263.833	0.34
264.049	0.29
264.264	0.3
264.479	0.41
264.694	0.48
264.91	0.19
265.125	0.3
265.34	0.45
265.555	0.57
265.77	0.36
265.986	0.3
266.201	0.4
266.416	0.41
266.631	0.27
266.846	0.27
267.061	0.4
267.276	0.4
267.491	0.17
267.706	0.39
267.921	0.34
268.136	0.36
268.351	0.36
268.566	0.25
268.781	0.5
268.996	0.38
269.211	0.28
269.426	0.22
269.641	0.29
269.856	0.41
270.071	0.17
270.285	0.15
270.5	0.47
270.715	0.46
270.93	0.26
271.145	0.35
271.359	0.46
271.574	0.3
271.789	0.33
272.004	0.24
272.218	0.24
272.433	0.44
272.648	0.27
272.862	0.37
273.077	0.35
273.292	0.32
273.506	0.25
273.721	0.19
273.936	0.37
274.15	0.38
274.365	0.27
274.579	0.33
274.794	0.41
275.008	0.38
275.223	0.23
275.437	0.29
275.652	0.39
275.866	0.37
276.081	0.32
276.295	0.38
276.509	0.29
276.724	0.31
276.938	0.36
277.153	0.33
277.367	0.38
277.581	0.36
277.796	0.26
278.01	0.18
278.224	0.34
278.438	0.42
278.653	0.3
278.867	0.24
279.081	0.14
279.295	0.26
279.51	0.28
279.724	0.18
279.938	0.39
280.152	0.41
280.366	0.27
280.58	0.27
280.794	0.44
281.008	0.39
281.222	0.34
281.437	0.44
281.651	0.36
281.865	0.41
282.079	0.25
282.293	0.18
282.507	0.27
282.721	0.26
282.935	0.32
283.148	0.21
283.362	0.26
283.576	0.25
283.79	0.26
284.004	0.24
284.218	0.42
284.432	0.24
284.646	0.26
284.859	0.29
285.073	0.26
285.287	0.35
285.501	0.26
285.714	0.27
285.928	0.35
286.142	0.3
286.356	0.2
286.569	0.25
286.783	0.4
286.997	0.35
287.21	0.29
287.424	0.29
287.637	0.28
287.851	0.25
288.065	0.35
288.278	0.27
288.492	0.27
288.705	0.28
288.919	0.35
289.132	0.17
289.346	0.31
289.559	0.18
289.773	0.19
289.986	0.31
290.2	0.28
290.413	0.33
290.626	0.22
290.84	0.23
291.053	0.27
291.267	0.36
291.48	0.26
291.693	0.26
291.906	0.26
292.12	0.24
292.333	0.24
292.546	0.24
292.76	0.36
292.973	0.3
293.186	0.28
293.399	0.21
293.612	0.32
293.826	0.28
294.039	0.25
294.252	0.24
294.465	0.32
294.678	0.3
294.891	0.29
295.104	0.17
295.317	0.2
295.53	0.25
295.743	0.29
295.956	0.24
296.169	0.38
296.382	0.34
296.595	0.32
296.808	0.26
297.021	0.3
297.234	0.29
297.447	0.22
297.66	0.29
297.873	0.38
298.086	0.32
298.299	0.2
298.511	0.2
298.724	0.27
298.937	0.17
299.15	0.22
299.363	0.26
299.575	0.3
299.788	0.26
300.001	0.25
300.213	0.23
300.426	0.22
300.639	0.22
300.852	0.18
301.064	0.27
301.277	0.36
301.489	0.31
301.702	0.27
301.915	0.27
302.127	0.21
302.34	0.28
302.552	0.27
302.765	0.21
302.977	0.3
303.19	0.18
303.402	0.23
303.615	0.21
303.827	0.29
304.04	0.25
304.252	0.29
304.464	0.25
304.677	0.4
304.889	0.28
305.102	0.22
305.314	0.2
305.526	0.25
305.739	0.29
305.951	0.19
306.163	0.2
306.375	0.36
306.588	0.21
306.8	0.21
307.012	0.17
307.224	0.25
307.436	0.33
307.649	0.19
307.861	0.23
308.073	0.29
308.285	0.21
308.497	0.19
308.709	0.2
308.921	0.24
309.133	0.28
309.346	0.2
309.558	0.24
309.77	0.3
309.982	0.36
310.194	0.29
310.406	0.2
310.617	0.34
310.829	0.27
311.041	0.3
311.253	0.18
311.465	0.28
311.677	0.26
311.889	0.25
312.101	0.2
312.313	0.32
312.524	0.33
312.736	0.2
312.948	0.24
313.16	0.35
313.372	0.29
313.583	0.26
313.795	0.21
314.007	0.25
314.218	0.27
314.43	0.27
314.642	0.21
314.853	0.16
315.065	0.29
315.277	0.21
315.488	0.28
315.7	0.29
315.912	0.3
316.123	0.25
316.335	0.24
316.546	0.39
316.758	0.25
316.969	0.19
317.181	0.25
317.392	0.25
317.604	0.33
317.815	0.22
318.026	0.24
318.238	0.23
318.449	0.26
318.661	0.2
318.872	0.18
319.083	0.22
319.295	0.29
319.506	0.24
319.717	0.24
319.929	0.28
320.14	0.31
320.351	0.22
320.562	0.2
320.774	0.29
320.985	0.28
321.196	0.21
321.407	0.15
321.618	0.31
321.829	0.25
322.041	0.3
322.252	0.23
322.463	0.25
322.674	0.31
322.885	0.19
323.096	0.25
323.307	0.27
323.518	0.29
323.729	0.2
323.94	0.22
324.151	0.27
324.362	0.26
324.573	0.25
324.784	0.25
324.995	0.32
325.206	0.27
325.417	0.25
325.628	0.21
325.838	0.3
326.049	0.26
326.26	0.28
326.471	0.21
326.682	0.28
326.892	0.27
327.103	0.2
327.314	0.23
327.525	0.28
327.735	0.27
327.946	0.24
328.157	0.18
328.368	0.31
328.578	0.25
328.789	0.28
328.999	0.27
329.21	0.22
329.421	0.31
329.631	0.23
329.842	0.18
330.052	0.25
330.263	0.31
330.473	0.24
330.684	0.22
330.894	0.24
331.105	0.3
331.315	0.23
331.526	0.18
331.736	0.34
331.947	0.29
332.157	0.28
332.367	0.14
332.578	0.27
332.788	0.28
332.999	0.28
333.209	0.23
333.419	0.19
333.629	0.32
333.84	0.28
334.05	0.27
334.26	0.35
334.47	0.24
334.681	0.31
334.891	0.23
335.101	0.29
335.311	0.35
335.521	0.27
335.732	0.23
335.942	0.29
336.152	0.25
336.362	0.22
336.572	0.25
336.782	0.31
336.992	0.2
337.202	0.22
337.412	0.22
337.622	0.28
337.832	0.25
338.042	0.25
338.252	0.19
338.462	0.24
338.672	0.26
338.882	0.21
339.092	0.19
339.302	0.35
339.511	0.29
339.721	0.22
339.931	0.15
340.141	0.3
340.351	0.35
340.561	0.25
340.77	0.25
340.98	0.24
341.19	0.28
341.4	0.22
341.609	0.19
341.819	0.2
342.029	0.19
342.238	0.26
342.448	0.22
342.658	0.31
342.867	0.26
343.077	0.23
343.286	0.23
343.496	0.27
343.706	0.31
343.915	0.23
344.125	0.22
344.334	0.28
344.544	0.2
344.753	0.21
344.963	0.21
345.172	0.22
345.381	0.2
345.591	0.22
345.8	0.26
346.01	0.28
346.219	0.3
346.428	0.13
346.638	0.22
346.847	0.2
347.056	0.31
347.266	0.22
347.475	0.25
347.684	0.28
347.893	0.29
348.103	0.28
348.312	0.23
348.521	0.24
348.73	0.31
348.94	0.24
349.149	0.25
349.358	0.23
349.567	0.25
349.776	0.18
349.985	0.19
350.194	0.28
350.403	0.31
350.612	0.17
350.821	0.2
351.03	0.24
351.239	0.14
351.448	0.23
351.657	0.22
351.866	0.33
352.075	0.25
352.284	0.22
352.493	0.2
352.702	0.3
352.911	0.23
353.12	0.22
353.329	0.22
353.538	0.26
353.746	0.27
353.955	0.18
354.164	0.28
354.373	0.22
354.582	0.3
354.79	0.2
354.999	0.3
355.208	0.22
355.416	0.31
355.625	0.15
355.834	0.25
356.042	0.22
356.251	0.22
356.46	0.18
356.668	0.22
356.877	0.33
357.085	0.25
357.294	0.15
357.503	0.25
357.711	0.23
357.92	0.44
358.128	0.24
358.337	0.21
358.545	0.26
358.754	0.2
358.962	0.28
359.17	0.22
359.379	0.28
359.587	0.28
359.796	0.21
360.004	0.3
360.212	0.3
360.421	0.3
360.629	0.24
360.837	0.21
361.046	0.3
361.254	0.4
361.462	0.2
361.67	0.21
361.879	0.27
362.087	0.36
362.295	0.27
362.503	0.21
362.711	0.18
362.92	0.2
363.128	0.19
363.336	0.16
363.544	0.18
363.752	0.22
363.96	0.24
364.168	0.24
364.376	0.28
364.584	0.23
364.792	0.29
365	0.26
365.208	0.22
365.416	0.28
365.624	0.28
365.832	0.24
366.04	0.32
366.248	0.25
366.456	0.24
366.664	0.24
366.872	0.22
367.079	0.22
367.287	0.22
367.495	0.24
367.703	0.21
367.911	0.21
368.118	0.25
368.326	0.25
368.534	0.21
368.742	0.34
368.949	0.19
369.157	0.22
369.365	0.25
369.572	0.22
369.78	0.21
369.988	0.28
370.195	0.25
370.403	0.31
370.61	0.19
370.818	0.25
371.026	0.35
371.233	0.23
371.441	0.25
371.648	0.24
371.856	0.28
372.063	0.26
372.271	0.26
372.478	0.2
372.685	0.25
372.893	0.32
373.1	0.23
373.308	0.21
373.515	0.35
373.722	0.3
373.93	0.22
374.137	0.31
374.344	0.35
374.552	0.32
374.759	0.28
374.966	0.25
375.173	0.22
375.381	0.3
375.588	0.25
375.795	0.19
376.002	0.25
376.209	0.23
376.417	0.22
376.624	0.28
376.831	0.3
377.038	0.21
377.245	0.18
377.452	0.24
377.659	0.26
377.866	0.21
378.073	0.24
378.28	0.2
378.487	0.36
378.694	0.29
378.901	0.26
379.108	0.22
379.315	0.32
379.522	0.38
379.729	0.27
379.936	0.24
380.143	0.26
380.35	0.25
380.557	0.25
380.763	0.27
380.97	0.27
381.177	0.27
381.384	0.26
381.591	0.22
381.797	0.32
382.004	0.3
382.211	0.31
382.418	0.22
382.624	0.27
382.831	0.33
383.038	0.26
383.244	0.31
383.451	0.26
383.658	0.32
383.864	0.23
384.071	0.21
384.277	0.33
384.484	0.23
384.69	0.34
384.897	0.26
385.103	0.27
385.31	0.22
385.516	0.27
385.723	0.25
385.929	0.29
386.136	0.26
386.342	0.27
386.549	0.25
386.755	0.35
386.961	0.32
387.168	0.26
387.374	0.25
387.58	0.31
387.787	0.25
387.993	0.32
388.199	0.28
388.406	0.24
388.612	0.26
388.818	0.27
389.024	0.23
389.231	0.32
389.437	0.41
389.643	0.33
389.849	0.27
390.055	0.29
390.261	0.28
390.467	0.32
390.674	0.26
390.88	0.27
391.086	0.35
391.292	0.21
391.498	0.32
391.704	0.32
391.91	0.31
392.116	0.27
392.322	0.18
392.528	0.38
392.734	0.28
392.94	0.29
393.146	0.26
393.352	0.33
393.557	0.28
393.763	0.28
393.969	0.31
394.175	0.31
394.381	0.34
394.587	0.27
394.792	0.3
394.998	0.4
395.204	0.32
395.41	0.3
395.615	0.31
395.821	0.36
396.027	0.36
396.233	0.27
396.438	0.37
396.644	0.36
396.85	0.35
397.055	0.3
397.261	0.34
397.466	0.45
397.672	0.35
397.878	0.4
398.083	0.31
398.289	0.29
398.494	0.39
398.7	0.39
398.905	0.3
399.111	0.43
399.316	0.31
399.522	0.37
399.727	0.33
399.932	0.33
400.138	0.32
400.343	0.32
400.549	0.34
400.754	0.36
400.959	0.36
401.165	0.37
401.37	0.38
401.575	0.5
401.78	0.42
401.986	0.31
402.191	0.4
402.396	0.37
402.601	0.43
402.807	0.42
403.012	0.41
403.217	0.46
403.422	0.39
403.627	0.41
403.832	0.35
404.037	0.42
404.243	0.45
404.448	0.38
404.653	0.44
404.858	0.46
405.063	0.5
405.268	0.39
405.473	0.36
405.678	0.42
405.883	0.65
406.088	0.53
406.293	0.4
406.498	0.42
406.703	0.54
406.907	0.49
407.112	0.39
407.317	0.55
407.522	0.6
407.727	0.5
407.932	0.58
408.136	0.7
408.341	0.54
408.546	0.58
408.751	0.61
408.956	0.61
409.16	0.65
409.365	0.6
409.57	0.63
409.774	0.65
409.979	0.73
410.184	0.67
410.388	0.63
410.593	0.76
410.798	0.75
411.002	0.72
411.207	0.77
411.411	0.82
411.616	0.78
411.82	0.84
412.025	0.86
412.229	0.85
412.434	1
412.638	0.89
412.843	0.9
413.047	0.95
413.252	0.96
413.456	1.04
413.66	1.07
413.865	1.03
414.069	1.18
414.273	1.08
414.478	1.18
414.682	1.14
414.886	1.19
415.091	1.19
415.295	1.27
415.499	1.45
415.703	1.4
415.908	1.46
416.112	1.35
416.316	1.59
416.52	1.62
416.724	1.54
416.929	1.59
417.133	1.93
417.337	1.73
417.541	1.8
417.745	1.9
417.949	2.01
418.153	2.06
418.357	2.05
418.561	2.23
418.765	2.27
418.969	2.43
419.173	2.42
419.377	2.45
419.581	2.71
419.785	2.6
419.989	2.73
420.193	2.88
420.397	2.92
420.601	3.13
420.804	3.2
421.008	3.14
421.212	3.31
421.416	3.34
421.62	3.35
421.823	3.45
422.027	3.58
422.231	3.57
422.435	3.56
422.638	3.6
422.842	3.78
423.046	3.86
423.249	4.01
423.453	4.02
423.657	4.2
423.86	4.27
424.064	4.37
424.268	4.58
424.471	4.58
424.675	4.83
424.878	4.86
425.082	4.92
425.285	5.28
425.489	5.17
425.692	5.3
425.896	5.35
426.099	5.59
426.303	5.67
426.506	5.85
426.71	6.07
426.913	6.28
427.116	6.41
427.32	6.46
427.523	6.52
427.726	6.87
427.93	6.89
428.133	7.22
428.336	7.33
428.54	7.49
428.743	7.85
428.946	8.07
429.149	8.06
429.353	8.04
429.556	8.16
429.759	8.17
429.962	8.31
430.165	8.37
430.368	8.15
430.571	8.19
430.775	8.2
430.978	8.18
431.181	8.28
431.384	8.41
431.587	8.49
431.79	8.89
431.993	8.76
432.196	9.11
432.399	9.3
432.602	9.61
432.805	9.72
433.008	10.17
433.211	9.96
433.414	10.34
433.616	10.43
433.819	10.4
434.022	10.55
434.225	10.7
434.428	10.77
434.631	11.16
434.833	10.94
435.036	11.23
435.239	11.44
435.442	11.39
435.645	11.57
435.847	11.64
436.05	12.02
436.253	12.15
436.455	12.24
436.658	12.15
436.861	12.5
437.063	12.64
437.266	12.47
437.468	12.91
437.671	13.22
437.874	13.37
438.076	13.15
438.279	13.59
438.481	13.55
438.684	14.28
438.886	13.93
439.089	14.36
439.291	14.29
439.494	14.64
439.696	14.76
439.899	15.24
440.101	15.81
440.303	15.93
440.506	16.73
440.708	16.4
440.91	16.72
441.113	16.89
441.315	17.12
441.517	16.81
441.72	17.33
441.922	17.09
442.124	16.89
442.326	17.28
442.529	17.58
442.731	17.5
442.933	17.84
443.135	17.71
443.337	17.63
443.539	18.07
443.742	17.65
443.944	18.48
444.146	18.14
444.348	18.28
444.55	18.02
444.752	18.37
444.954	18.29
445.156	18.07
445.358	18.47
445.56	18.75
445.762	18.47
445.964	18.94
446.166	18.62
446.368	18.71
446.57	18.58
446.772	18.24
446.974	18.01
447.175	18.23
447.377	17.94
447.579	18.34
447.781	18.22
447.983	17.76
448.184	17.39
448.386	17.79
448.588	17.15
448.79	17.1
448.991	17.44
449.193	17.65
449.395	16.76
449.597	16.4
449.798	16.35
450	15.86
450.202	15.8
450.403	15.79
450.605	15.68
450.806	15.2
451.008	15.04
451.21	14.95
451.411	14.53
451.613	13.62
451.814	13.89
452.016	13.91
452.217	13.18
452.419	13.26
452.62	12.82
452.821	12.71
453.023	12.5
453.224	12.06
453.426	11.74
453.627	10.95
453.828	11.13
454.03	11.22
454.231	11.18
454.432	10.93
454.634	10.58
454.835	10.44
455.036	10.2
455.238	9.87
455.439	9.72
455.64	9.4
455.841	9.27
456.042	9.5
456.244	9.02
456.445	8.83
456.646	8.56
456.847	8.4
457.048	8.32
457.249	8.32
457.45	8.13
457.651	7.67
457.852	7.45
458.054	7.14
458.255	7.1
458.456	7.24
458.657	6.99
458.858	6.7
459.058	6.57
459.259	6.69
459.46	6.3
459.661	6.31
459.862	6.38
460.063	6.21
460.264	6.27
460.465	5.86
460.666	5.98
460.866	5.72
461.067	5.47
461.268	5.49
461.469	5.46
461.67	5.34
461.87	5.17
462.071	5.18
462.272	5.11
462.473	5.13
462.673	5.25
462.874	5.13
463.075	5.06
463.275	5.01
463.476	5.06
463.676	5.07
463.877	4.88
464.078	4.94
464.278	4.97
464.479	4.78
464.679	4.7
464.88	4.57
465.08	4.66
465.281	4.46
465.481	4.26
465.682	4.02
465.882	4.13
466.083	4.01
466.283	3.98
466.483	3.86
466.684	3.67
466.884	3.58
467.085	3.61
467.285	3.66
467.485	3.58
467.686	3.45
467.886	3.42
468.086	3.26
468.286	3.28
468.487	3.41
468.687	3.19
468.887	3.24
469.087	3.32
469.287	3.24
469.488	3
469.688	3.12
469.888	3.16
470.088	3.11
470.288	3.05
470.488	3.02
470.688	2.83
470.888	2.79
471.088	2.68
471.288	2.75
471.488	2.75
471.688	2.73
471.888	2.65
472.088	2.8
472.288	2.64
472.488	2.55
472.688	2.51
472.888	2.55
473.088	2.6
473.288	2.46
473.488	2.46
473.688	2.61
473.887	2.44
474.087	2.33
474.287	2.4
474.487	2.37
474.687	2.38
474.886	2.33
475.086	2.25
475.286	2.26
475.486	2.27
475.685	2.21
475.885	2.18
476.085	2.3
476.284	2.19
476.484	2.2
476.684	2.18
476.883	2.29
477.083	2.13
477.282	2.1
477.482	2.17
477.681	2.16
477.881	2.07
478.08	2.04
478.28	1.98
478.479	2.09
478.679	2.16
478.878	1.99
479.078	2.03
479.277	2.01
479.477	2.08
479.676	2.03
479.875	2.02
480.075	1.93
480.274	2.02
480.473	2.02
480.673	1.94
480.872	2.05
481.071	2.02
481.271	2.06
481.47	1.98
481.669	2.02
481.868	1.95
482.067	1.94
482.267	1.89
482.466	1.95
482.665	1.91
482.864	1.93
483.063	1.91
483.262	2.01
483.461	1.97
483.661	2.07
483.86	2
484.059	2.02
484.258	2.01
484.457	1.95
484.656	2.01
484.855	2.07
485.054	1.91
485.253	1.98
485.452	1.97
485.651	2.04
485.849	1.97
486.048	1.97
486.247	1.99
486.446	2.09
486.645	2.02
486.844	2.07
487.043	1.99
487.241	2.09
487.44	2.07
487.639	2.12
487.838	2.1
488.037	2.1
488.235	2.22
488.434	2.16
488.633	2.01
488.831	2.25
489.03	2.22
489.229	2.25
489.427	2.19
489.626	2.28
489.825	2.32
490.023	2.27
490.222	2.24
490.42	2.28
490.619	2.36
490.817	2.33
491.016	2.33
491.214	2.42
491.413	2.41
491.611	2.36
491.81	2.38
492.008	2.44
492.207	2.53
492.405	2.52
492.604	2.43
492.802	2.51
493	2.6
493.199	2.61
493.397	2.62
493.595	2.69
493.794	2.66
493.992	2.81
494.19	2.78
494.388	2.83
494.587	2.73
494.785	2.82
494.983	2.75
495.181	2.88
495.379	2.88
495.578	2.98
495.776	2.97
495.974	2.92
496.172	2.98
496.37	3.1
496.568	3.09
496.766	3.07
496.964	3.18
497.162	3.19
497.36	3.23
497.558	3.26
497.756	3.31
497.954	3.27
498.152	3.3
498.35	3.41
498.548	3.37
498.746	3.36
498.944	3.41
499.142	3.47
499.34	3.54
499.538	3.64
499.736	3.53
499.933	3.64
500.131	3.61
500.329	3.75
500.527	3.76
500.725	3.87
500.922	3.87
501.12	3.86
501.318	3.9
501.516	3.96
501.713	4.03
501.911	3.97
502.109	3.95
502.306	4.1
502.504	3.98
502.701	4.11
