Data from Apollo_Calib_20240827__AbsoluteIrradiance__729__11-18-03-099.txt Node

Date: Wed Aug 28 11:18:03 BST 2024
User: biology
Spectrometer: FLMT08252
Trigger mode: 0
Integration Time (sec): 5.000000E-1
Scans to average: 5
Electric dark correction enabled: true
Nonlinearity correction enabled: false
Boxcar width: 0
XAxis mode: Wavelengths
Number of Pixels in Spectrum: 3648
>>>>>Begin Spectral Data<<<<<
179.588	-0
179.809	-0
180.03	-0
180.251	-0
180.473	-0
180.694	0
180.915	0
181.136	-0
181.357	0
181.578	-0
181.799	-0
182.02	-0
182.241	-0
182.462	-0
182.683	0
182.904	0
183.125	-0
183.346	0
183.567	0
183.788	0
184.009	-0
184.23	0
184.451	0
184.672	-0
184.892	0
185.113	0
185.334	0
185.555	-0
185.776	-0
185.996	0
186.217	0
186.438	0
186.659	0
186.879	0
187.1	0
187.321	-0
187.541	0
187.762	0
187.983	0
188.203	0
188.424	0
188.644	0
188.865	0
189.086	0
189.306	0
189.527	0
189.747	0
189.968	-0
190.188	0
190.409	0
190.629	0
190.849	0
191.07	0
191.29	0
191.511	0
191.731	-0
191.951	0
192.172	0
192.392	0
192.612	0
192.833	0
193.053	0
193.273	0
193.493	0
193.714	0
193.934	0
194.154	0
194.374	0
194.594	0
194.815	0
195.035	0
195.255	0
195.475	0
195.695	0
195.915	0
196.135	0
196.355	0
196.575	0
196.795	0
197.015	0
197.235	0
197.455	0
197.675	0
197.895	0
198.115	-0
198.335	0
198.555	0
198.775	0
198.995	0
199.214	0
199.434	0
199.654	0
199.874	0
200.094	1.42
200.313	0.4
200.533	0.35
200.753	0.09
200.973	1.92
201.192	1.77
201.412	-0.14
201.632	0.77
201.851	1.56
202.071	-0.04
202.291	-0.11
202.51	-0.16
202.73	1.1
202.95	0.26
203.169	0.17
203.389	0.75
203.608	0.7
203.828	0.16
204.047	0.04
204.267	0.91
204.486	0.66
204.706	0.46
204.925	0.16
205.145	0.25
205.364	0.64
205.583	1.06
205.803	0.27
206.022	0.12
206.242	0.76
206.461	0.39
206.68	0.26
206.9	0.22
207.119	1.01
207.338	1.09
207.557	0.35
207.777	0.27
207.996	0.51
208.215	0.92
208.434	0.19
208.654	-0.03
208.873	0.36
209.092	1.06
209.311	0.2
209.53	0.32
209.749	0.33
209.968	0.02
210.187	0.05
210.407	0.03
210.626	0.11
210.845	0.44
211.064	0.2
211.283	0.01
211.502	0.35
211.721	0.25
211.94	0.31
212.159	0.56
212.377	0.44
212.596	0.71
212.815	0.4
213.034	0.5
213.253	0.66
213.472	0.53
213.691	0.25
213.91	-0.06
214.128	0.22
214.347	0.52
214.566	-0.07
214.785	-0.08
215.003	0.24
215.222	0.32
215.441	0.08
215.66	-0.03
215.878	0.24
216.097	0.36
216.316	0.01
216.534	0.28
216.753	0.34
216.972	0.27
217.19	0.22
217.409	0.14
217.627	0.09
217.846	0.24
218.064	0.32
218.283	0.16
218.501	0.86
218.72	0.57
218.938	0.14
219.157	0.11
219.375	0.31
219.594	0.54
219.812	0.04
220.031	0.06
220.249	0.54
220.467	0.63
220.686	0.19
220.904	-0.08
221.122	0.15
221.341	0.55
221.559	0.17
221.777	-0.03
221.995	0.29
222.214	0.32
222.432	0.11
222.65	0.35
222.868	0.15
223.086	0.28
223.305	0.27
223.523	0.11
223.741	0.47
223.959	0.25
224.177	-0.03
224.395	0.04
224.613	0.21
224.831	0.23
225.049	0
225.267	0.17
225.485	0.31
225.703	0.11
225.921	0.15
226.139	0.06
226.357	0.42
226.575	0.26
226.793	0.11
227.011	0.75
227.229	0.18
227.447	0.46
227.665	0.14
227.883	0.03
228.1	0.18
228.318	0.27
228.536	-0.1
228.754	0.11
228.972	0.1
229.189	0.32
229.407	0.14
229.625	0.12
229.843	0.29
230.06	0.25
230.278	0.11
230.496	0.05
230.713	0.33
230.931	0.33
231.149	0.07
231.366	-0.01
231.584	0.14
231.801	0.59
232.019	0.06
232.236	0.02
232.454	0.05
232.671	0.23
232.889	0.19
233.106	0.07
233.324	0.11
233.541	0.05
233.759	0.01
233.976	0.09
234.194	0.18
234.411	0.13
234.628	-0.03
234.846	0.13
235.063	0.09
235.28	0.07
235.498	0.09
235.715	0.07
235.932	0.39
236.149	0.25
236.367	0.06
236.584	0.15
236.801	0.14
237.018	0.26
237.236	0.11
237.453	0.01
237.67	0.35
237.887	0.02
238.104	0.12
238.321	0.02
238.538	0.02
238.755	0.28
238.973	-0.04
239.19	0.15
239.407	0.23
239.624	0.09
239.841	-0.01
240.058	0
240.275	0.19
240.492	0.11
240.709	0.08
240.925	0.1
241.142	0.15
241.359	-0.01
241.576	0.01
241.793	0.06
242.01	0.11
242.227	0.18
242.444	0.25
242.66	0.24
242.877	0.26
243.094	0.05
243.311	0.18
243.527	0.08
243.744	0.09
243.961	0.18
244.178	0.06
244.394	0.11
244.611	0.18
244.828	0.3
245.044	0.04
245.261	0.14
245.477	0.13
245.694	0.09
245.911	0.05
246.127	0.16
246.344	0.29
246.56	0.15
246.777	0.08
246.993	0.2
247.21	0.16
247.426	0.19
247.643	0.08
247.859	0.05
248.076	0.08
248.292	0.35
248.508	0.04
248.725	0.13
248.941	0.15
249.157	0.24
249.374	0.06
249.59	0.1
249.806	0.18
250.023	0.34
250.239	0.03
250.455	0.02
250.671	0.07
250.888	0.17
251.104	0.18
251.32	0.11
251.536	0.12
251.752	0.12
251.969	0.15
252.185	0.13
252.401	0.28
252.617	0.18
252.833	0.02
253.049	0.12
253.265	0.08
253.481	0.15
253.697	0.03
253.913	-0
254.129	0.15
254.345	0.14
254.561	0.1
254.777	0.1
254.993	0.19
255.209	0.09
255.425	0.08
255.641	0.03
255.857	0.26
256.073	0.16
256.288	0.01
256.504	0.06
256.72	0.12
256.936	0.16
257.152	0.13
257.367	-0.02
257.583	0.16
257.799	0.13
258.015	0.05
258.23	0.06
258.446	0.22
258.662	0.12
258.877	0.06
259.093	0.01
259.309	0.16
259.524	0.15
259.74	0.05
259.955	0.06
260.171	0.12
260.387	0.12
260.602	0.12
260.818	0.19
261.033	0.02
261.249	0.13
261.464	0.12
261.68	-0.05
261.895	0.17
262.11	0.22
262.326	0.07
262.541	0.05
262.757	0.2
262.972	0.15
263.187	0.1
263.403	0.16
263.618	0.2
263.833	0.05
264.049	-0.05
264.264	0.11
264.479	0.12
264.694	0.11
264.91	0.09
265.125	0.06
265.34	0.22
265.555	0.25
265.77	0.1
265.986	0.1
266.201	0.11
266.416	0.17
266.631	0.11
266.846	0.08
267.061	0.14
267.276	0.2
267.491	0.02
267.706	0.05
267.921	0.2
268.136	0.14
268.351	0.09
268.566	0.01
268.781	0.19
268.996	0.1
269.211	0.08
269.426	0.11
269.641	0.07
269.856	0.18
270.071	0.04
270.285	-0
270.5	0.15
270.715	0.14
270.93	0.1
271.145	0.08
271.359	0.13
271.574	0.09
271.789	0.09
272.004	0.02
272.218	0.09
272.433	0.13
272.648	0.05
272.862	0.15
273.077	0.04
273.292	0.1
273.506	0.05
273.721	0.12
273.936	0.16
274.15	0.14
274.365	0.09
274.579	0.16
274.794	0.15
275.008	0.17
275.223	-0.02
275.437	0.11
275.652	0.15
275.866	0.14
276.081	0.07
276.295	0.16
276.509	0.16
276.724	0.14
276.938	0.06
277.153	0.1
277.367	0.14
277.581	0.08
277.796	-0.01
278.01	0.05
278.224	0.19
278.438	0.28
278.653	0.06
278.867	0.09
279.081	-0.02
279.295	0.06
279.51	0.11
279.724	0.01
279.938	0.12
280.152	0.13
280.366	0.05
280.58	0.11
280.794	0.2
281.008	0.11
281.222	0.13
281.437	0.24
281.651	0.13
281.865	0.19
282.079	0.09
282.293	-0.01
282.507	0.07
282.721	0.08
282.935	0.1
283.148	0.02
283.362	0.07
283.576	0.04
283.79	0.1
284.004	0.02
284.218	0.14
284.432	0.07
284.646	0.08
284.859	0.05
285.073	0.06
285.287	0.08
285.501	0.03
285.714	0.06
285.928	0.08
286.142	0.07
286.356	0.01
286.569	0.07
286.783	0.18
286.997	0.19
287.21	0.08
287.424	0.09
287.637	0.06
287.851	0.03
288.065	0.15
288.278	0.1
288.492	0.12
288.705	0.09
288.919	0.12
289.132	-0.02
289.346	0.17
289.559	0
289.773	0.06
289.986	0.09
290.2	0.12
290.413	0.19
290.626	0.01
290.84	0.1
291.053	0.07
291.267	0.17
291.48	0.08
291.693	0.04
291.906	0.01
292.12	0.05
292.333	0.06
292.546	0.06
292.76	0.19
292.973	0.14
293.186	0.14
293.399	0.07
293.612	0.1
293.826	0.1
294.039	0.05
294.252	0.11
294.465	0.14
294.678	0.11
294.891	0.08
295.104	0.03
295.317	0.09
295.53	0.1
295.743	0.07
295.956	0.11
296.169	0.15
296.382	0.13
296.595	0.09
296.808	0.07
297.021	0.17
297.234	0.14
297.447	0.11
297.66	0.11
297.873	0.17
298.086	0.1
298.299	0.05
298.511	0
298.724	0.05
298.937	0.05
299.15	0.02
299.363	0.1
299.575	0.13
299.788	0.09
300.001	0.05
300.213	0.05
300.426	0.07
300.639	0.02
300.852	0.07
301.064	0.12
301.277	0.15
301.489	0.14
301.702	0.1
301.915	0.13
302.127	0.07
302.34	0.08
302.552	0.09
302.765	0.08
302.977	0.12
303.19	0.03
303.402	0.06
303.615	0.07
303.827	0.08
304.04	0.07
304.252	0.09
304.464	0.13
304.677	0.2
304.889	0.15
305.102	0.05
305.314	0.03
305.526	0.12
305.739	0.08
305.951	0.04
306.163	0.07
306.375	0.12
306.588	0.07
306.8	0.02
307.012	0.02
307.224	0.1
307.436	0.16
307.649	-0.01
307.861	0.09
308.073	0.11
308.285	0.01
308.497	0.01
308.709	0.08
308.921	0.11
309.133	0.13
309.346	0.06
309.558	0.1
309.77	0.14
309.982	0.16
310.194	0.14
310.406	0.08
310.617	0.18
310.829	0.09
311.041	0.12
311.253	0.01
311.465	0.14
311.677	0.08
311.889	0.09
312.101	0.03
312.313	0.14
312.524	0.11
312.736	0.01
312.948	0.08
313.16	0.13
313.372	0.12
313.583	0.12
313.795	0.06
314.007	0.07
314.218	0.15
314.43	0.09
314.642	0.03
314.853	0.03
315.065	0.15
315.277	0.08
315.488	0.1
315.7	0.13
315.912	0.12
316.123	0.04
316.335	0.06
316.546	0.19
316.758	0.07
316.969	0.03
317.181	0.1
317.392	0.05
317.604	0.11
317.815	0.09
318.026	0.05
318.238	0.06
318.449	0.11
318.661	0.06
318.872	0.05
319.083	0.02
319.295	0.11
319.506	0.05
319.717	0.08
319.929	0.12
320.14	0.09
320.351	0.06
320.562	0.1
320.774	0.1
320.985	0.08
321.196	0.06
321.407	0.04
321.618	0.13
321.829	0.11
322.041	0.09
322.252	0.05
322.463	0.11
322.674	0.12
322.885	0.04
323.096	0.04
323.307	0.07
323.518	0.09
323.729	0.09
323.94	0.04
324.151	0.04
324.362	0.1
324.573	0.11
324.784	0.05
324.995	0.16
325.206	0.07
325.417	0.1
325.628	0.03
325.838	0.05
326.049	0.1
326.26	0.12
326.471	0.06
326.682	0.07
326.892	0.11
327.103	0.04
327.314	0.05
327.525	0.16
327.735	0.09
327.946	0.1
328.157	0.04
328.368	0.14
328.578	0.06
328.789	0.1
328.999	0.08
329.21	0.05
329.421	0.1
329.631	0.01
329.842	0.04
330.052	0.1
330.263	0.09
330.473	0.15
330.684	0.06
330.894	0.09
331.105	0.12
331.315	0.07
331.526	0.01
331.736	0.11
331.947	0.11
332.157	0.13
332.367	0.02
332.578	0.11
332.788	0.16
332.999	0.07
333.209	0.11
333.419	0.03
333.629	0.13
333.84	0.09
334.05	0.08
334.26	0.2
334.47	0.09
334.681	0.13
334.891	0.03
335.101	0.1
335.311	0.17
335.521	0.07
335.732	0.05
335.942	0.13
336.152	0.13
336.362	0.12
336.572	0.09
336.782	0.09
336.992	0.07
337.202	0.07
337.412	0.05
337.622	0.11
337.832	0.11
338.042	0.08
338.252	0.05
338.462	0.07
338.672	0.12
338.882	0.1
339.092	0.12
339.302	0.14
339.511	0.11
339.721	0.01
339.931	0.05
340.141	0.11
340.351	0.12
340.561	0.08
340.77	0.09
340.98	0.11
341.19	0.12
341.4	0.05
341.609	0.07
341.819	0.06
342.029	0.03
342.238	0.07
342.448	0.07
342.658	0.1
342.867	0.1
343.077	0.08
343.286	0.12
343.496	0.09
343.706	0.13
343.915	0.05
344.125	0.08
344.334	0.11
344.544	-0.01
344.753	0.07
344.963	0.06
345.172	0.03
345.381	0.01
345.591	0.03
345.8	0.08
346.01	0.13
346.219	0.12
346.428	-0.04
346.638	0.09
346.847	0.08
347.056	0.12
347.266	0.06
347.475	0.09
347.684	0.13
347.893	0.09
348.103	0.05
348.312	0.03
348.521	0.04
348.73	0.08
348.94	0.12
349.149	0.05
349.358	0.06
349.567	0.07
349.776	0.04
349.985	0.05
350.194	0.12
350.403	0.07
350.612	0.02
350.821	0.04
351.03	0.07
351.239	0.02
351.448	0.09
351.657	0.03
351.866	0.18
352.075	0.08
352.284	0.14
352.493	-0
352.702	0.13
352.911	0.08
353.12	0.07
353.329	0.07
353.538	0.11
353.746	0.06
353.955	0.08
354.164	0.13
354.373	0.09
354.582	0.13
354.79	0.05
354.999	0.1
355.208	0.07
355.416	0.12
355.625	0.05
355.834	0.08
356.042	0.07
356.251	0.08
356.46	0.05
356.668	0.08
356.877	0.17
357.085	0.13
357.294	-0.01
357.503	0.08
357.711	0.08
357.92	0.2
358.128	0.09
358.337	0.06
358.545	0.1
358.754	0.02
358.962	0.08
359.17	0.08
359.379	0.1
359.587	0.14
359.796	0.06
360.004	0.14
360.212	0.15
360.421	0.13
360.629	0.07
360.837	0.04
361.046	0.1
361.254	0.18
361.462	0.11
361.67	0.06
361.879	0.12
362.087	0.15
362.295	0.08
362.503	0.06
362.711	0.05
362.92	0.05
363.128	0.03
363.336	0.07
363.544	0.05
363.752	0.06
363.96	0.01
364.168	0.08
364.376	0.09
364.584	0.08
364.792	0.15
365	0.11
365.208	0.08
365.416	0.09
365.624	0.15
365.832	0.09
366.04	0.16
366.248	0.07
366.456	0.09
366.664	0.06
366.872	0.06
367.079	0.05
367.287	0.07
367.495	0.07
367.703	0.09
367.911	0.07
368.118	0.08
368.326	0.08
368.534	0.04
368.742	0.12
368.949	0.02
369.157	0.08
369.365	0.11
369.572	0.08
369.78	0.04
369.988	0.09
370.195	0.06
370.403	0.1
370.61	0.06
370.818	0.08
371.026	0.14
371.233	0.04
371.441	0.11
371.648	0.04
371.856	0.07
372.063	0.11
372.271	0.1
372.478	0.08
372.685	0.05
372.893	0.12
373.1	0.07
373.308	0.07
373.515	0.16
373.722	0.11
373.93	0.11
374.137	0.11
374.344	0.15
374.552	0.15
374.759	0.11
374.966	0.11
375.173	0.07
375.381	0.14
375.588	0.03
375.795	-0
376.002	0.03
376.209	0.05
376.417	0.09
376.624	0.09
376.831	0.15
377.038	0.08
377.245	-0.02
377.452	0.06
377.659	0.12
377.866	0.08
378.073	0.1
378.28	0.05
378.487	0.09
378.694	0.11
378.901	0.08
379.108	0.08
379.315	0.1
379.522	0.18
379.729	0.1
379.936	0.06
380.143	0.08
380.35	0.1
380.557	0.09
380.763	0.12
380.97	0.08
381.177	0.12
381.384	0.09
381.591	0.07
381.797	0.12
382.004	0.12
382.211	0.1
382.418	0.02
382.624	0.1
382.831	0.07
383.038	0.08
383.244	0.09
383.451	0.08
383.658	0.13
383.864	0.07
384.071	0.02
384.277	0.09
384.484	0.03
384.69	0.14
384.897	0.09
385.103	0.04
385.31	0.05
385.516	0.07
385.723	0.05
385.929	0.08
386.136	0.06
386.342	0.1
386.549	0.04
386.755	0.12
386.961	0.13
387.168	0.06
387.374	0.08
387.58	0.11
387.787	0.08
387.993	0.08
388.199	0.06
388.406	0.07
388.612	0.07
388.818	0.06
389.024	0.03
389.231	0.12
389.437	0.13
389.643	0.11
389.849	0.1
390.055	0.12
390.261	0.09
390.467	0.11
390.674	0.01
390.88	0.08
391.086	0.11
391.292	0.01
391.498	0.13
391.704	0.12
391.91	0.11
392.116	0.06
392.322	0
392.528	0.12
392.734	0.11
392.94	0.13
393.146	0.08
393.352	0.1
393.557	0.11
393.763	0.08
393.969	0.1
394.175	0.07
394.381	0.13
394.587	0.06
394.792	0.09
394.998	0.07
395.204	0.11
395.41	0.09
395.615	0.14
395.821	0.14
396.027	0.1
396.233	0.05
396.438	0.07
396.644	0.11
396.85	0.11
397.055	0.1
397.261	0.12
397.466	0.18
397.672	0.12
397.878	0.14
398.083	0.11
398.289	0.04
398.494	0.15
398.7	0.17
398.905	0.02
399.111	0.17
399.316	0.06
399.522	0.08
399.727	0.07
399.932	0.06
400.138	0.03
400.343	0.17
400.549	0.12
400.754	0.12
400.959	0.09
401.165	0.07
401.37	0.09
401.575	0.17
401.78	0.13
401.986	0.1
402.191	0.1
402.396	0.15
402.601	0.13
402.807	0.19
403.012	0.1
403.217	0.15
403.422	0.11
403.627	0.13
403.832	0.08
404.037	0.15
404.243	0.14
404.448	0.11
404.653	0.12
404.858	0.14
405.063	0.18
405.268	0.11
405.473	0.03
405.678	0.15
405.883	0.25
406.088	0.18
406.293	0.09
406.498	0.08
406.703	0.19
406.907	0.13
407.112	0.13
407.317	0.15
407.522	0.18
407.727	0.1
407.932	0.17
408.136	0.25
408.341	0.19
408.546	0.22
408.751	0.17
408.956	0.23
409.16	0.19
409.365	0.22
409.57	0.15
409.774	0.16
409.979	0.24
410.184	0.23
410.388	0.16
410.593	0.24
410.798	0.21
411.002	0.22
411.207	0.28
411.411	0.2
411.616	0.22
411.82	0.24
412.025	0.24
412.229	0.21
412.434	0.32
412.638	0.28
412.843	0.27
413.047	0.27
413.252	0.25
413.456	0.29
413.66	0.3
413.865	0.27
414.069	0.4
414.273	0.32
414.478	0.31
414.682	0.37
414.886	0.34
415.091	0.3
415.295	0.37
415.499	0.41
415.703	0.36
415.908	0.43
416.112	0.4
416.316	0.5
416.52	0.4
416.724	0.39
416.929	0.45
417.133	0.6
417.337	0.48
417.541	0.5
417.745	0.5
417.949	0.63
418.153	0.66
418.357	0.54
418.561	0.78
418.765	0.68
418.969	0.79
419.173	0.72
419.377	0.71
419.581	0.88
419.785	0.78
419.989	0.78
420.193	0.83
420.397	0.84
420.601	0.97
420.804	1
421.008	0.92
421.212	1.07
421.416	1.01
421.62	0.98
421.823	1.03
422.027	1.15
422.231	1.11
422.435	1.04
422.638	1.14
422.842	1.05
423.046	1.17
423.249	1.29
423.453	1.26
423.657	1.32
423.86	1.3
424.064	1.35
424.268	1.49
424.471	1.39
424.675	1.56
424.878	1.55
425.082	1.51
425.285	1.67
425.489	1.63
425.692	1.62
425.896	1.69
426.099	1.74
426.303	1.77
426.506	1.8
426.71	1.93
426.913	2.04
427.116	2.02
427.32	2.11
427.523	2.03
427.726	2.18
427.93	2.08
428.133	2.2
428.336	2.26
428.54	2.3
428.743	2.44
428.946	2.52
429.149	2.43
429.353	2.53
429.556	2.49
429.759	2.6
429.962	2.52
430.165	2.66
430.368	2.45
430.571	2.52
430.775	2.54
430.978	2.56
431.181	2.6
431.384	2.59
431.587	2.66
431.79	2.8
431.993	2.69
432.196	2.79
432.399	2.91
432.602	3.04
432.805	2.97
433.008	3.17
433.211	3.08
433.414	3.29
433.616	3.23
433.819	3.22
434.022	3.23
434.225	3.4
434.428	3.3
434.631	3.64
434.833	3.45
435.036	3.58
435.239	3.6
435.442	3.6
435.645	3.64
435.847	3.73
436.05	3.92
436.253	3.9
436.455	3.84
436.658	3.85
436.861	4.03
437.063	4.01
437.266	3.96
437.468	4.19
437.671	4.31
437.874	4.28
438.076	4.23
438.279	4.39
438.481	4.43
438.684	4.74
438.886	4.61
439.089	4.61
439.291	4.71
439.494	4.87
439.696	4.93
439.899	5.15
440.101	5.27
440.303	5.38
440.506	5.7
440.708	5.56
440.91	5.72
441.113	5.71
441.315	5.92
441.517	5.74
441.72	6.02
441.922	5.83
442.124	5.76
442.326	5.99
442.529	6.13
442.731	6.08
442.933	6.28
443.135	6.18
443.337	6.24
443.539	6.43
443.742	6.32
443.944	6.58
444.146	6.56
444.348	6.6
444.55	6.56
444.752	6.6
444.954	6.57
445.156	6.6
445.358	6.79
445.56	6.9
445.762	6.87
445.964	7
446.166	6.86
446.368	6.87
446.57	6.89
446.772	6.88
446.974	6.75
447.175	6.95
447.377	6.74
447.579	6.93
447.781	6.82
447.983	6.84
448.184	6.57
448.386	6.84
448.588	6.54
448.79	6.57
448.991	6.81
449.193	6.79
449.395	6.48
449.597	6.39
449.798	6.35
450	6.17
450.202	6.15
450.403	6.12
450.605	6.14
450.806	6.03
451.008	5.81
451.21	5.84
451.411	5.68
451.613	5.34
451.814	5.46
452.016	5.45
452.217	5.12
452.419	5.23
452.62	4.99
452.821	5.02
453.023	4.95
453.224	4.75
453.426	4.5
453.627	4.24
453.828	4.39
454.03	4.38
454.231	4.34
454.432	4.27
454.634	4.22
454.835	3.92
455.036	3.92
455.238	3.81
455.439	3.79
455.64	3.52
455.841	3.51
456.042	3.51
456.244	3.43
456.445	3.35
456.646	3.18
456.847	3.25
457.048	3.13
457.249	3.21
457.45	3.15
457.651	2.83
457.852	2.85
458.054	2.64
458.255	2.62
458.456	2.65
458.657	2.65
458.858	2.44
459.058	2.38
459.259	2.48
459.46	2.34
459.661	2.32
459.862	2.39
460.063	2.28
460.264	2.31
460.465	2.18
460.666	2.24
460.866	2.07
461.067	1.94
461.268	2.01
461.469	1.99
461.67	1.9
461.87	1.88
462.071	1.9
462.272	1.82
462.473	1.84
462.673	1.82
462.874	1.82
463.075	1.84
463.275	1.78
463.476	1.91
463.676	1.82
463.877	1.79
464.078	1.76
464.278	1.82
464.479	1.72
464.679	1.72
464.88	1.73
465.08	1.73
465.281	1.59
465.481	1.55
465.682	1.44
465.882	1.55
466.083	1.42
466.283	1.42
466.483	1.4
466.684	1.3
466.884	1.28
467.085	1.32
467.285	1.37
467.485	1.23
467.686	1.28
467.886	1.17
468.086	1.18
468.286	1.2
468.487	1.25
468.687	1.11
468.887	1.08
469.087	1.2
469.287	1.23
469.488	1.02
469.688	1.15
469.888	1.11
470.088	1.17
470.288	1.11
470.488	1.05
470.688	0.97
470.888	0.98
471.088	0.9
471.288	1.05
471.488	0.98
471.688	0.99
471.888	0.93
472.088	0.99
472.288	0.97
472.488	0.85
472.688	0.85
472.888	0.92
473.088	0.84
473.288	0.86
473.488	0.82
473.688	0.95
473.887	0.85
474.087	0.8
474.287	0.87
474.487	0.77
474.687	0.88
474.886	0.81
475.086	0.79
475.286	0.77
475.486	0.77
475.685	0.75
475.885	0.76
476.085	0.78
476.284	0.76
476.484	0.76
476.684	0.79
476.883	0.82
477.083	0.7
477.282	0.7
477.482	0.76
477.681	0.76
477.881	0.68
478.08	0.7
478.28	0.68
478.479	0.73
478.679	0.77
478.878	0.68
479.078	0.64
479.277	0.72
479.477	0.69
479.676	0.69
479.875	0.7
480.075	0.61
480.274	0.71
480.473	0.72
480.673	0.66
480.872	0.71
481.071	0.7
481.271	0.71
481.47	0.66
481.669	0.67
481.868	0.68
482.067	0.67
482.267	0.65
482.466	0.66
482.665	0.65
482.864	0.66
483.063	0.63
483.262	0.7
483.461	0.72
483.661	0.72
483.86	0.67
484.059	0.73
484.258	0.71
484.457	0.68
484.656	0.7
484.855	0.71
485.054	0.67
485.253	0.68
485.452	0.67
485.651	0.68
485.849	0.71
486.048	0.66
486.247	0.7
486.446	0.72
486.645	0.66
486.844	0.69
487.043	0.7
487.241	0.73
487.44	0.69
487.639	0.72
487.838	0.75
488.037	0.73
488.235	0.78
488.434	0.72
488.633	0.73
488.831	0.77
489.03	0.8
489.229	0.77
489.427	0.75
489.626	0.81
489.825	0.82
490.023	0.82
490.222	0.8
490.42	0.83
490.619	0.84
490.817	0.87
491.016	0.8
491.214	0.87
491.413	0.82
491.611	0.82
491.81	0.83
492.008	0.88
492.207	0.89
492.405	0.91
492.604	0.83
492.802	0.92
493	0.95
493.199	0.92
493.397	0.94
493.595	0.94
493.794	0.92
493.992	0.99
494.19	0.96
494.388	1
494.587	0.98
494.785	1
494.983	0.93
495.181	1.05
495.379	1.06
495.578	1.08
495.776	1.04
495.974	1.06
496.172	1.06
496.37	1.11
496.568	1.09
496.766	1.11
496.964	1.15
497.162	1.14
497.36	1.12
497.558	1.18
497.756	1.21
497.954	1.17
498.152	1.19
498.35	1.24
498.548	1.22
498.746	1.22
498.944	1.24
499.142	1.27
499.34	1.28
499.538	1.32
499.736	1.23
499.933	1.35
500.131	1.34
500.329	1.4
500.527	1.39
500.725	1.44
500.922	1.41
501.12	1.41
501.318	1.47
501.516	1.45
501.713	1.48
501.911	1.48
502.109	1.47
502.306	1.54
502.504	1.5
502.701	1.52
502.899	1.52
503.097	1.64
503.294	1.57
503.492	1.62
503.689	1.63
503.887	1.64
