Data from Apollo_Calib_20240827__AbsoluteIrradiance__888__13-57-01-939.txt Node

Date: Wed Aug 28 13:57:01 BST 2024
User: biology
Spectrometer: FLMT08252
Trigger mode: 0
Integration Time (sec): 5.000000E-1
Scans to average: 5
Electric dark correction enabled: true
Nonlinearity correction enabled: false
Boxcar width: 0
XAxis mode: Wavelengths
Number of Pixels in Spectrum: 3648
>>>>>Begin Spectral Data<<<<<
179.588	-0
179.809	-0
180.03	-0
180.251	-0
180.473	-0
180.694	0
180.915	0
181.136	-0
181.357	0
181.578	-0
181.799	0
182.02	-0
182.241	-0
182.462	-0
182.683	0
182.904	-0
183.125	-0
183.346	0
183.567	0
183.788	0
184.009	0
184.23	0
184.451	0
184.672	0
184.892	0
185.113	0
185.334	0
185.555	0
185.776	0
185.996	0
186.217	0
186.438	0
186.659	0
186.879	0
187.1	0
187.321	0
187.541	0
187.762	0
187.983	0
188.203	0
188.424	0
188.644	0
188.865	0
189.086	0
189.306	0
189.527	0
189.747	0
189.968	0
190.188	0
190.409	0
190.629	0
190.849	0
191.07	0
191.29	0
191.511	0
191.731	0
191.951	0
192.172	0
192.392	0
192.612	0
192.833	0
193.053	0
193.273	0
193.493	0
193.714	0
193.934	0
194.154	0
194.374	0
194.594	0
194.815	0
195.035	0
195.255	0
195.475	0
195.695	0
195.915	0
196.135	0
196.355	0
196.575	0
196.795	0
197.015	0
197.235	0
197.455	0
197.675	0
197.895	0
198.115	0
198.335	0
198.555	0
198.775	0
198.995	0
199.214	0
199.434	0
199.654	0
199.874	0
200.094	4
200.313	2.13
200.533	2.04
200.753	1.15
200.973	3.29
201.192	3.2
201.412	1.71
201.632	2.08
201.851	3.64
202.071	1.96
202.291	1.77
202.51	0.72
202.73	3.06
202.95	2.05
203.169	1.18
203.389	1.59
203.608	2.23
203.828	1.69
204.047	1.27
204.267	2.35
204.486	1.99
204.706	2.83
204.925	2.02
205.145	1.24
205.364	2.57
205.583	3.37
205.803	1.38
206.022	1.04
206.242	1.77
206.461	2.03
206.68	1.06
206.9	1.33
207.119	2.64
207.338	2.42
207.557	1.12
207.777	1.44
207.996	1.51
208.215	2.17
208.434	1.39
208.654	0.92
208.873	1.71
209.092	2.28
209.311	1.19
209.53	1.18
209.749	1.22
209.968	1.2
210.187	1
210.407	0.59
210.626	1.12
210.845	1.67
211.064	1.11
211.283	0.62
211.502	1.71
211.721	0.88
211.94	0.9
212.159	1.5
212.377	1.52
212.596	1.52
212.815	1.05
213.034	1.24
213.253	1.48
213.472	1.41
213.691	1.02
213.91	0.8
214.128	0.76
214.347	1.49
214.566	0.62
214.785	0.72
215.003	1.36
215.222	1.2
215.441	1.1
215.66	0.69
215.878	1.17
216.097	1.4
216.316	0.51
216.534	0.83
216.753	1.03
216.972	0.91
217.19	0.72
217.409	0.91
217.627	0.72
217.846	0.73
218.064	0.9
218.283	0.64
218.501	1.45
218.72	1.15
218.938	0.56
219.157	0.71
219.375	1.25
219.594	0.91
219.812	0.49
220.031	0.56
220.249	1.37
220.467	1.1
220.686	0.57
220.904	0.56
221.122	0.7
221.341	1.09
221.559	0.9
221.777	0.51
221.995	0.86
222.214	0.83
222.432	0.73
222.65	0.85
222.868	0.61
223.086	0.93
223.305	0.89
223.523	0.76
223.741	1.15
223.959	0.81
224.177	0.23
224.395	0.52
224.613	0.81
224.831	0.91
225.049	0.55
225.267	0.55
225.485	0.79
225.703	0.67
225.921	0.51
226.139	0.57
226.357	0.86
226.575	0.8
226.793	0.46
227.011	1.63
227.229	0.96
227.447	0.85
227.665	0.43
227.883	0.38
228.1	0.62
228.318	0.77
228.536	0.3
228.754	0.58
228.972	0.74
229.189	0.86
229.407	0.57
229.625	0.5
229.843	0.93
230.06	0.79
230.278	0.38
230.496	0.58
230.713	0.77
230.931	0.8
231.149	0.52
231.366	0.3
231.584	0.6
231.801	1.01
232.019	0.46
232.236	0.37
232.454	0.29
232.671	0.69
232.889	0.49
233.106	0.4
233.324	0.66
233.541	0.61
233.759	0.48
233.976	0.39
234.194	0.53
234.411	0.62
234.628	0.36
234.846	0.43
235.063	0.58
235.28	0.67
235.498	0.46
235.715	0.34
235.932	0.71
236.149	0.5
236.367	0.3
236.584	0.6
236.801	0.49
237.018	0.6
237.236	0.45
237.453	0.27
237.67	0.69
237.887	0.6
238.104	0.43
238.321	0.43
238.538	0.46
238.755	0.65
238.973	0.34
239.19	0.46
239.407	0.58
239.624	0.6
239.841	0.43
240.058	0.31
240.275	0.59
240.492	0.35
240.709	0.47
240.925	0.39
241.142	0.52
241.359	0.38
241.576	0.25
241.793	0.28
242.01	0.48
242.227	0.75
242.444	0.53
242.66	0.72
242.877	0.45
243.094	0.42
243.311	0.45
243.527	0.4
243.744	0.61
243.961	0.62
244.178	0.36
244.394	0.39
244.611	0.61
244.828	0.7
245.044	0.41
245.261	0.37
245.477	0.57
245.694	0.52
245.911	0.34
246.127	0.48
246.344	0.64
246.56	0.58
246.777	0.4
246.993	0.53
247.21	0.5
247.426	0.61
247.643	0.33
247.859	0.39
248.076	0.37
248.292	0.73
248.508	0.35
248.725	0.52
248.941	0.54
249.157	0.59
249.374	0.35
249.59	0.43
249.806	0.47
250.023	0.54
250.239	0.31
250.455	0.29
250.671	0.43
250.888	0.49
251.104	0.54
251.32	0.42
251.536	0.37
251.752	0.33
251.969	0.39
252.185	0.42
252.401	0.69
252.617	0.47
252.833	0.29
253.049	0.37
253.265	0.43
253.481	0.47
253.697	0.33
253.913	0.28
254.129	0.45
254.345	0.39
254.561	0.29
254.777	0.32
254.993	0.55
255.209	0.42
255.425	0.41
255.641	0.31
255.857	0.5
256.073	0.39
256.288	0.22
256.504	0.3
256.72	0.45
256.936	0.65
257.152	0.36
257.367	0.28
257.583	0.42
257.799	0.56
258.015	0.24
258.23	0.36
258.446	0.66
258.662	0.39
258.877	0.32
259.093	0.27
259.309	0.36
259.524	0.4
259.74	0.36
259.955	0.23
260.171	0.38
260.387	0.37
260.602	0.43
260.818	0.46
261.033	0.32
261.249	0.45
261.464	0.26
261.68	0.28
261.895	0.51
262.11	0.47
262.326	0.4
262.541	0.24
262.757	0.51
262.972	0.49
263.187	0.4
263.403	0.36
263.618	0.53
263.833	0.38
264.049	0.25
264.264	0.3
264.479	0.39
264.694	0.55
264.91	0.22
265.125	0.34
265.34	0.45
265.555	0.6
265.77	0.36
265.986	0.27
266.201	0.4
266.416	0.54
266.631	0.3
266.846	0.31
267.061	0.48
267.276	0.38
267.491	0.18
267.706	0.45
267.921	0.4
268.136	0.35
268.351	0.36
268.566	0.22
268.781	0.45
268.996	0.5
269.211	0.33
269.426	0.3
269.641	0.37
269.856	0.47
270.071	0.25
270.285	0.24
270.5	0.44
270.715	0.42
270.93	0.32
271.145	0.37
271.359	0.43
271.574	0.34
271.789	0.36
272.004	0.27
272.218	0.35
272.433	0.42
272.648	0.24
272.862	0.4
273.077	0.37
273.292	0.34
273.506	0.26
273.721	0.34
273.936	0.45
274.15	0.44
274.365	0.29
274.579	0.38
274.794	0.36
275.008	0.45
275.223	0.22
275.437	0.33
275.652	0.45
275.866	0.4
276.081	0.33
276.295	0.4
276.509	0.36
276.724	0.34
276.938	0.3
277.153	0.33
277.367	0.42
277.581	0.26
277.796	0.32
278.01	0.2
278.224	0.4
278.438	0.45
278.653	0.23
278.867	0.22
279.081	0.15
279.295	0.33
279.51	0.28
279.724	0.2
279.938	0.39
280.152	0.32
280.366	0.28
280.58	0.35
280.794	0.43
281.008	0.46
281.222	0.39
281.437	0.48
281.651	0.32
281.865	0.4
282.079	0.29
282.293	0.18
282.507	0.28
282.721	0.32
282.935	0.33
283.148	0.22
283.362	0.29
283.576	0.27
283.79	0.28
284.004	0.21
284.218	0.38
284.432	0.23
284.646	0.24
284.859	0.27
285.073	0.28
285.287	0.34
285.501	0.28
285.714	0.25
285.928	0.33
286.142	0.33
286.356	0.26
286.569	0.3
286.783	0.38
286.997	0.41
287.21	0.32
287.424	0.27
287.637	0.27
287.851	0.28
288.065	0.37
288.278	0.33
288.492	0.33
288.705	0.28
288.919	0.32
289.132	0.2
289.346	0.32
289.559	0.23
289.773	0.24
289.986	0.27
290.2	0.29
290.413	0.35
290.626	0.25
290.84	0.28
291.053	0.32
291.267	0.37
291.48	0.25
291.693	0.29
291.906	0.25
292.12	0.26
292.333	0.24
292.546	0.26
292.76	0.41
292.973	0.33
293.186	0.37
293.399	0.24
293.612	0.33
293.826	0.32
294.039	0.28
294.252	0.24
294.465	0.36
294.678	0.28
294.891	0.27
295.104	0.24
295.317	0.3
295.53	0.31
295.743	0.28
295.956	0.24
296.169	0.43
296.382	0.29
296.595	0.28
296.808	0.21
297.021	0.36
297.234	0.36
297.447	0.23
297.66	0.26
297.873	0.39
298.086	0.35
298.299	0.23
298.511	0.14
298.724	0.27
298.937	0.24
299.15	0.24
299.363	0.25
299.575	0.29
299.788	0.28
300.001	0.22
300.213	0.27
300.426	0.24
300.639	0.23
300.852	0.21
301.064	0.26
301.277	0.33
301.489	0.32
301.702	0.29
301.915	0.23
302.127	0.27
302.34	0.29
302.552	0.28
302.765	0.19
302.977	0.37
303.19	0.26
303.402	0.24
303.615	0.21
303.827	0.27
304.04	0.27
304.252	0.33
304.464	0.28
304.677	0.4
304.889	0.37
305.102	0.22
305.314	0.22
305.526	0.3
305.739	0.32
305.951	0.21
306.163	0.21
306.375	0.38
306.588	0.26
306.8	0.21
307.012	0.22
307.224	0.29
307.436	0.33
307.649	0.14
307.861	0.25
308.073	0.33
308.285	0.2
308.497	0.2
308.709	0.22
308.921	0.28
309.133	0.33
309.346	0.26
309.558	0.23
309.77	0.3
309.982	0.35
310.194	0.27
310.406	0.23
310.617	0.33
310.829	0.27
311.041	0.3
311.253	0.19
311.465	0.29
311.677	0.29
311.889	0.2
312.101	0.22
312.313	0.31
312.524	0.39
312.736	0.19
312.948	0.26
313.16	0.38
313.372	0.29
313.583	0.3
313.795	0.26
314.007	0.23
314.218	0.33
314.43	0.26
314.642	0.21
314.853	0.19
315.065	0.31
315.277	0.23
315.488	0.26
315.7	0.33
315.912	0.33
316.123	0.24
316.335	0.23
316.546	0.4
316.758	0.28
316.969	0.19
317.181	0.25
317.392	0.27
317.604	0.36
317.815	0.19
318.026	0.27
318.238	0.23
318.449	0.29
318.661	0.17
318.872	0.21
319.083	0.21
319.295	0.28
319.506	0.25
319.717	0.27
319.929	0.3
320.14	0.25
320.351	0.24
320.562	0.21
320.774	0.26
320.985	0.3
321.196	0.21
321.407	0.19
321.618	0.33
321.829	0.29
322.041	0.27
322.252	0.29
322.463	0.39
322.674	0.32
322.885	0.19
323.096	0.27
323.307	0.3
323.518	0.31
323.729	0.25
323.94	0.22
324.151	0.27
324.362	0.3
324.573	0.27
324.784	0.24
324.995	0.32
325.206	0.31
325.417	0.25
325.628	0.24
325.838	0.27
326.049	0.26
326.26	0.3
326.471	0.21
326.682	0.33
326.892	0.28
327.103	0.18
327.314	0.23
327.525	0.32
327.735	0.32
327.946	0.25
328.157	0.18
328.368	0.4
328.578	0.25
328.789	0.35
328.999	0.23
329.21	0.25
329.421	0.31
329.631	0.23
329.842	0.19
330.052	0.28
330.263	0.32
330.473	0.28
330.684	0.2
330.894	0.27
331.105	0.27
331.315	0.29
331.526	0.13
331.736	0.39
331.947	0.28
332.157	0.34
332.367	0.15
332.578	0.31
332.788	0.39
332.999	0.26
333.209	0.25
333.419	0.18
333.629	0.28
333.84	0.28
334.05	0.27
334.26	0.35
334.47	0.29
334.681	0.29
334.891	0.24
335.101	0.34
335.311	0.38
335.521	0.25
335.732	0.23
335.942	0.33
336.152	0.29
336.362	0.3
336.572	0.24
336.782	0.31
336.992	0.22
337.202	0.27
337.412	0.25
337.622	0.28
337.832	0.28
338.042	0.27
338.252	0.22
338.462	0.25
338.672	0.26
338.882	0.29
339.092	0.27
339.302	0.37
339.511	0.34
339.721	0.18
339.931	0.2
340.141	0.35
340.351	0.29
340.561	0.27
340.77	0.3
340.98	0.29
341.19	0.29
341.4	0.24
341.609	0.22
341.819	0.24
342.029	0.23
342.238	0.27
342.448	0.24
342.658	0.25
342.867	0.23
343.077	0.27
343.286	0.23
343.496	0.32
343.706	0.32
343.915	0.16
344.125	0.24
344.334	0.28
344.544	0.18
344.753	0.21
344.963	0.22
345.172	0.22
345.381	0.21
345.591	0.18
345.8	0.25
346.01	0.31
346.219	0.29
346.428	0.12
346.638	0.26
346.847	0.25
347.056	0.33
347.266	0.22
347.475	0.24
347.684	0.28
347.893	0.26
348.103	0.26
348.312	0.28
348.521	0.25
348.73	0.26
348.94	0.26
349.149	0.21
349.358	0.25
349.567	0.18
349.776	0.16
349.985	0.25
350.194	0.31
350.403	0.31
350.612	0.17
350.821	0.17
351.03	0.28
351.239	0.19
351.448	0.25
351.657	0.25
351.866	0.36
352.075	0.25
352.284	0.33
352.493	0.22
352.702	0.34
352.911	0.26
353.12	0.24
353.329	0.24
353.538	0.29
353.746	0.26
353.955	0.19
354.164	0.25
354.373	0.21
354.582	0.29
354.79	0.24
354.999	0.26
355.208	0.24
355.416	0.34
355.625	0.24
355.834	0.24
356.042	0.29
356.251	0.21
356.46	0.21
356.668	0.27
356.877	0.35
357.085	0.35
357.294	0.17
357.503	0.27
357.711	0.28
357.92	0.41
358.128	0.26
358.337	0.21
358.545	0.26
358.754	0.21
358.962	0.31
359.17	0.23
359.379	0.26
359.587	0.27
359.796	0.23
360.004	0.32
360.212	0.29
360.421	0.32
360.629	0.25
360.837	0.22
361.046	0.32
361.254	0.41
361.462	0.24
361.67	0.22
361.879	0.33
362.087	0.32
362.295	0.22
362.503	0.23
362.711	0.16
362.92	0.21
363.128	0.21
363.336	0.21
363.544	0.21
363.752	0.25
363.96	0.23
364.168	0.23
364.376	0.27
364.584	0.23
364.792	0.31
365	0.29
365.208	0.28
365.416	0.31
365.624	0.27
365.832	0.19
366.04	0.33
366.248	0.24
366.456	0.29
366.664	0.28
366.872	0.25
367.079	0.24
367.287	0.26
367.495	0.26
367.703	0.23
367.911	0.22
368.118	0.23
368.326	0.24
368.534	0.23
368.742	0.31
368.949	0.22
369.157	0.24
369.365	0.29
369.572	0.21
369.78	0.19
369.988	0.28
370.195	0.26
370.403	0.28
370.61	0.2
370.818	0.27
371.026	0.33
371.233	0.25
371.441	0.29
371.648	0.23
371.856	0.28
372.063	0.28
372.271	0.26
372.478	0.25
372.685	0.24
372.893	0.33
373.1	0.26
373.308	0.21
373.515	0.38
373.722	0.35
373.93	0.27
374.137	0.3
374.344	0.38
374.552	0.3
374.759	0.32
374.966	0.25
375.173	0.26
375.381	0.37
375.588	0.24
375.795	0.2
376.002	0.28
376.209	0.26
376.417	0.25
376.624	0.3
376.831	0.33
377.038	0.3
377.245	0.14
377.452	0.23
377.659	0.26
377.866	0.21
378.073	0.24
378.28	0.23
378.487	0.34
378.694	0.34
378.901	0.25
379.108	0.24
379.315	0.33
379.522	0.4
379.729	0.24
379.936	0.23
380.143	0.26
380.35	0.27
380.557	0.29
380.763	0.3
380.97	0.28
381.177	0.3
381.384	0.29
381.591	0.29
381.797	0.27
382.004	0.34
382.211	0.3
382.418	0.23
382.624	0.33
382.831	0.31
383.038	0.24
383.244	0.29
383.451	0.29
383.658	0.32
383.864	0.25
384.071	0.23
384.277	0.37
384.484	0.26
384.69	0.36
384.897	0.21
385.103	0.25
385.31	0.27
385.516	0.31
385.723	0.21
385.929	0.29
386.136	0.21
386.342	0.35
386.549	0.26
386.755	0.32
386.961	0.32
387.168	0.25
387.374	0.28
387.58	0.35
387.787	0.3
387.993	0.28
388.199	0.32
388.406	0.23
388.612	0.27
388.818	0.23
389.024	0.27
389.231	0.3
389.437	0.38
389.643	0.33
389.849	0.25
390.055	0.28
390.261	0.33
390.467	0.33
390.674	0.27
390.88	0.31
391.086	0.34
391.292	0.26
391.498	0.3
391.704	0.32
391.91	0.3
392.116	0.29
392.322	0.18
392.528	0.36
392.734	0.3
392.94	0.28
393.146	0.29
393.352	0.31
393.557	0.3
393.763	0.31
393.969	0.32
394.175	0.34
394.381	0.34
394.587	0.27
394.792	0.3
394.998	0.4
395.204	0.37
395.41	0.29
395.615	0.31
395.821	0.33
396.027	0.37
396.233	0.31
396.438	0.37
396.644	0.44
396.85	0.33
397.055	0.32
397.261	0.34
397.466	0.33
397.672	0.37
397.878	0.4
398.083	0.42
398.289	0.31
398.494	0.43
398.7	0.4
398.905	0.27
399.111	0.43
399.316	0.26
399.522	0.36
399.727	0.35
399.932	0.32
400.138	0.35
400.343	0.39
400.549	0.32
400.754	0.36
400.959	0.38
401.165	0.33
401.37	0.38
401.575	0.31
401.78	0.38
401.986	0.36
402.191	0.37
402.396	0.36
402.601	0.44
402.807	0.47
403.012	0.37
403.217	0.44
403.422	0.45
403.627	0.48
403.832	0.39
404.037	0.44
404.243	0.42
404.448	0.43
404.653	0.41
404.858	0.47
405.063	0.49
405.268	0.4
405.473	0.37
405.678	0.4
405.883	0.67
406.088	0.53
406.293	0.43
406.498	0.5
406.703	0.49
406.907	0.52
407.112	0.38
407.317	0.57
407.522	0.53
407.727	0.5
407.932	0.56
408.136	0.67
408.341	0.53
408.546	0.58
408.751	0.56
408.956	0.6
409.16	0.67
409.365	0.65
409.57	0.62
409.774	0.63
409.979	0.72
410.184	0.66
410.388	0.6
410.593	0.74
410.798	0.78
411.002	0.71
411.207	0.75
411.411	0.83
411.616	0.72
411.82	0.8
412.025	0.8
412.229	0.83
412.434	0.99
412.638	0.92
412.843	0.88
413.047	0.96
413.252	0.97
413.456	1.03
413.66	1.1
413.865	1.02
414.069	1.15
414.273	1.08
414.478	1.04
414.682	1.15
414.886	1.17
415.091	1.14
415.295	1.2
415.499	1.4
415.703	1.31
415.908	1.44
416.112	1.3
416.316	1.54
416.52	1.49
416.724	1.5
416.929	1.53
417.133	1.82
417.337	1.67
417.541	1.75
417.745	1.79
417.949	1.94
418.153	1.91
418.357	1.98
418.561	2.15
418.765	2.15
418.969	2.31
419.173	2.36
419.377	2.29
419.581	2.62
419.785	2.59
419.989	2.59
420.193	2.72
420.397	2.73
420.601	2.95
420.804	3
421.008	3.02
421.212	3.1
421.416	3.09
421.62	3.19
421.823	3.31
422.027	3.46
422.231	3.4
422.435	3.3
422.638	3.49
422.842	3.52
423.046	3.63
423.249	3.76
423.453	3.85
423.657	4.02
423.86	4.08
424.064	4.17
424.268	4.4
424.471	4.32
424.675	4.54
424.878	4.7
425.082	4.68
425.285	4.99
425.489	4.94
425.692	5.06
425.896	5.11
426.099	5.27
426.303	5.45
426.506	5.5
426.71	5.76
426.913	6
427.116	6.15
427.32	6.18
427.523	6.28
427.726	6.55
427.93	6.66
428.133	7.02
428.336	6.99
428.54	7.18
428.743	7.46
428.946	7.59
429.149	7.71
429.353	7.61
429.556	7.72
429.759	7.84
429.962	7.97
430.165	8.06
430.368	7.74
430.571	7.82
430.775	7.9
430.978	7.88
431.181	7.97
431.384	8.06
431.587	8.17
431.79	8.51
431.993	8.44
432.196	8.71
432.399	9.06
432.602	9.32
432.805	9.36
433.008	9.9
433.211	9.73
433.414	10.08
433.616	10.1
433.819	9.95
434.022	10.22
434.225	10.38
434.428	10.59
434.631	10.98
434.833	10.65
435.036	10.89
435.239	11.15
435.442	11.06
435.645	11.32
435.847	11.39
436.05	11.61
436.253	11.9
436.455	11.84
436.658	11.83
436.861	12.18
437.063	12.23
437.266	12.14
437.468	12.63
437.671	12.87
437.874	12.93
438.076	12.75
438.279	13.31
438.481	13.38
438.684	14.06
438.886	13.57
439.089	13.96
439.291	13.93
439.494	14.3
439.696	14.51
439.899	14.88
440.101	15.43
440.303	15.56
440.506	16.19
440.708	15.95
440.91	16.28
441.113	16.5
441.315	16.63
441.517	16.5
441.72	17.07
441.922	16.53
442.124	16.49
442.326	16.91
442.529	17.15
442.731	17.18
442.933	17.42
443.135	17.09
443.337	17.13
443.539	17.73
443.742	17.29
443.944	18.02
444.146	17.73
444.348	17.83
444.55	17.64
444.752	17.94
444.954	17.9
445.156	17.71
445.358	18.13
445.56	18.51
445.762	18.23
445.964	18.52
446.166	18.36
446.368	18.44
446.57	18.27
446.772	17.93
446.974	17.78
447.175	18.07
447.377	17.91
447.579	18.15
447.781	17.91
447.983	17.67
448.184	17.4
448.386	17.64
448.588	17.11
448.79	17.17
448.991	17.5
449.193	17.51
449.395	16.88
449.597	16.42
449.798	16.4
450	16.06
450.202	15.83
450.403	15.92
450.605	15.9
450.806	15.35
451.008	15.39
451.21	15.14
451.411	14.66
451.613	13.96
451.814	14.29
452.016	14.14
452.217	13.54
452.419	13.46
452.62	13.18
452.821	12.8
453.023	12.71
453.224	12.38
453.426	12
453.627	11.31
453.828	11.4
454.03	11.56
454.231	11.48
454.432	11.34
454.634	10.98
454.835	10.78
455.036	10.6
455.238	10.3
455.439	10.04
455.64	9.75
455.841	9.6
456.042	9.73
456.244	9.29
456.445	9.04
456.646	8.74
456.847	8.78
457.048	8.65
457.249	8.68
457.45	8.55
457.651	7.89
457.852	7.75
458.054	7.5
458.255	7.37
458.456	7.44
458.657	7.34
458.858	6.81
459.058	6.76
459.259	6.85
459.46	6.52
459.661	6.54
459.862	6.56
460.063	6.49
460.264	6.41
460.465	6.17
460.666	6.31
460.866	5.87
461.067	5.64
461.268	5.73
461.469	5.55
461.67	5.56
461.87	5.41
462.071	5.4
462.272	5.35
462.473	5.2
462.673	5.46
462.874	5.23
463.075	5.2
463.275	5.19
463.476	5.28
463.676	5.22
463.877	5.04
464.078	5.01
464.278	5.08
464.479	4.98
464.679	4.91
464.88	4.73
465.08	4.77
465.281	4.62
465.481	4.44
465.682	4.19
465.882	4.24
466.083	4.19
466.283	4.1
466.483	4
466.684	3.85
466.884	3.7
467.085	3.78
467.285	3.82
467.485	3.76
467.686	3.59
467.886	3.5
468.086	3.4
468.286	3.46
468.487	3.51
468.687	3.4
468.887	3.3
469.087	3.44
469.287	3.4
469.488	3.15
469.688	3.32
469.888	3.29
470.088	3.24
470.288	3.14
470.488	3.22
470.688	2.95
470.888	2.94
471.088	2.72
471.288	2.9
471.488	2.84
471.688	2.85
471.888	2.72
472.088	2.97
472.288	2.81
472.488	2.7
472.688	2.64
472.888	2.69
473.088	2.67
473.288	2.54
473.488	2.5
473.688	2.72
473.887	2.55
474.087	2.51
474.287	2.49
474.487	2.46
474.687	2.5
474.886	2.42
475.086	2.34
475.286	2.4
475.486	2.33
475.685	2.28
475.885	2.25
476.085	2.34
476.284	2.33
476.484	2.28
476.684	2.29
476.883	2.37
477.083	2.22
477.282	2.17
477.482	2.26
477.681	2.22
477.881	2.12
478.08	2.14
478.28	2.07
478.479	2.1
478.679	2.19
478.878	2.07
479.078	2.08
479.277	2.12
479.477	2.09
479.676	2.08
479.875	2.04
480.075	1.95
480.274	2.06
480.473	2.12
480.673	2.08
480.872	2.12
481.071	2.06
481.271	2.12
481.47	2.01
481.669	2.03
481.868	2.01
482.067	2.06
482.267	1.91
482.466	1.97
482.665	1.95
482.864	2.01
483.063	1.94
483.262	2.1
483.461	2.13
483.661	2.11
483.86	2.01
484.059	2.08
484.258	2.07
484.457	2.07
484.656	2.07
484.855	2.13
485.054	1.94
485.253	2.01
485.452	1.98
485.651	2.09
485.849	2.04
486.048	2.03
486.247	2.05
486.446	2.14
486.645	2.05
486.844	2.09
487.043	2.08
487.241	2.13
487.44	2.12
487.639	2.21
487.838	2.1
488.037	2.12
488.235	2.25
488.434	2.18
488.633	2.05
488.831	2.26
489.03	2.3
489.229	2.23
489.427	2.21
489.626	2.31
489.825	2.33
490.023	2.33
490.222	2.26
490.42	2.33
490.619	2.42
490.817	2.36
491.016	2.37
491.214	2.43
491.413	2.43
491.611	2.36
491.81	2.44
492.008	2.46
492.207	2.56
492.405	2.54
492.604	2.5
492.802	2.59
493	2.61
493.199	2.65
493.397	2.66
493.595	2.75
493.794	2.65
493.992	2.79
494.19	2.72
494.388	2.82
494.587	2.77
494.785	2.81
494.983	2.76
495.181	2.87
495.379	2.94
495.578	3
495.776	2.98
495.974	2.99
496.172	3
496.37	3.09
496.568	3.13
496.766	3.09
496.964	3.23
497.162	3.15
497.36	3.2
497.558	3.24
497.756	3.3
497.954	3.28
498.152	3.36
498.35	3.43
498.548	3.37
498.746	3.42
498.944	3.4
499.142	3.44
499.34	3.55
499.538	3.61
499.736	3.54
499.933	3.63
500.131	3.68
500.329	3.79
500.527	3.8
500.725	3.85
500.922	3.83
501.12	3.86
501.318	3.93
501.516	3.94
501.713	3.99
501.911	3.95
502.109	3.97
502.306	4.08
502.504	4.04
502.701	4.08
502.899	4.18
