Data from Apollo_Calib_20240827__AbsoluteIrradiance__47__23-56-02-564.txt Node

Date: Tue Aug 27 23:56:02 BST 2024
User: biology
Spectrometer: FLMT08252
Trigger mode: 0
Integration Time (sec): 5.000000E-1
Scans to average: 5
Electric dark correction enabled: true
Nonlinearity correction enabled: false
Boxcar width: 0
XAxis mode: Wavelengths
Number of Pixels in Spectrum: 3648
>>>>>Begin Spectral Data<<<<<
179.588	-0
179.809	-0
180.03	-0
180.251	-0
180.473	-0
180.694	0
180.915	0
181.136	-0
181.357	0
181.578	-0
181.799	0
182.02	-0
182.241	-0
182.462	-0
182.683	0
182.904	-0
183.125	-0
183.346	0
183.567	0
183.788	0
184.009	0
184.23	0
184.451	0
184.672	0
184.892	0
185.113	0
185.334	0
185.555	0
185.776	0
185.996	0
186.217	0
186.438	0
186.659	0
186.879	0
187.1	0
187.321	0
187.541	0
187.762	0
187.983	0
188.203	0
188.424	0
188.644	0
188.865	0
189.086	0
189.306	0
189.527	0
189.747	0
189.968	0
190.188	0
190.409	0
190.629	0
190.849	0
191.07	0
191.29	0
191.511	0
191.731	0
191.951	0
192.172	0
192.392	0
192.612	0
192.833	0
193.053	0
193.273	0
193.493	0
193.714	0
193.934	0
194.154	0
194.374	0
194.594	0
194.815	0
195.035	0
195.255	0
195.475	0
195.695	0
195.915	0
196.135	0
196.355	0
196.575	0
196.795	0
197.015	0
197.235	0
197.455	0
197.675	0
197.895	0
198.115	0
198.335	0
198.555	0
198.775	0
198.995	0
199.214	0
199.434	0
199.654	0
199.874	0
200.094	3.61
200.313	2.66
200.533	1.9
200.753	1.77
200.973	3.17
201.192	2.47
201.412	1.79
201.632	1.88
201.851	3.41
202.071	1.91
202.291	2.3
202.51	1.83
202.73	2.58
202.95	1.67
203.169	1.48
203.389	1.57
203.608	2.16
203.828	1.28
204.047	1.81
204.267	2.5
204.486	2.22
204.706	2.15
204.925	1.79
205.145	1.23
205.364	1.9
205.583	2.38
205.803	1.31
206.022	1.48
206.242	1.53
206.461	1.73
206.68	1.03
206.9	1.64
207.119	2.44
207.338	2
207.557	1.27
207.777	1.34
207.996	1.31
208.215	1.69
208.434	1.09
208.654	0.93
208.873	1.28
209.092	1.64
209.311	1.02
209.53	1.11
209.749	0.87
209.968	0.99
210.187	1.16
210.407	0.77
210.626	1.19
210.845	1.41
211.064	1.27
211.283	1.26
211.502	1.67
211.721	0.91
211.94	0.93
212.159	1.16
212.377	1.4
212.596	1.36
212.815	1.03
213.034	1.48
213.253	1.45
213.472	1.45
213.691	1.02
213.91	0.85
214.128	0.75
214.347	1.08
214.566	0.81
214.785	0.7
215.003	1.22
215.222	1.08
215.441	0.89
215.66	0.65
215.878	1.02
216.097	1.14
216.316	0.75
216.534	0.78
216.753	0.87
216.972	1.01
217.19	0.85
217.409	0.72
217.627	0.73
217.846	0.93
218.064	0.77
218.283	0.65
218.501	1.23
218.72	1.32
218.938	0.56
219.157	0.77
219.375	0.97
219.594	1.01
219.812	0.51
220.031	0.49
220.249	1.13
220.467	1.14
220.686	0.51
220.904	0.46
221.122	0.69
221.341	1.04
221.559	0.78
221.777	0.52
221.995	0.63
222.214	0.8
222.432	0.67
222.65	0.68
222.868	0.79
223.086	0.82
223.305	0.83
223.523	0.73
223.741	0.98
223.959	0.58
224.177	0.38
224.395	0.55
224.613	0.89
224.831	0.9
225.049	0.46
225.267	0.69
225.485	0.79
225.703	0.66
225.921	0.58
226.139	0.61
226.357	0.78
226.575	0.73
226.793	0.47
227.011	1.21
227.229	0.85
227.447	0.82
227.665	0.5
227.883	0.35
228.1	0.72
228.318	0.84
228.536	0.38
228.754	0.52
228.972	0.65
229.189	0.71
229.407	0.61
229.625	0.56
229.843	0.68
230.06	0.74
230.278	0.51
230.496	0.6
230.713	0.65
230.931	0.77
231.149	0.49
231.366	0.39
231.584	0.59
231.801	0.84
232.019	0.48
232.236	0.53
232.454	0.49
232.671	0.63
232.889	0.52
233.106	0.37
233.324	0.52
233.541	0.59
233.759	0.5
233.976	0.4
234.194	0.5
234.411	0.54
234.628	0.46
234.846	0.46
235.063	0.53
235.28	0.47
235.498	0.45
235.715	0.43
235.932	0.71
236.149	0.52
236.367	0.39
236.584	0.5
236.801	0.5
237.018	0.6
237.236	0.51
237.453	0.4
237.67	0.58
237.887	0.36
238.104	0.4
238.321	0.3
238.538	0.45
238.755	0.66
238.973	0.24
239.19	0.51
239.407	0.57
239.624	0.53
239.841	0.32
240.058	0.33
240.275	0.59
240.492	0.37
240.709	0.5
240.925	0.44
241.142	0.44
241.359	0.36
241.576	0.35
241.793	0.43
242.01	0.41
242.227	0.68
242.444	0.54
242.66	0.55
242.877	0.46
243.094	0.4
243.311	0.52
243.527	0.46
243.744	0.56
243.961	0.53
244.178	0.35
244.394	0.39
244.611	0.6
244.828	0.56
245.044	0.42
245.261	0.41
245.477	0.42
245.694	0.5
245.911	0.42
246.127	0.47
246.344	0.64
246.56	0.55
246.777	0.4
246.993	0.44
247.21	0.46
247.426	0.46
247.643	0.33
247.859	0.4
248.076	0.42
248.292	0.62
248.508	0.35
248.725	0.39
248.941	0.45
249.157	0.63
249.374	0.35
249.59	0.42
249.806	0.43
250.023	0.58
250.239	0.27
250.455	0.46
250.671	0.4
250.888	0.45
251.104	0.47
251.32	0.35
251.536	0.36
251.752	0.36
251.969	0.4
252.185	0.42
252.401	0.58
252.617	0.49
252.833	0.35
253.049	0.46
253.265	0.41
253.481	0.43
253.697	0.33
253.913	0.28
254.129	0.44
254.345	0.4
254.561	0.36
254.777	0.32
254.993	0.47
255.209	0.4
255.425	0.37
255.641	0.31
255.857	0.55
256.073	0.34
256.288	0.3
256.504	0.34
256.72	0.37
256.936	0.53
257.152	0.4
257.367	0.34
257.583	0.4
257.799	0.55
258.015	0.27
258.23	0.35
258.446	0.58
258.662	0.36
258.877	0.3
259.093	0.29
259.309	0.34
259.524	0.36
259.74	0.37
259.955	0.23
260.171	0.43
260.387	0.31
260.602	0.46
260.818	0.42
261.033	0.25
261.249	0.32
261.464	0.27
261.68	0.28
261.895	0.43
262.11	0.46
262.326	0.3
262.541	0.32
262.757	0.39
262.972	0.35
263.187	0.39
263.403	0.37
263.618	0.39
263.833	0.34
264.049	0.42
264.264	0.4
264.479	0.41
264.694	0.47
264.91	0.28
265.125	0.38
265.34	0.43
265.555	0.51
265.77	0.38
265.986	0.34
266.201	0.46
266.416	0.52
266.631	0.29
266.846	0.36
267.061	0.34
267.276	0.39
267.491	0.18
267.706	0.34
267.921	0.46
268.136	0.31
268.351	0.42
268.566	0.3
268.781	0.41
268.996	0.34
269.211	0.32
269.426	0.28
269.641	0.3
269.856	0.35
270.071	0.27
270.285	0.25
270.5	0.35
270.715	0.39
270.93	0.31
271.145	0.37
271.359	0.43
271.574	0.28
271.789	0.34
272.004	0.38
272.218	0.26
272.433	0.38
272.648	0.28
272.862	0.37
273.077	0.31
273.292	0.33
273.506	0.26
273.721	0.36
273.936	0.36
274.15	0.39
274.365	0.29
274.579	0.41
274.794	0.34
275.008	0.39
275.223	0.23
275.437	0.33
275.652	0.45
275.866	0.35
276.081	0.34
276.295	0.37
276.509	0.34
276.724	0.33
276.938	0.39
277.153	0.31
277.367	0.36
277.581	0.29
277.796	0.35
278.01	0.31
278.224	0.41
278.438	0.5
278.653	0.26
278.867	0.27
279.081	0.19
279.295	0.27
279.51	0.34
279.724	0.21
279.938	0.38
280.152	0.37
280.366	0.23
280.58	0.34
280.794	0.39
281.008	0.34
281.222	0.34
281.437	0.47
281.651	0.31
281.865	0.41
282.079	0.29
282.293	0.14
282.507	0.27
282.721	0.3
282.935	0.26
283.148	0.23
283.362	0.21
283.576	0.21
283.79	0.29
284.004	0.31
284.218	0.34
284.432	0.27
284.646	0.29
284.859	0.28
285.073	0.26
285.287	0.3
285.501	0.25
285.714	0.26
285.928	0.33
286.142	0.28
286.356	0.26
286.569	0.26
286.783	0.41
286.997	0.31
287.21	0.28
287.424	0.27
287.637	0.29
287.851	0.29
288.065	0.39
288.278	0.29
288.492	0.3
288.705	0.31
288.919	0.33
289.132	0.19
289.346	0.32
289.559	0.17
289.773	0.23
289.986	0.24
290.2	0.27
290.413	0.37
290.626	0.24
290.84	0.22
291.053	0.26
291.267	0.34
291.48	0.26
291.693	0.28
291.906	0.23
292.12	0.29
292.333	0.2
292.546	0.28
292.76	0.42
292.973	0.35
293.186	0.29
293.399	0.22
293.612	0.31
293.826	0.28
294.039	0.27
294.252	0.26
294.465	0.28
294.678	0.29
294.891	0.25
295.104	0.23
295.317	0.28
295.53	0.29
295.743	0.23
295.956	0.25
296.169	0.34
296.382	0.31
296.595	0.27
296.808	0.19
297.021	0.31
297.234	0.28
297.447	0.26
297.66	0.27
297.873	0.37
298.086	0.34
298.299	0.26
298.511	0.22
298.724	0.29
298.937	0.24
299.15	0.24
299.363	0.23
299.575	0.29
299.788	0.29
300.001	0.23
300.213	0.19
300.426	0.3
300.639	0.24
300.852	0.17
301.064	0.23
301.277	0.36
301.489	0.29
301.702	0.3
301.915	0.27
302.127	0.26
302.34	0.3
302.552	0.31
302.765	0.2
302.977	0.31
303.19	0.21
303.402	0.24
303.615	0.25
303.827	0.23
304.04	0.26
304.252	0.32
304.464	0.23
304.677	0.34
304.889	0.26
305.102	0.25
305.314	0.2
305.526	0.31
305.739	0.23
305.951	0.23
306.163	0.25
306.375	0.39
306.588	0.24
306.8	0.27
307.012	0.17
307.224	0.31
307.436	0.29
307.649	0.19
307.861	0.26
308.073	0.28
308.285	0.27
308.497	0.2
308.709	0.23
308.921	0.3
309.133	0.27
309.346	0.25
309.558	0.3
309.77	0.29
309.982	0.35
310.194	0.29
310.406	0.17
310.617	0.28
310.829	0.29
311.041	0.31
311.253	0.21
311.465	0.3
311.677	0.25
311.889	0.23
312.101	0.21
312.313	0.31
312.524	0.32
312.736	0.2
312.948	0.24
313.16	0.37
313.372	0.24
313.583	0.26
313.795	0.27
314.007	0.21
314.218	0.3
314.43	0.25
314.642	0.23
314.853	0.14
315.065	0.25
315.277	0.24
315.488	0.25
315.7	0.3
315.912	0.27
316.123	0.22
316.335	0.21
316.546	0.37
316.758	0.22
316.969	0.21
317.181	0.22
317.392	0.24
317.604	0.29
317.815	0.19
318.026	0.18
318.238	0.23
318.449	0.3
318.661	0.17
318.872	0.21
319.083	0.19
319.295	0.31
319.506	0.25
319.717	0.28
319.929	0.31
320.14	0.27
320.351	0.21
320.562	0.18
320.774	0.26
320.985	0.28
321.196	0.22
321.407	0.2
321.618	0.27
321.829	0.27
322.041	0.33
322.252	0.27
322.463	0.27
322.674	0.28
322.885	0.17
323.096	0.23
323.307	0.21
323.518	0.26
323.729	0.22
323.94	0.24
324.151	0.19
324.362	0.25
324.573	0.28
324.784	0.2
324.995	0.28
325.206	0.26
325.417	0.26
325.628	0.23
325.838	0.29
326.049	0.29
326.26	0.26
326.471	0.22
326.682	0.27
326.892	0.27
327.103	0.19
327.314	0.21
327.525	0.3
327.735	0.25
327.946	0.28
328.157	0.23
328.368	0.31
328.578	0.21
328.789	0.3
328.999	0.25
329.21	0.25
329.421	0.27
329.631	0.22
329.842	0.19
330.052	0.3
330.263	0.25
330.473	0.29
330.684	0.24
330.894	0.26
331.105	0.26
331.315	0.29
331.526	0.16
331.736	0.32
331.947	0.3
332.157	0.23
332.367	0.17
332.578	0.28
332.788	0.29
332.999	0.26
333.209	0.24
333.419	0.2
333.629	0.31
333.84	0.28
334.05	0.24
334.26	0.32
334.47	0.33
334.681	0.27
334.891	0.22
335.101	0.27
335.311	0.29
335.521	0.23
335.732	0.2
335.942	0.29
336.152	0.25
336.362	0.27
336.572	0.29
336.782	0.28
336.992	0.17
337.202	0.21
337.412	0.23
337.622	0.28
337.832	0.26
338.042	0.24
338.252	0.19
338.462	0.23
338.672	0.22
338.882	0.28
339.092	0.25
339.302	0.3
339.511	0.29
339.721	0.24
339.931	0.2
340.141	0.29
340.351	0.34
340.561	0.24
340.77	0.27
340.98	0.26
341.19	0.28
341.4	0.23
341.609	0.2
341.819	0.22
342.029	0.22
342.238	0.28
342.448	0.21
342.658	0.25
342.867	0.22
343.077	0.23
343.286	0.24
343.496	0.26
343.706	0.29
343.915	0.2
344.125	0.16
344.334	0.28
344.544	0.19
344.753	0.23
344.963	0.22
345.172	0.22
345.381	0.16
345.591	0.18
345.8	0.23
346.01	0.3
346.219	0.26
346.428	0.15
346.638	0.24
346.847	0.2
347.056	0.31
347.266	0.22
347.475	0.3
347.684	0.25
347.893	0.26
348.103	0.24
348.312	0.22
348.521	0.2
348.73	0.27
348.94	0.25
349.149	0.23
349.358	0.25
349.567	0.22
349.776	0.16
349.985	0.23
350.194	0.31
350.403	0.28
350.612	0.18
350.821	0.23
351.03	0.25
351.239	0.22
351.448	0.26
351.657	0.18
351.866	0.34
352.075	0.21
352.284	0.29
352.493	0.16
352.702	0.3
352.911	0.23
353.12	0.24
353.329	0.27
353.538	0.26
353.746	0.25
353.955	0.23
354.164	0.22
354.373	0.24
354.582	0.25
354.79	0.28
354.999	0.29
355.208	0.2
355.416	0.29
355.625	0.22
355.834	0.22
356.042	0.22
356.251	0.21
356.46	0.24
356.668	0.24
356.877	0.31
357.085	0.26
357.294	0.18
357.503	0.24
357.711	0.23
357.92	0.37
358.128	0.24
358.337	0.22
358.545	0.29
358.754	0.24
358.962	0.28
359.17	0.19
359.379	0.25
359.587	0.3
359.796	0.23
360.004	0.28
360.212	0.25
360.421	0.29
360.629	0.23
360.837	0.26
361.046	0.28
361.254	0.32
361.462	0.23
361.67	0.2
361.879	0.28
362.087	0.29
362.295	0.26
362.503	0.24
362.711	0.19
362.92	0.29
363.128	0.19
363.336	0.2
363.544	0.13
363.752	0.26
363.96	0.22
364.168	0.2
364.376	0.26
364.584	0.25
364.792	0.29
365	0.24
365.208	0.27
365.416	0.27
365.624	0.28
365.832	0.22
366.04	0.28
366.248	0.22
366.456	0.24
366.664	0.27
366.872	0.24
367.079	0.23
367.287	0.23
367.495	0.24
367.703	0.25
367.911	0.25
368.118	0.23
368.326	0.26
368.534	0.18
368.742	0.28
368.949	0.16
369.157	0.2
369.365	0.27
369.572	0.18
369.78	0.22
369.988	0.31
370.195	0.25
370.403	0.29
370.61	0.2
370.818	0.24
371.026	0.28
371.233	0.2
371.441	0.28
371.648	0.26
371.856	0.26
372.063	0.28
372.271	0.24
372.478	0.21
372.685	0.26
372.893	0.31
373.1	0.27
373.308	0.23
373.515	0.33
373.722	0.26
373.93	0.24
374.137	0.28
374.344	0.35
374.552	0.26
374.759	0.32
374.966	0.24
375.173	0.2
375.381	0.3
375.588	0.26
375.795	0.17
376.002	0.25
376.209	0.24
376.417	0.2
376.624	0.26
376.831	0.26
377.038	0.23
377.245	0.16
377.452	0.25
377.659	0.28
377.866	0.24
378.073	0.23
378.28	0.25
378.487	0.32
378.694	0.29
378.901	0.25
379.108	0.22
379.315	0.27
379.522	0.38
379.729	0.26
379.936	0.25
380.143	0.28
380.35	0.3
380.557	0.25
380.763	0.25
380.97	0.22
381.177	0.24
381.384	0.27
381.591	0.26
381.797	0.28
382.004	0.32
382.211	0.28
382.418	0.3
382.624	0.28
382.831	0.33
383.038	0.29
383.244	0.28
383.451	0.3
383.658	0.32
383.864	0.3
384.071	0.22
384.277	0.35
384.484	0.24
384.69	0.33
384.897	0.25
385.103	0.24
385.31	0.29
385.516	0.3
385.723	0.25
385.929	0.25
386.136	0.27
386.342	0.28
386.549	0.24
386.755	0.34
386.961	0.32
387.168	0.28
387.374	0.32
387.58	0.33
387.787	0.31
387.993	0.27
388.199	0.25
388.406	0.28
388.612	0.27
388.818	0.21
389.024	0.27
389.231	0.28
389.437	0.36
389.643	0.31
389.849	0.3
390.055	0.3
390.261	0.32
390.467	0.32
390.674	0.23
390.88	0.27
391.086	0.29
391.292	0.26
391.498	0.38
391.704	0.33
391.91	0.29
392.116	0.3
392.322	0.21
392.528	0.3
392.734	0.31
392.94	0.31
393.146	0.3
393.352	0.31
393.557	0.34
393.763	0.25
393.969	0.35
394.175	0.29
394.381	0.3
394.587	0.29
394.792	0.32
394.998	0.33
395.204	0.36
395.41	0.26
395.615	0.27
395.821	0.3
396.027	0.35
396.233	0.27
396.438	0.34
396.644	0.37
396.85	0.34
397.055	0.3
397.261	0.32
397.466	0.32
397.672	0.38
397.878	0.35
398.083	0.34
398.289	0.27
398.494	0.39
398.7	0.37
398.905	0.28
399.111	0.39
399.316	0.24
399.522	0.38
399.727	0.35
399.932	0.34
400.138	0.3
400.343	0.38
400.549	0.32
400.754	0.3
400.959	0.39
401.165	0.33
401.37	0.39
401.575	0.48
401.78	0.36
401.986	0.33
402.191	0.34
402.396	0.36
402.601	0.41
402.807	0.39
403.012	0.36
403.217	0.41
403.422	0.41
403.627	0.4
403.832	0.38
404.037	0.44
404.243	0.43
404.448	0.38
404.653	0.44
404.858	0.43
405.063	0.44
405.268	0.42
405.473	0.34
405.678	0.41
405.883	0.56
406.088	0.48
406.293	0.39
406.498	0.44
406.703	0.49
406.907	0.49
407.112	0.45
407.317	0.52
407.522	0.53
407.727	0.47
407.932	0.51
408.136	0.64
408.341	0.51
408.546	0.58
408.751	0.53
408.956	0.58
409.16	0.64
409.365	0.58
409.57	0.63
409.774	0.65
409.979	0.69
410.184	0.69
410.388	0.63
410.593	0.72
410.798	0.7
411.002	0.71
411.207	0.83
411.411	0.82
411.616	0.76
411.82	0.78
412.025	0.83
412.229	0.88
412.434	0.92
412.638	0.89
412.843	0.84
413.047	0.94
413.252	0.9
413.456	1.06
413.66	1.05
413.865	1.04
414.069	1.15
414.273	1.15
414.478	1.11
414.682	1.19
414.886	1.24
415.091	1.17
415.295	1.22
415.499	1.34
415.703	1.4
415.908	1.45
416.112	1.43
416.316	1.57
416.52	1.57
416.724	1.56
416.929	1.59
417.133	1.87
417.337	1.72
417.541	1.83
417.745	1.84
417.949	2.02
418.153	2.11
418.357	2.01
418.561	2.29
418.765	2.25
418.969	2.42
419.173	2.43
419.377	2.44
419.581	2.67
419.785	2.68
419.989	2.68
420.193	2.89
420.397	2.97
420.601	3.07
420.804	3.16
421.008	3.1
421.212	3.23
421.416	3.24
421.62	3.33
421.823	3.37
422.027	3.59
422.231	3.48
422.435	3.58
422.638	3.54
422.842	3.75
423.046	3.83
423.249	4.01
423.453	4.01
423.657	4.14
423.86	4.24
424.064	4.38
424.268	4.55
424.471	4.52
424.675	4.78
424.878	4.8
425.082	4.99
425.285	5.23
425.489	5.14
425.692	5.27
425.896	5.28
426.099	5.52
426.303	5.63
426.506	5.84
426.71	6.03
426.913	6.19
427.116	6.39
427.32	6.4
427.523	6.49
427.726	6.82
427.93	6.89
428.133	7.11
428.336	7.34
428.54	7.42
428.743	7.71
428.946	8
429.149	8.04
429.353	7.92
429.556	8.07
429.759	8.1
429.962	8.32
430.165	8.46
430.368	8.08
430.571	8.15
430.775	8.27
430.978	8.14
431.181	8.17
431.384	8.23
431.587	8.41
431.79	8.8
431.993	8.63
432.196	8.99
432.399	9.35
432.602	9.44
432.805	9.6
433.008	10.04
433.211	9.95
433.414	10.32
433.616	10.34
433.819	10.28
434.022	10.51
434.225	10.61
434.428	10.67
434.631	11.14
434.833	10.89
435.036	11.23
435.239	11.44
435.442	11.51
435.645	11.59
435.847	11.63
436.05	12.02
436.253	12.17
436.455	12.13
436.658	12.02
436.861	12.32
437.063	12.55
437.266	12.48
437.468	12.85
437.671	13.22
437.874	13.29
438.076	13.05
438.279	13.53
438.481	13.53
438.684	14.32
438.886	13.88
439.089	14.22
439.291	14.16
439.494	14.61
439.696	14.83
439.899	15.35
440.101	15.67
440.303	15.92
440.506	16.59
440.708	16.48
440.91	16.56
441.113	16.89
441.315	17.03
441.517	16.83
441.72	17.41
441.922	16.97
442.124	16.9
442.326	17.3
442.529	17.47
442.731	17.59
442.933	17.82
443.135	17.66
443.337	17.44
443.539	18.05
443.742	17.85
443.944	18.55
444.146	18.15
444.348	18.37
444.55	18.09
444.752	18.24
444.954	18.27
445.156	18.11
445.358	18.6
445.56	18.75
445.762	18.61
445.964	18.92
446.166	18.7
446.368	18.63
446.57	18.59
446.772	18.26
446.974	17.92
447.175	18.35
447.377	17.92
447.579	18.47
447.781	18.03
447.983	17.8
448.184	17.57
448.386	17.86
448.588	17.46
448.79	17.14
448.991	17.5
449.193	17.57
449.395	16.9
449.597	16.54
449.798	16.47
450	16.02
450.202	15.92
450.403	15.94
450.605	15.77
450.806	15.5
451.008	15.3
451.21	15.01
451.411	14.64
451.613	13.86
451.814	14.16
452.016	14.01
452.217	13.34
452.419	13.39
452.62	12.96
452.821	12.63
453.023	12.56
453.224	12.25
453.426	11.8
453.627	11.13
453.828	11.2
454.03	11.22
454.231	11.22
454.432	11.09
454.634	10.76
454.835	10.45
455.036	10.4
455.238	10.02
455.439	9.75
455.64	9.52
455.841	9.44
456.042	9.51
456.244	9.2
456.445	8.9
456.646	8.63
456.847	8.49
457.048	8.37
457.249	8.45
457.45	8.1
457.651	7.68
457.852	7.5
458.054	7.3
458.255	7.3
458.456	7.35
458.657	7.13
458.858	6.61
459.058	6.63
459.259	6.68
459.46	6.46
459.661	6.33
459.862	6.4
460.063	6.31
460.264	6.16
460.465	6
460.666	6.06
460.866	5.68
461.067	5.43
461.268	5.54
461.469	5.48
461.67	5.39
461.87	5.23
462.071	5.2
462.272	5.18
462.473	5.07
462.673	5.25
462.874	5.11
463.075	5.16
463.275	5.11
463.476	5.08
463.676	5.17
463.877	4.94
464.078	4.98
464.278	4.93
464.479	4.85
464.679	4.7
464.88	4.72
465.08	4.62
465.281	4.49
465.481	4.28
465.682	4.14
465.882	4.13
466.083	4.04
466.283	4.02
466.483	3.91
466.684	3.75
466.884	3.55
467.085	3.64
467.285	3.74
467.485	3.6
467.686	3.51
467.886	3.4
468.086	3.37
468.286	3.39
468.487	3.45
468.687	3.23
468.887	3.17
469.087	3.32
469.287	3.21
469.488	3.11
469.688	3.18
469.888	3.14
470.088	3.09
470.288	3.06
470.488	2.92
470.688	2.85
470.888	2.78
471.088	2.65
471.288	2.73
471.488	2.78
471.688	2.73
471.888	2.67
472.088	2.8
472.288	2.67
472.488	2.61
472.688	2.53
472.888	2.57
473.088	2.55
473.288	2.53
473.488	2.41
473.688	2.52
473.887	2.46
474.087	2.44
474.287	2.39
474.487	2.38
474.687	2.41
474.886	2.3
475.086	2.34
475.286	2.27
475.486	2.28
475.685	2.27
475.885	2.19
476.085	2.27
476.284	2.25
476.484	2.23
476.684	2.2
476.883	2.25
477.083	2.12
477.282	2.12
477.482	2.12
477.681	2.13
477.881	2.07
478.08	2.06
478.28	2
478.479	2.1
478.679	2.1
478.878	2.01
479.078	2.01
479.277	2.09
479.477	2.01
479.676	1.99
479.875	1.97
480.075	1.96
480.274	2.01
480.473	2.05
480.673	2.01
480.872	2.09
481.071	2.05
481.271	2.06
481.47	2
481.669	2
481.868	1.96
482.067	1.98
482.267	1.91
482.466	1.88
482.665	1.9
482.864	1.94
483.063	1.95
483.262	2.03
483.461	1.97
483.661	2.08
483.86	1.98
484.059	2.06
484.258	2.01
484.457	2
484.656	1.99
484.855	2.03
485.054	1.9
485.253	1.97
485.452	1.92
485.651	2.1
485.849	2.01
486.048	1.97
486.247	2
486.446	2.09
486.645	2.05
486.844	2.08
487.043	2.04
487.241	2.06
487.44	2.05
487.639	2.16
487.838	2.08
488.037	2.07
488.235	2.16
488.434	2.17
488.633	2.06
488.831	2.23
489.03	2.24
489.229	2.2
489.427	2.21
489.626	2.24
489.825	2.26
490.023	2.31
490.222	2.25
490.42	2.33
490.619	2.36
490.817	2.33
491.016	2.34
491.214	2.42
491.413	2.39
491.611	2.38
491.81	2.38
492.008	2.47
492.207	2.52
492.405	2.49
492.604	2.45
492.802	2.52
493	2.62
493.199	2.63
493.397	2.64
493.595	2.64
493.794	2.63
493.992	2.76
494.19	2.75
494.388	2.79
494.587	2.72
494.785	2.75
494.983	2.71
495.181	2.81
495.379	2.92
495.578	2.94
495.776	2.92
495.974	2.94
496.172	2.95
496.37	3.07
496.568	3.1
496.766	3.09
496.964	3.14
497.162	3.15
497.36	3.18
497.558	3.24
497.756	3.3
497.954	3.3
498.152	3.3
498.35	3.43
498.548	3.34
498.746	3.38
498.944	3.45
499.142	3.46
499.34	3.52
499.538	3.59
499.736	3.52
499.933	3.65
500.131	3.61
500.329	3.71
500.527	3.77
500.725	3.84
500.922	3.85
501.12	3.88
501.318	3.93
501.516	3.92
501.713	4.03
501.911	3.98
502.109	3.97
502.306	4.12
502.504	4
502.701	4.1
502.899	4.15
