Data from Apollo_Calib_20240827__AbsoluteIrradiance__773__12-02-02-999.txt Node

Date: Wed Aug 28 12:02:03 BST 2024
User: biology
Spectrometer: FLMT08252
Trigger mode: 0
Integration Time (sec): 5.000000E-1
Scans to average: 5
Electric dark correction enabled: true
Nonlinearity correction enabled: false
Boxcar width: 0
XAxis mode: Wavelengths
Number of Pixels in Spectrum: 3648
>>>>>Begin Spectral Data<<<<<
179.588	-0
179.809	-0
180.03	-0
180.251	-0
180.473	-0
180.694	0
180.915	0
181.136	-0
181.357	-0
181.578	-0
181.799	0
182.02	-0
182.241	-0
182.462	-0
182.683	0
182.904	-0
183.125	-0
183.346	0
183.567	0
183.788	0
184.009	0
184.23	0
184.451	0
184.672	0
184.892	0
185.113	0
185.334	0
185.555	0
185.776	0
185.996	0
186.217	0
186.438	0
186.659	0
186.879	0
187.1	0
187.321	0
187.541	0
187.762	0
187.983	0
188.203	0
188.424	0
188.644	0
188.865	0
189.086	0
189.306	0
189.527	0
189.747	0
189.968	0
190.188	0
190.409	0
190.629	0
190.849	0
191.07	0
191.29	0
191.511	0
191.731	0
191.951	0
192.172	0
192.392	0
192.612	0
192.833	0
193.053	0
193.273	0
193.493	0
193.714	0
193.934	0
194.154	0
194.374	0
194.594	0
194.815	0
195.035	0
195.255	0
195.475	0
195.695	0
195.915	0
196.135	0
196.355	0
196.575	0
196.795	0
197.015	0
197.235	0
197.455	0
197.675	0
197.895	0
198.115	0
198.335	0
198.555	0
198.775	0
198.995	0
199.214	0
199.434	0
199.654	0
199.874	0
200.094	4.19
200.313	2.61
200.533	1.85
200.753	1.74
200.973	3.72
201.192	3.4
201.412	1.33
201.632	2.07
201.851	3.42
202.071	1.65
202.291	1.79
202.51	1.39
202.73	3.4
202.95	1.77
203.169	1.3
203.389	2
203.608	1.86
203.828	1.6
204.047	1.48
204.267	2.5
204.486	2.75
204.706	1.99
204.925	1.96
205.145	1.32
205.364	2.22
205.583	2.74
205.803	1.45
206.022	0.96
206.242	1.6
206.461	1.56
206.68	1.18
206.9	1.66
207.119	2.26
207.338	1.81
207.557	1.21
207.777	1.42
207.996	1.65
208.215	2.04
208.434	1.22
208.654	1.13
208.873	1.53
209.092	2.09
209.311	1.27
209.53	1.23
209.749	1.39
209.968	1.2
210.187	0.99
210.407	0.62
210.626	1.24
210.845	1.54
211.064	1.28
211.283	1.01
211.502	1.53
211.721	0.99
211.94	1.01
212.159	1.13
212.377	1.39
212.596	1.69
212.815	1.28
213.034	1.24
213.253	1.4
213.472	1.21
213.691	0.84
213.91	0.72
214.128	0.61
214.347	1.55
214.566	0.77
214.785	0.6
215.003	1.13
215.222	1.23
215.441	0.8
215.66	0.57
215.878	1.1
216.097	1.16
216.316	0.75
216.534	0.93
216.753	0.92
216.972	0.89
217.19	0.81
217.409	0.64
217.627	0.65
217.846	0.96
218.064	0.89
218.283	0.83
218.501	1.51
218.72	1.21
218.938	0.67
219.157	0.77
219.375	1.21
219.594	1.16
219.812	0.55
220.031	0.65
220.249	1.23
220.467	1.12
220.686	0.61
220.904	0.53
221.122	0.65
221.341	1.15
221.559	0.85
221.777	0.47
221.995	0.79
222.214	0.97
222.432	0.7
222.65	0.88
222.868	0.83
223.086	0.78
223.305	0.77
223.523	0.68
223.741	1.09
223.959	0.64
224.177	0.44
224.395	0.66
224.613	0.76
224.831	0.89
225.049	0.47
225.267	0.63
225.485	0.76
225.703	0.67
225.921	0.63
226.139	0.61
226.357	0.83
226.575	1
226.793	0.55
227.011	1.51
227.229	0.71
227.447	0.89
227.665	0.57
227.883	0.31
228.1	0.64
228.318	0.69
228.536	0.37
228.754	0.46
228.972	0.88
229.189	0.64
229.407	0.47
229.625	0.59
229.843	0.72
230.06	0.76
230.278	0.6
230.496	0.52
230.713	0.67
230.931	0.84
231.149	0.61
231.366	0.33
231.584	0.57
231.801	0.96
232.019	0.6
232.236	0.39
232.454	0.4
232.671	0.72
232.889	0.47
233.106	0.34
233.324	0.52
233.541	0.56
233.759	0.64
233.976	0.44
234.194	0.56
234.411	0.54
234.628	0.42
234.846	0.48
235.063	0.59
235.28	0.6
235.498	0.54
235.715	0.43
235.932	0.74
236.149	0.48
236.367	0.4
236.584	0.56
236.801	0.5
237.018	0.66
237.236	0.5
237.453	0.35
237.67	0.75
237.887	0.51
238.104	0.57
238.321	0.36
238.538	0.45
238.755	0.72
238.973	0.35
239.19	0.53
239.407	0.7
239.624	0.54
239.841	0.32
240.058	0.46
240.275	0.52
240.492	0.46
240.709	0.49
240.925	0.48
241.142	0.58
241.359	0.37
241.576	0.4
241.793	0.36
242.01	0.43
242.227	0.58
242.444	0.5
242.66	0.61
242.877	0.44
243.094	0.54
243.311	0.44
243.527	0.41
243.744	0.58
243.961	0.58
244.178	0.38
244.394	0.49
244.611	0.56
244.828	0.78
245.044	0.35
245.261	0.3
245.477	0.51
245.694	0.51
245.911	0.38
246.127	0.45
246.344	0.64
246.56	0.5
246.777	0.32
246.993	0.46
247.21	0.57
247.426	0.5
247.643	0.32
247.859	0.32
248.076	0.44
248.292	0.7
248.508	0.34
248.725	0.47
248.941	0.48
249.157	0.59
249.374	0.38
249.59	0.39
249.806	0.47
250.023	0.56
250.239	0.25
250.455	0.35
250.671	0.47
250.888	0.47
251.104	0.45
251.32	0.39
251.536	0.48
251.752	0.35
251.969	0.4
252.185	0.39
252.401	0.63
252.617	0.51
252.833	0.27
253.049	0.34
253.265	0.51
253.481	0.43
253.697	0.39
253.913	0.26
254.129	0.46
254.345	0.43
254.561	0.34
254.777	0.33
254.993	0.48
255.209	0.44
255.425	0.41
255.641	0.36
255.857	0.53
256.073	0.49
256.288	0.28
256.504	0.3
256.72	0.47
256.936	0.56
257.152	0.34
257.367	0.3
257.583	0.43
257.799	0.46
258.015	0.26
258.23	0.29
258.446	0.54
258.662	0.42
258.877	0.3
259.093	0.26
259.309	0.39
259.524	0.52
259.74	0.34
259.955	0.25
260.171	0.38
260.387	0.43
260.602	0.42
260.818	0.43
261.033	0.28
261.249	0.36
261.464	0.31
261.68	0.31
261.895	0.44
262.11	0.42
262.326	0.34
262.541	0.28
262.757	0.48
262.972	0.45
263.187	0.41
263.403	0.38
263.618	0.49
263.833	0.43
264.049	0.36
264.264	0.32
264.479	0.41
264.694	0.51
264.91	0.28
265.125	0.29
265.34	0.46
265.555	0.49
265.77	0.34
265.986	0.3
266.201	0.39
266.416	0.5
266.631	0.32
266.846	0.31
267.061	0.48
267.276	0.4
267.491	0.21
267.706	0.34
267.921	0.42
268.136	0.4
268.351	0.3
268.566	0.18
268.781	0.46
268.996	0.45
269.211	0.31
269.426	0.29
269.641	0.33
269.856	0.47
270.071	0.26
270.285	0.24
270.5	0.47
270.715	0.42
270.93	0.33
271.145	0.37
271.359	0.43
271.574	0.31
271.789	0.37
272.004	0.27
272.218	0.3
272.433	0.34
272.648	0.29
272.862	0.37
273.077	0.32
273.292	0.32
273.506	0.32
273.721	0.33
273.936	0.39
274.15	0.41
274.365	0.25
274.579	0.39
274.794	0.37
275.008	0.41
275.223	0.22
275.437	0.31
275.652	0.45
275.866	0.38
276.081	0.3
276.295	0.45
276.509	0.34
276.724	0.35
276.938	0.34
277.153	0.36
277.367	0.35
277.581	0.29
277.796	0.29
278.01	0.22
278.224	0.37
278.438	0.45
278.653	0.29
278.867	0.25
279.081	0.15
279.295	0.36
279.51	0.3
279.724	0.23
279.938	0.37
280.152	0.34
280.366	0.24
280.58	0.28
280.794	0.43
281.008	0.35
281.222	0.34
281.437	0.44
281.651	0.33
281.865	0.37
282.079	0.29
282.293	0.17
282.507	0.26
282.721	0.22
282.935	0.28
283.148	0.18
283.362	0.3
283.576	0.26
283.79	0.29
284.004	0.28
284.218	0.37
284.432	0.3
284.646	0.33
284.859	0.25
285.073	0.26
285.287	0.32
285.501	0.34
285.714	0.25
285.928	0.28
286.142	0.38
286.356	0.24
286.569	0.26
286.783	0.44
286.997	0.4
287.21	0.33
287.424	0.31
287.637	0.28
287.851	0.28
288.065	0.38
288.278	0.27
288.492	0.26
288.705	0.28
288.919	0.31
289.132	0.22
289.346	0.34
289.559	0.2
289.773	0.18
289.986	0.28
290.2	0.35
290.413	0.42
290.626	0.25
290.84	0.31
291.053	0.3
291.267	0.37
291.48	0.25
291.693	0.25
291.906	0.24
292.12	0.32
292.333	0.28
292.546	0.23
292.76	0.39
292.973	0.36
293.186	0.31
293.399	0.26
293.612	0.39
293.826	0.27
294.039	0.23
294.252	0.23
294.465	0.32
294.678	0.31
294.891	0.25
295.104	0.25
295.317	0.3
295.53	0.31
295.743	0.2
295.956	0.27
296.169	0.4
296.382	0.33
296.595	0.26
296.808	0.24
297.021	0.38
297.234	0.32
297.447	0.25
297.66	0.3
297.873	0.3
298.086	0.33
298.299	0.22
298.511	0.17
298.724	0.26
298.937	0.22
299.15	0.23
299.363	0.23
299.575	0.35
299.788	0.24
300.001	0.26
300.213	0.23
300.426	0.23
300.639	0.22
300.852	0.21
301.064	0.31
301.277	0.42
301.489	0.29
301.702	0.25
301.915	0.27
302.127	0.2
302.34	0.32
302.552	0.3
302.765	0.22
302.977	0.29
303.19	0.26
303.402	0.22
303.615	0.25
303.827	0.21
304.04	0.3
304.252	0.28
304.464	0.24
304.677	0.4
304.889	0.33
305.102	0.23
305.314	0.21
305.526	0.29
305.739	0.28
305.951	0.2
306.163	0.26
306.375	0.32
306.588	0.24
306.8	0.24
307.012	0.21
307.224	0.25
307.436	0.35
307.649	0.2
307.861	0.24
308.073	0.3
308.285	0.27
308.497	0.2
308.709	0.25
308.921	0.26
309.133	0.31
309.346	0.25
309.558	0.26
309.77	0.3
309.982	0.35
310.194	0.28
310.406	0.21
310.617	0.32
310.829	0.32
311.041	0.33
311.253	0.23
311.465	0.24
311.677	0.25
311.889	0.21
312.101	0.21
312.313	0.31
312.524	0.34
312.736	0.16
312.948	0.29
313.16	0.35
313.372	0.33
313.583	0.25
313.795	0.19
314.007	0.22
314.218	0.35
314.43	0.26
314.642	0.25
314.853	0.18
315.065	0.28
315.277	0.26
315.488	0.28
315.7	0.33
315.912	0.24
316.123	0.25
316.335	0.25
316.546	0.41
316.758	0.27
316.969	0.28
317.181	0.25
317.392	0.28
317.604	0.34
317.815	0.23
318.026	0.22
318.238	0.26
318.449	0.32
318.661	0.18
318.872	0.22
319.083	0.21
319.295	0.28
319.506	0.25
319.717	0.27
319.929	0.29
320.14	0.23
320.351	0.25
320.562	0.2
320.774	0.31
320.985	0.26
321.196	0.22
321.407	0.19
321.618	0.31
321.829	0.3
322.041	0.31
322.252	0.25
322.463	0.35
322.674	0.29
322.885	0.18
323.096	0.26
323.307	0.25
323.518	0.31
323.729	0.24
323.94	0.23
324.151	0.26
324.362	0.26
324.573	0.24
324.784	0.22
324.995	0.28
325.206	0.24
325.417	0.25
325.628	0.23
325.838	0.28
326.049	0.23
326.26	0.27
326.471	0.25
326.682	0.3
326.892	0.23
327.103	0.2
327.314	0.24
327.525	0.34
327.735	0.26
327.946	0.25
328.157	0.2
328.368	0.33
328.578	0.27
328.789	0.27
328.999	0.23
329.21	0.25
329.421	0.34
329.631	0.21
329.842	0.2
330.052	0.29
330.263	0.28
330.473	0.31
330.684	0.24
330.894	0.25
331.105	0.26
331.315	0.29
331.526	0.19
331.736	0.35
331.947	0.3
332.157	0.33
332.367	0.18
332.578	0.28
332.788	0.36
332.999	0.33
333.209	0.27
333.419	0.23
333.629	0.33
333.84	0.3
334.05	0.21
334.26	0.3
334.47	0.24
334.681	0.3
334.891	0.23
335.101	0.32
335.311	0.35
335.521	0.27
335.732	0.24
335.942	0.27
336.152	0.27
336.362	0.28
336.572	0.27
336.782	0.28
336.992	0.24
337.202	0.26
337.412	0.24
337.622	0.3
337.832	0.25
338.042	0.26
338.252	0.24
338.462	0.24
338.672	0.25
338.882	0.24
339.092	0.28
339.302	0.33
339.511	0.32
339.721	0.28
339.931	0.22
340.141	0.33
340.351	0.3
340.561	0.28
340.77	0.24
340.98	0.25
341.19	0.28
341.4	0.22
341.609	0.2
341.819	0.21
342.029	0.19
342.238	0.3
342.448	0.21
342.658	0.31
342.867	0.25
343.077	0.25
343.286	0.26
343.496	0.27
343.706	0.3
343.915	0.2
344.125	0.23
344.334	0.25
344.544	0.25
344.753	0.22
344.963	0.23
345.172	0.23
345.381	0.26
345.591	0.21
345.8	0.26
346.01	0.32
346.219	0.31
346.428	0.13
346.638	0.26
346.847	0.27
347.056	0.34
347.266	0.25
347.475	0.21
347.684	0.3
347.893	0.33
348.103	0.28
348.312	0.21
348.521	0.23
348.73	0.25
348.94	0.27
349.149	0.23
349.358	0.26
349.567	0.24
349.776	0.21
349.985	0.26
350.194	0.3
350.403	0.32
350.612	0.16
350.821	0.23
351.03	0.25
351.239	0.21
351.448	0.26
351.657	0.22
351.866	0.32
352.075	0.27
352.284	0.22
352.493	0.16
352.702	0.31
352.911	0.28
353.12	0.26
353.329	0.24
353.538	0.33
353.746	0.23
353.955	0.21
354.164	0.26
354.373	0.24
354.582	0.33
354.79	0.28
354.999	0.22
355.208	0.25
355.416	0.32
355.625	0.17
355.834	0.26
356.042	0.29
356.251	0.23
356.46	0.2
356.668	0.26
356.877	0.37
357.085	0.31
357.294	0.16
357.503	0.26
357.711	0.24
357.92	0.39
358.128	0.26
358.337	0.19
358.545	0.26
358.754	0.24
358.962	0.29
359.17	0.22
359.379	0.27
359.587	0.25
359.796	0.27
360.004	0.33
360.212	0.3
360.421	0.31
360.629	0.27
360.837	0.22
361.046	0.27
361.254	0.39
361.462	0.24
361.67	0.22
361.879	0.23
362.087	0.33
362.295	0.27
362.503	0.21
362.711	0.2
362.92	0.22
363.128	0.21
363.336	0.2
363.544	0.18
363.752	0.23
363.96	0.24
364.168	0.16
364.376	0.28
364.584	0.24
364.792	0.29
365	0.25
365.208	0.26
365.416	0.3
365.624	0.3
365.832	0.22
366.04	0.36
366.248	0.26
366.456	0.26
366.664	0.24
366.872	0.25
367.079	0.25
367.287	0.22
367.495	0.25
367.703	0.24
367.911	0.2
368.118	0.25
368.326	0.22
368.534	0.21
368.742	0.33
368.949	0.24
369.157	0.2
369.365	0.27
369.572	0.27
369.78	0.23
369.988	0.29
370.195	0.29
370.403	0.28
370.61	0.25
370.818	0.26
371.026	0.33
371.233	0.22
371.441	0.29
371.648	0.24
371.856	0.25
372.063	0.25
372.271	0.23
372.478	0.24
372.685	0.25
372.893	0.32
373.1	0.26
373.308	0.24
373.515	0.39
373.722	0.3
373.93	0.26
374.137	0.28
374.344	0.31
374.552	0.28
374.759	0.33
374.966	0.28
375.173	0.31
375.381	0.33
375.588	0.23
375.795	0.19
376.002	0.21
376.209	0.26
376.417	0.24
376.624	0.3
376.831	0.3
377.038	0.29
377.245	0.17
377.452	0.24
377.659	0.27
377.866	0.21
378.073	0.25
378.28	0.22
378.487	0.29
378.694	0.31
378.901	0.29
379.108	0.25
379.315	0.29
379.522	0.38
379.729	0.27
379.936	0.23
380.143	0.24
380.35	0.37
380.557	0.25
380.763	0.26
380.97	0.25
381.177	0.31
381.384	0.29
381.591	0.24
381.797	0.31
382.004	0.34
382.211	0.28
382.418	0.24
382.624	0.29
382.831	0.34
383.038	0.26
383.244	0.24
383.451	0.27
383.658	0.3
383.864	0.26
384.071	0.25
384.277	0.33
384.484	0.24
384.69	0.3
384.897	0.26
385.103	0.22
385.31	0.22
385.516	0.26
385.723	0.21
385.929	0.31
386.136	0.23
386.342	0.29
386.549	0.3
386.755	0.31
386.961	0.35
387.168	0.25
387.374	0.35
387.58	0.33
387.787	0.31
387.993	0.31
388.199	0.29
388.406	0.3
388.612	0.27
388.818	0.24
389.024	0.25
389.231	0.28
389.437	0.4
389.643	0.35
389.849	0.3
390.055	0.31
390.261	0.26
390.467	0.34
390.674	0.19
390.88	0.29
391.086	0.35
391.292	0.23
391.498	0.36
391.704	0.27
391.91	0.28
392.116	0.3
392.322	0.2
392.528	0.38
392.734	0.3
392.94	0.32
393.146	0.29
393.352	0.35
393.557	0.31
393.763	0.33
393.969	0.35
394.175	0.3
394.381	0.33
394.587	0.3
394.792	0.29
394.998	0.41
395.204	0.38
395.41	0.28
395.615	0.33
395.821	0.36
396.027	0.35
396.233	0.3
396.438	0.33
396.644	0.37
396.85	0.38
397.055	0.32
397.261	0.36
397.466	0.46
397.672	0.36
397.878	0.4
398.083	0.38
398.289	0.31
398.494	0.42
398.7	0.4
398.905	0.27
399.111	0.41
399.316	0.32
399.522	0.3
399.727	0.33
399.932	0.33
400.138	0.33
400.343	0.39
400.549	0.34
400.754	0.37
400.959	0.35
401.165	0.37
401.37	0.35
401.575	0.3
401.78	0.4
401.986	0.37
402.191	0.34
402.396	0.39
402.601	0.45
402.807	0.48
403.012	0.4
403.217	0.4
403.422	0.38
403.627	0.47
403.832	0.42
404.037	0.5
404.243	0.38
404.448	0.41
404.653	0.43
404.858	0.48
405.063	0.47
405.268	0.43
405.473	0.41
405.678	0.39
405.883	0.67
406.088	0.5
406.293	0.43
406.498	0.44
406.703	0.55
406.907	0.49
407.112	0.44
407.317	0.49
407.522	0.58
407.727	0.48
407.932	0.52
408.136	0.66
408.341	0.52
408.546	0.59
408.751	0.57
408.956	0.57
409.16	0.72
409.365	0.58
409.57	0.62
409.774	0.65
409.979	0.71
410.184	0.71
410.388	0.64
410.593	0.77
410.798	0.72
411.002	0.75
411.207	0.83
411.411	0.74
411.616	0.75
411.82	0.81
412.025	0.86
412.229	0.84
412.434	0.96
412.638	0.91
412.843	0.96
413.047	0.96
413.252	0.93
413.456	0.99
413.66	1.05
413.865	1.1
414.069	1.12
414.273	1.1
414.478	1.1
414.682	1.18
414.886	1.26
415.091	1.12
415.295	1.19
415.499	1.42
415.703	1.4
415.908	1.46
416.112	1.37
416.316	1.57
416.52	1.52
416.724	1.59
416.929	1.57
417.133	1.87
417.337	1.73
417.541	1.77
417.745	1.83
417.949	1.96
418.153	1.98
418.357	2.08
418.561	2.22
418.765	2.22
418.969	2.31
419.173	2.43
419.377	2.45
419.581	2.67
419.785	2.59
419.989	2.59
420.193	2.73
420.397	2.93
420.601	2.99
420.804	3.15
421.008	3.11
421.212	3.25
421.416	3.21
421.62	3.26
421.823	3.31
422.027	3.57
422.231	3.5
422.435	3.52
422.638	3.53
422.842	3.65
423.046	3.7
423.249	3.95
423.453	3.91
423.657	4.06
423.86	4.17
424.064	4.29
424.268	4.49
424.471	4.47
424.675	4.69
424.878	4.73
425.082	4.9
425.285	5.17
425.489	5.17
425.692	5.19
425.896	5.17
426.099	5.41
426.303	5.6
426.506	5.71
426.71	5.86
426.913	6.19
427.116	6.36
427.32	6.32
427.523	6.46
427.726	6.61
427.93	6.75
428.133	7.15
428.336	7.24
428.54	7.4
428.743	7.5
428.946	7.85
429.149	7.83
429.353	7.94
429.556	8.02
429.759	8.08
429.962	8
430.165	8.29
430.368	8.01
430.571	8.05
430.775	8.02
430.978	8.11
431.181	8.1
431.384	8.23
431.587	8.3
431.79	8.71
431.993	8.69
432.196	8.9
432.399	9.33
432.602	9.48
432.805	9.62
433.008	9.99
433.211	9.87
433.414	10.24
433.616	10.34
433.819	10.27
434.022	10.34
434.225	10.62
434.428	10.67
434.631	11
434.833	10.83
435.036	11.13
435.239	11.2
435.442	11.29
435.645	11.4
435.847	11.56
436.05	11.92
436.253	12.12
436.455	12.11
436.658	12.15
436.861	12.28
437.063	12.35
437.266	12.32
437.468	12.74
437.671	13.05
437.874	13.07
438.076	13.01
438.279	13.32
438.481	13.54
438.684	14.26
438.886	13.85
439.089	14.12
439.291	14.18
439.494	14.42
439.696	14.68
439.899	15.24
440.101	15.6
440.303	15.74
440.506	16.58
440.708	16.19
440.91	16.45
441.113	16.73
441.315	16.91
441.517	16.67
441.72	17.2
441.922	16.8
442.124	16.77
442.326	17.13
442.529	17.42
442.731	17.24
442.933	17.57
443.135	17.45
443.337	17.57
443.539	17.98
443.742	17.63
443.944	18.3
444.146	18.02
444.348	18.08
444.55	17.93
444.752	18.2
444.954	18.08
445.156	17.9
445.358	18.34
445.56	18.64
445.762	18.42
445.964	18.78
446.166	18.48
446.368	18.59
446.57	18.6
446.772	18.25
446.974	17.94
447.175	18.2
447.377	17.86
447.579	18.28
447.781	18
447.983	17.64
448.184	17.47
448.386	17.66
448.588	17.33
448.79	17.04
448.991	17.56
449.193	17.51
449.395	16.81
449.597	16.45
449.798	16.29
450	15.89
450.202	15.92
450.403	15.86
450.605	15.83
450.806	15.34
451.008	15.21
451.21	15.01
451.411	14.62
451.613	13.81
451.814	14.11
452.016	14.14
452.217	13.36
452.419	13.3
452.62	13.01
452.821	12.82
453.023	12.75
453.224	12.35
453.426	11.87
453.627	11.13
453.828	11.3
454.03	11.35
454.231	11.28
454.432	11.13
454.634	10.82
454.835	10.55
455.036	10.45
455.238	10.15
455.439	9.89
455.64	9.54
455.841	9.47
456.042	9.51
456.244	9.24
456.445	9.02
456.646	8.76
456.847	8.67
457.048	8.44
457.249	8.57
457.45	8.38
457.651	7.78
457.852	7.67
458.054	7.27
458.255	7.19
458.456	7.36
458.657	7.22
458.858	6.86
459.058	6.78
459.259	6.67
459.46	6.39
459.661	6.38
459.862	6.5
460.063	6.28
460.264	6.22
460.465	6.07
460.666	6.04
460.866	5.86
461.067	5.52
461.268	5.63
461.469	5.47
461.67	5.43
461.87	5.31
462.071	5.25
462.272	5.16
462.473	5.13
462.673	5.28
462.874	5.23
463.075	5.15
463.275	5.14
463.476	5.24
463.676	5.13
463.877	4.92
464.078	4.97
464.278	5.05
464.479	4.87
464.679	4.75
464.88	4.69
465.08	4.67
465.281	4.52
465.481	4.38
465.682	4.12
465.882	4.22
466.083	4.1
466.283	4
466.483	3.97
466.684	3.78
466.884	3.7
467.085	3.76
467.285	3.81
467.485	3.65
467.686	3.54
467.886	3.44
468.086	3.41
468.286	3.4
468.487	3.49
468.687	3.29
468.887	3.22
469.087	3.4
469.287	3.22
469.488	3.09
469.688	3.24
469.888	3.19
470.088	3.11
470.288	3.09
470.488	3.02
470.688	2.83
470.888	2.83
471.088	2.77
471.288	2.86
471.488	2.75
471.688	2.76
471.888	2.7
472.088	2.83
472.288	2.75
472.488	2.61
472.688	2.57
472.888	2.63
473.088	2.62
473.288	2.47
473.488	2.5
473.688	2.62
473.887	2.51
474.087	2.42
474.287	2.47
474.487	2.39
474.687	2.44
474.886	2.41
475.086	2.28
475.286	2.35
475.486	2.25
475.685	2.27
475.885	2.22
476.085	2.31
476.284	2.23
476.484	2.28
476.684	2.23
476.883	2.27
477.083	2.21
477.282	2.14
477.482	2.21
477.681	2.16
477.881	2.07
478.08	2.06
478.28	2.06
478.479	2.1
478.679	2.2
478.878	2.03
479.078	2.06
479.277	2.09
479.477	2.09
479.676	2.01
479.875	2.03
480.075	1.98
480.274	2.02
480.473	2.1
480.673	2
480.872	2.08
481.071	2.04
481.271	2.06
481.47	1.98
481.669	2.02
481.868	2.02
482.067	1.97
482.267	1.94
482.466	1.96
482.665	1.94
482.864	1.98
483.063	1.96
483.262	2.06
483.461	2.07
483.661	2.08
483.86	2
484.059	2.08
484.258	2.05
484.457	2.03
484.656	2.04
484.855	2.08
485.054	1.9
485.253	1.97
485.452	1.96
485.651	2.11
485.849	2.04
486.048	2.02
486.247	2.05
486.446	2.09
486.645	2.03
486.844	2.09
487.043	2.07
487.241	2.1
487.44	2.11
487.639	2.13
487.838	2.13
488.037	2.12
488.235	2.2
488.434	2.15
488.633	2.03
488.831	2.23
489.03	2.24
489.229	2.24
489.427	2.21
489.626	2.31
489.825	2.27
490.023	2.28
490.222	2.27
490.42	2.32
490.619	2.39
490.817	2.36
491.016	2.36
491.214	2.44
491.413	2.39
491.611	2.39
491.81	2.42
492.008	2.43
492.207	2.52
492.405	2.53
492.604	2.47
492.802	2.54
493	2.63
493.199	2.68
493.397	2.64
493.595	2.7
493.794	2.69
493.992	2.74
494.19	2.76
494.388	2.77
494.587	2.76
494.785	2.84
494.983	2.72
495.181	2.86
495.379	2.92
495.578	2.97
495.776	3
495.974	2.91
496.172	2.96
496.37	3.1
496.568	3.11
496.766	3.05
496.964	3.18
497.162	3.21
497.36	3.21
497.558	3.24
497.756	3.3
497.954	3.27
498.152	3.39
498.35	3.44
498.548	3.38
498.746	3.37
498.944	3.43
499.142	3.45
499.34	3.55
499.538	3.64
499.736	3.53
499.933	3.64
500.131	3.64
500.329	3.81
500.527	3.73
500.725	3.88
500.922	3.89
501.12	3.9
501.318	3.96
501.516	3.95
501.713	4.03
501.911	4
502.109	3.94
502.306	4.13
502.504	4.06
502.701	4.08
502.899	4.14
503.097	4.41
