Data from Apollo_Calib_20240827__AbsoluteIrradiance__20__23-29-00-228.txt Node

Date: Tue Aug 27 23:29:00 BST 2024
User: biology
Spectrometer: FLMT08252
Trigger mode: 0
Integration Time (sec): 5.000000E-1
Scans to average: 5
Electric dark correction enabled: true
Nonlinearity correction enabled: false
Boxcar width: 0
XAxis mode: Wavelengths
Number of Pixels in Spectrum: 3648
>>>>>Begin Spectral Data<<<<<
179.588	-0
179.809	-0
180.03	-0
180.251	-0
180.473	-0
180.694	0
180.915	0
181.136	-0
181.357	-0
181.578	-0
181.799	-0
182.02	-0
182.241	0
182.462	-0
182.683	0
182.904	-0
183.125	-0
183.346	0
183.567	0
183.788	0
184.009	0
184.23	0
184.451	0
184.672	0
184.892	0
185.113	0
185.334	0
185.555	0
185.776	0
185.996	0
186.217	0
186.438	0
186.659	0
186.879	0
187.1	0
187.321	0
187.541	0
187.762	0
187.983	0
188.203	0
188.424	0
188.644	0
188.865	0
189.086	0
189.306	0
189.527	0
189.747	0
189.968	0
190.188	0
190.409	0
190.629	0
190.849	0
191.07	0
191.29	0
191.511	0
191.731	0
191.951	0
192.172	0
192.392	0
192.612	0
192.833	0
193.053	0
193.273	0
193.493	0
193.714	0
193.934	0
194.154	0
194.374	0
194.594	0
194.815	0
195.035	0
195.255	0
195.475	0
195.695	0
195.915	0
196.135	0
196.355	0
196.575	0
196.795	0
197.015	0
197.235	0
197.455	0
197.675	0
197.895	0
198.115	0
198.335	0
198.555	0
198.775	0
198.995	0
199.214	0
199.434	0
199.654	0
199.874	0
200.094	3.66
200.313	2.59
200.533	2.36
200.753	2.22
200.973	3.75
201.192	2.61
201.412	1.79
201.632	2.14
201.851	3.08
202.071	2.17
202.291	2.06
202.51	1.78
202.73	2.47
202.95	2.02
203.169	1.75
203.389	2.35
203.608	2.05
203.828	1.92
204.047	1.91
204.267	2.31
204.486	2.37
204.706	2.13
204.925	2.32
205.145	1.85
205.364	2.02
205.583	2.72
205.803	1.62
206.022	1.48
206.242	1.51
206.461	1.85
206.68	1.46
206.9	1.59
207.119	2.45
207.338	2.07
207.557	1.41
207.777	1.32
207.996	1.29
208.215	2.16
208.434	1.17
208.654	1.24
208.873	1.54
209.092	1.8
209.311	1.5
209.53	1.26
209.749	1.18
209.968	1.03
210.187	1.2
210.407	0.85
210.626	1.14
210.845	1.58
211.064	1.09
211.283	0.94
211.502	1.68
211.721	1.27
211.94	1.17
212.159	1.49
212.377	1.34
212.596	1.35
212.815	1.19
213.034	1.18
213.253	1.54
213.472	1.36
213.691	0.8
213.91	1.08
214.128	1.04
214.347	1.59
214.566	0.87
214.785	0.82
215.003	1.01
215.222	1.09
215.441	0.95
215.66	0.82
215.878	1.11
216.097	1.23
216.316	0.72
216.534	1.07
216.753	1.07
216.972	0.76
217.19	1.05
217.409	0.89
217.627	0.7
217.846	0.95
218.064	0.92
218.283	0.85
218.501	1.34
218.72	1.29
218.938	0.61
219.157	0.65
219.375	0.94
219.594	0.97
219.812	0.76
220.031	0.71
220.249	1.07
220.467	1.1
220.686	0.71
220.904	0.59
221.122	0.71
221.341	1.22
221.559	1.03
221.777	0.69
221.995	0.85
222.214	0.87
222.432	0.71
222.65	0.8
222.868	0.79
223.086	0.85
223.305	1.06
223.523	0.71
223.741	1.05
223.959	0.69
224.177	0.37
224.395	0.64
224.613	0.67
224.831	0.89
225.049	0.55
225.267	0.62
225.485	0.81
225.703	0.73
225.921	0.68
226.139	0.72
226.357	0.88
226.575	0.79
226.793	0.52
227.011	1.22
227.229	0.78
227.447	0.72
227.665	0.58
227.883	0.5
228.1	0.75
228.318	0.72
228.536	0.43
228.754	0.56
228.972	0.7
229.189	0.77
229.407	0.76
229.625	0.6
229.843	0.75
230.06	0.68
230.278	0.64
230.496	0.7
230.713	0.63
230.931	0.76
231.149	0.5
231.366	0.44
231.584	0.59
231.801	0.83
232.019	0.6
232.236	0.53
232.454	0.46
232.671	0.61
232.889	0.54
233.106	0.44
233.324	0.55
233.541	0.49
233.759	0.62
233.976	0.37
234.194	0.58
234.411	0.52
234.628	0.51
234.846	0.57
235.063	0.57
235.28	0.52
235.498	0.57
235.715	0.5
235.932	0.87
236.149	0.52
236.367	0.45
236.584	0.49
236.801	0.46
237.018	0.65
237.236	0.5
237.453	0.41
237.67	0.52
237.887	0.46
238.104	0.51
238.321	0.5
238.538	0.49
238.755	0.57
238.973	0.37
239.19	0.5
239.407	0.52
239.624	0.54
239.841	0.33
240.058	0.42
240.275	0.61
240.492	0.5
240.709	0.44
240.925	0.48
241.142	0.47
241.359	0.3
241.576	0.35
241.793	0.42
242.01	0.52
242.227	0.55
242.444	0.53
242.66	0.6
242.877	0.51
243.094	0.5
243.311	0.51
243.527	0.47
243.744	0.44
243.961	0.59
244.178	0.44
244.394	0.48
244.611	0.57
244.828	0.63
245.044	0.38
245.261	0.52
245.477	0.48
245.694	0.55
245.911	0.42
246.127	0.51
246.344	0.65
246.56	0.52
246.777	0.48
246.993	0.44
247.21	0.46
247.426	0.35
247.643	0.41
247.859	0.4
248.076	0.37
248.292	0.64
248.508	0.35
248.725	0.53
248.941	0.41
249.157	0.51
249.374	0.42
249.59	0.45
249.806	0.41
250.023	0.49
250.239	0.44
250.455	0.36
250.671	0.46
250.888	0.48
251.104	0.48
251.32	0.4
251.536	0.51
251.752	0.39
251.969	0.51
252.185	0.49
252.401	0.56
252.617	0.44
252.833	0.39
253.049	0.45
253.265	0.47
253.481	0.51
253.697	0.42
253.913	0.35
254.129	0.43
254.345	0.46
254.561	0.4
254.777	0.42
254.993	0.6
255.209	0.43
255.425	0.45
255.641	0.36
255.857	0.41
256.073	0.38
256.288	0.31
256.504	0.38
256.72	0.42
256.936	0.59
257.152	0.38
257.367	0.31
257.583	0.41
257.799	0.52
258.015	0.32
258.23	0.38
258.446	0.55
258.662	0.45
258.877	0.36
259.093	0.29
259.309	0.43
259.524	0.41
259.74	0.39
259.955	0.27
260.171	0.41
260.387	0.39
260.602	0.43
260.818	0.45
261.033	0.3
261.249	0.33
261.464	0.32
261.68	0.28
261.895	0.45
262.11	0.44
262.326	0.36
262.541	0.24
262.757	0.46
262.972	0.42
263.187	0.39
263.403	0.4
263.618	0.45
263.833	0.37
264.049	0.31
264.264	0.37
264.479	0.4
264.694	0.43
264.91	0.26
265.125	0.38
265.34	0.45
265.555	0.52
265.77	0.39
265.986	0.38
266.201	0.38
266.416	0.37
266.631	0.36
266.846	0.33
267.061	0.42
267.276	0.37
267.491	0.2
267.706	0.38
267.921	0.32
268.136	0.32
268.351	0.39
268.566	0.22
268.781	0.42
268.996	0.39
269.211	0.31
269.426	0.25
269.641	0.32
269.856	0.38
270.071	0.3
270.285	0.23
270.5	0.41
270.715	0.42
270.93	0.34
271.145	0.32
271.359	0.41
271.574	0.26
271.789	0.33
272.004	0.38
272.218	0.31
272.433	0.39
272.648	0.29
272.862	0.42
273.077	0.37
273.292	0.35
273.506	0.31
273.721	0.32
273.936	0.35
274.15	0.43
274.365	0.3
274.579	0.42
274.794	0.32
275.008	0.42
275.223	0.26
275.437	0.37
275.652	0.46
275.866	0.39
276.081	0.28
276.295	0.42
276.509	0.33
276.724	0.29
276.938	0.31
277.153	0.31
277.367	0.41
277.581	0.34
277.796	0.32
278.01	0.32
278.224	0.38
278.438	0.45
278.653	0.27
278.867	0.31
279.081	0.13
279.295	0.31
279.51	0.33
279.724	0.24
279.938	0.37
280.152	0.34
280.366	0.24
280.58	0.28
280.794	0.37
281.008	0.37
281.222	0.38
281.437	0.45
281.651	0.34
281.865	0.38
282.079	0.32
282.293	0.24
282.507	0.29
282.721	0.28
282.935	0.32
283.148	0.24
283.362	0.26
283.576	0.22
283.79	0.3
284.004	0.27
284.218	0.35
284.432	0.28
284.646	0.3
284.859	0.31
285.073	0.3
285.287	0.37
285.501	0.34
285.714	0.31
285.928	0.31
286.142	0.31
286.356	0.31
286.569	0.28
286.783	0.4
286.997	0.38
287.21	0.31
287.424	0.33
287.637	0.31
287.851	0.27
288.065	0.32
288.278	0.3
288.492	0.34
288.705	0.32
288.919	0.34
289.132	0.25
289.346	0.32
289.559	0.24
289.773	0.22
289.986	0.29
290.2	0.33
290.413	0.39
290.626	0.27
290.84	0.28
291.053	0.26
291.267	0.41
291.48	0.25
291.693	0.25
291.906	0.25
292.12	0.27
292.333	0.28
292.546	0.26
292.76	0.35
292.973	0.32
293.186	0.37
293.399	0.25
293.612	0.37
293.826	0.34
294.039	0.27
294.252	0.25
294.465	0.31
294.678	0.32
294.891	0.27
295.104	0.26
295.317	0.25
295.53	0.27
295.743	0.24
295.956	0.28
296.169	0.35
296.382	0.32
296.595	0.26
296.808	0.23
297.021	0.26
297.234	0.32
297.447	0.26
297.66	0.34
297.873	0.35
298.086	0.26
298.299	0.23
298.511	0.22
298.724	0.29
298.937	0.21
299.15	0.24
299.363	0.28
299.575	0.3
299.788	0.29
300.001	0.22
300.213	0.24
300.426	0.28
300.639	0.28
300.852	0.2
301.064	0.3
301.277	0.37
301.489	0.29
301.702	0.34
301.915	0.22
302.127	0.26
302.34	0.32
302.552	0.26
302.765	0.27
302.977	0.29
303.19	0.26
303.402	0.28
303.615	0.25
303.827	0.23
304.04	0.27
304.252	0.27
304.464	0.23
304.677	0.36
304.889	0.28
305.102	0.22
305.314	0.22
305.526	0.32
305.739	0.29
305.951	0.21
306.163	0.26
306.375	0.31
306.588	0.28
306.8	0.22
307.012	0.21
307.224	0.28
307.436	0.4
307.649	0.23
307.861	0.24
308.073	0.28
308.285	0.25
308.497	0.25
308.709	0.24
308.921	0.29
309.133	0.33
309.346	0.28
309.558	0.27
309.77	0.28
309.982	0.33
310.194	0.28
310.406	0.2
310.617	0.29
310.829	0.3
311.041	0.26
311.253	0.23
311.465	0.25
311.677	0.26
311.889	0.27
312.101	0.23
312.313	0.33
312.524	0.31
312.736	0.18
312.948	0.27
313.16	0.32
313.372	0.31
313.583	0.3
313.795	0.26
314.007	0.23
314.218	0.29
314.43	0.25
314.642	0.22
314.853	0.24
315.065	0.33
315.277	0.28
315.488	0.29
315.7	0.32
315.912	0.32
316.123	0.25
316.335	0.28
316.546	0.35
316.758	0.24
316.969	0.27
317.181	0.23
317.392	0.29
317.604	0.3
317.815	0.28
318.026	0.2
318.238	0.23
318.449	0.26
318.661	0.18
318.872	0.25
319.083	0.24
319.295	0.28
319.506	0.23
319.717	0.26
319.929	0.28
320.14	0.24
320.351	0.28
320.562	0.24
320.774	0.28
320.985	0.3
321.196	0.24
321.407	0.23
321.618	0.31
321.829	0.28
322.041	0.32
322.252	0.25
322.463	0.31
322.674	0.26
322.885	0.21
323.096	0.24
323.307	0.27
323.518	0.27
323.729	0.24
323.94	0.25
324.151	0.24
324.362	0.23
324.573	0.3
324.784	0.24
324.995	0.28
325.206	0.29
325.417	0.24
325.628	0.21
325.838	0.22
326.049	0.28
326.26	0.28
326.471	0.27
326.682	0.31
326.892	0.26
327.103	0.2
327.314	0.2
327.525	0.31
327.735	0.31
327.946	0.24
328.157	0.23
328.368	0.27
328.578	0.3
328.789	0.29
328.999	0.25
329.21	0.23
329.421	0.27
329.631	0.23
329.842	0.23
330.052	0.29
330.263	0.29
330.473	0.26
330.684	0.26
330.894	0.24
331.105	0.28
331.315	0.25
331.526	0.2
331.736	0.34
331.947	0.29
332.157	0.24
332.367	0.24
332.578	0.28
332.788	0.28
332.999	0.32
333.209	0.28
333.419	0.25
333.629	0.28
333.84	0.27
334.05	0.27
334.26	0.32
334.47	0.31
334.681	0.29
334.891	0.22
335.101	0.25
335.311	0.31
335.521	0.28
335.732	0.23
335.942	0.31
336.152	0.27
336.362	0.3
336.572	0.29
336.782	0.25
336.992	0.24
337.202	0.24
337.412	0.22
337.622	0.29
337.832	0.25
338.042	0.28
338.252	0.24
338.462	0.27
338.672	0.25
338.882	0.28
339.092	0.24
339.302	0.31
339.511	0.27
339.721	0.2
339.931	0.25
340.141	0.29
340.351	0.31
340.561	0.26
340.77	0.28
340.98	0.27
341.19	0.28
341.4	0.22
341.609	0.21
341.819	0.25
342.029	0.24
342.238	0.26
342.448	0.23
342.658	0.29
342.867	0.23
343.077	0.24
343.286	0.26
343.496	0.24
343.706	0.32
343.915	0.21
344.125	0.26
344.334	0.3
344.544	0.16
344.753	0.24
344.963	0.27
345.172	0.2
345.381	0.21
345.591	0.22
345.8	0.24
346.01	0.33
346.219	0.34
346.428	0.11
346.638	0.27
346.847	0.26
347.056	0.35
347.266	0.23
347.475	0.29
347.684	0.26
347.893	0.3
348.103	0.25
348.312	0.23
348.521	0.22
348.73	0.27
348.94	0.26
349.149	0.24
349.358	0.24
349.567	0.23
349.776	0.24
349.985	0.25
350.194	0.24
350.403	0.29
350.612	0.21
350.821	0.26
351.03	0.23
351.239	0.23
351.448	0.24
351.657	0.21
351.866	0.36
352.075	0.24
352.284	0.32
352.493	0.22
352.702	0.32
352.911	0.29
353.12	0.26
353.329	0.24
353.538	0.25
353.746	0.25
353.955	0.24
354.164	0.29
354.373	0.26
354.582	0.28
354.79	0.24
354.999	0.28
355.208	0.22
355.416	0.31
355.625	0.19
355.834	0.23
356.042	0.29
356.251	0.21
356.46	0.21
356.668	0.27
356.877	0.31
357.085	0.26
357.294	0.22
357.503	0.29
357.711	0.22
357.92	0.37
358.128	0.26
358.337	0.21
358.545	0.27
358.754	0.24
358.962	0.28
359.17	0.22
359.379	0.26
359.587	0.3
359.796	0.23
360.004	0.33
360.212	0.22
360.421	0.26
360.629	0.22
360.837	0.21
361.046	0.28
361.254	0.36
361.462	0.25
361.67	0.25
361.879	0.27
362.087	0.3
362.295	0.29
362.503	0.21
362.711	0.2
362.92	0.3
363.128	0.23
363.336	0.2
363.544	0.21
363.752	0.25
363.96	0.24
364.168	0.22
364.376	0.24
364.584	0.26
364.792	0.3
365	0.27
365.208	0.26
365.416	0.24
365.624	0.32
365.832	0.23
366.04	0.27
366.248	0.22
366.456	0.29
366.664	0.26
366.872	0.27
367.079	0.24
367.287	0.23
367.495	0.25
367.703	0.28
367.911	0.25
368.118	0.25
368.326	0.26
368.534	0.19
368.742	0.31
368.949	0.23
369.157	0.22
369.365	0.3
369.572	0.24
369.78	0.22
369.988	0.27
370.195	0.26
370.403	0.28
370.61	0.28
370.818	0.23
371.026	0.31
371.233	0.2
371.441	0.27
371.648	0.2
371.856	0.27
372.063	0.24
372.271	0.22
372.478	0.24
372.685	0.22
372.893	0.28
373.1	0.26
373.308	0.28
373.515	0.29
373.722	0.29
373.93	0.21
374.137	0.31
374.344	0.36
374.552	0.32
374.759	0.29
374.966	0.27
375.173	0.28
375.381	0.33
375.588	0.24
375.795	0.2
376.002	0.23
376.209	0.22
376.417	0.28
376.624	0.32
376.831	0.27
377.038	0.26
377.245	0.19
377.452	0.29
377.659	0.33
377.866	0.24
378.073	0.24
378.28	0.3
378.487	0.28
378.694	0.29
378.901	0.23
379.108	0.2
379.315	0.27
379.522	0.38
379.729	0.3
379.936	0.29
380.143	0.28
380.35	0.33
380.557	0.28
380.763	0.29
380.97	0.31
381.177	0.32
381.384	0.31
381.591	0.26
381.797	0.29
382.004	0.34
382.211	0.3
382.418	0.25
382.624	0.31
382.831	0.3
383.038	0.25
383.244	0.3
383.451	0.27
383.658	0.3
383.864	0.3
384.071	0.24
384.277	0.37
384.484	0.25
384.69	0.34
384.897	0.27
385.103	0.25
385.31	0.25
385.516	0.27
385.723	0.22
385.929	0.29
386.136	0.28
386.342	0.27
386.549	0.27
386.755	0.38
386.961	0.29
387.168	0.28
387.374	0.29
387.58	0.32
387.787	0.29
387.993	0.32
388.199	0.24
388.406	0.28
388.612	0.31
388.818	0.32
389.024	0.25
389.231	0.35
389.437	0.34
389.643	0.33
389.849	0.28
390.055	0.29
390.261	0.29
390.467	0.29
390.674	0.26
390.88	0.31
391.086	0.32
391.292	0.31
391.498	0.35
391.704	0.34
391.91	0.35
392.116	0.28
392.322	0.2
392.528	0.32
392.734	0.26
392.94	0.28
393.146	0.27
393.352	0.32
393.557	0.26
393.763	0.29
393.969	0.33
394.175	0.32
394.381	0.35
394.587	0.24
394.792	0.31
394.998	0.34
395.204	0.34
395.41	0.29
395.615	0.33
395.821	0.36
396.027	0.37
396.233	0.31
396.438	0.39
396.644	0.33
396.85	0.33
397.055	0.34
397.261	0.37
397.466	0.49
397.672	0.36
397.878	0.37
398.083	0.41
398.289	0.31
398.494	0.37
398.7	0.37
398.905	0.27
399.111	0.33
399.316	0.27
399.522	0.37
399.727	0.33
399.932	0.36
400.138	0.33
400.343	0.36
400.549	0.33
400.754	0.36
400.959	0.41
401.165	0.34
401.37	0.41
401.575	0.42
401.78	0.35
401.986	0.37
402.191	0.38
402.396	0.35
402.601	0.43
402.807	0.4
403.012	0.42
403.217	0.42
403.422	0.41
403.627	0.4
403.832	0.41
404.037	0.42
404.243	0.42
404.448	0.4
404.653	0.43
404.858	0.37
405.063	0.44
405.268	0.44
405.473	0.41
405.678	0.42
405.883	0.63
406.088	0.49
406.293	0.41
406.498	0.43
406.703	0.5
406.907	0.49
407.112	0.43
407.317	0.52
407.522	0.53
407.727	0.47
407.932	0.51
408.136	0.61
408.341	0.55
408.546	0.59
408.751	0.63
408.956	0.54
409.16	0.68
409.365	0.66
409.57	0.62
409.774	0.64
409.979	0.68
410.184	0.67
410.388	0.64
410.593	0.79
410.798	0.74
411.002	0.77
411.207	0.84
411.411	0.79
411.616	0.78
411.82	0.84
412.025	0.81
412.229	0.84
412.434	0.89
412.638	0.9
412.843	0.92
413.047	0.88
413.252	0.96
413.456	0.97
413.66	1.04
413.865	0.96
414.069	1.08
414.273	1.11
414.478	1.11
414.682	1.15
414.886	1.17
415.091	1.2
415.295	1.24
415.499	1.32
415.703	1.31
415.908	1.39
416.112	1.3
416.316	1.63
416.52	1.55
416.724	1.52
416.929	1.62
417.133	1.82
417.337	1.71
417.541	1.81
417.745	1.85
417.949	1.99
418.153	2.01
418.357	1.98
418.561	2.16
418.765	2.17
418.969	2.34
419.173	2.41
419.377	2.38
419.581	2.61
419.785	2.55
419.989	2.59
420.193	2.8
420.397	2.8
420.601	2.98
420.804	3.04
421.008	3.08
421.212	3.22
421.416	3.19
421.62	3.26
421.823	3.25
422.027	3.43
422.231	3.48
422.435	3.47
422.638	3.45
422.842	3.6
423.046	3.72
423.249	3.85
423.453	3.9
423.657	4.04
423.86	4.11
424.064	4.3
424.268	4.47
424.471	4.34
424.675	4.67
424.878	4.67
425.082	4.88
425.285	5.14
425.489	4.94
425.692	5.12
425.896	5.19
426.099	5.43
426.303	5.54
426.506	5.8
426.71	5.86
426.913	6.03
427.116	6.19
427.32	6.28
427.523	6.36
427.726	6.66
427.93	6.63
428.133	7.04
428.336	7.18
428.54	7.27
428.743	7.59
428.946	7.77
429.149	7.74
429.353	7.89
429.556	7.97
429.759	7.88
429.962	8.07
430.165	8.27
430.368	7.92
430.571	8.02
430.775	8.05
430.978	8.05
431.181	8.08
431.384	8.22
431.587	8.31
431.79	8.63
431.993	8.6
432.196	8.9
432.399	9.22
432.602	9.32
432.805	9.38
433.008	9.98
433.211	9.9
433.414	10.21
433.616	10.32
433.819	10.23
434.022	10.28
434.225	10.54
434.428	10.59
434.631	10.96
434.833	10.66
435.036	11.1
435.239	11.3
435.442	11.3
435.645	11.4
435.847	11.57
436.05	11.71
436.253	12.05
436.455	12.02
436.658	11.88
436.861	12.22
437.063	12.41
437.266	12.34
437.468	12.71
437.671	13.04
437.874	13.08
438.076	12.88
438.279	13.36
438.481	13.41
438.684	14.24
438.886	13.8
439.089	13.97
439.291	14.01
439.494	14.47
439.696	14.63
439.899	15.14
440.101	15.6
440.303	15.71
440.506	16.45
440.708	16.19
440.91	16.43
441.113	16.62
441.315	16.8
441.517	16.68
441.72	17.24
441.922	16.8
442.124	16.76
442.326	17.14
442.529	17.24
442.731	17.37
442.933	17.74
443.135	17.51
443.337	17.46
443.539	17.96
443.742	17.62
443.944	18.26
444.146	17.99
444.348	18.04
444.55	17.88
444.752	18.09
444.954	18.27
445.156	18.02
445.358	18.44
445.56	18.69
445.762	18.34
445.964	18.73
446.166	18.73
446.368	18.49
446.57	18.61
446.772	18.32
446.974	17.91
447.175	18.33
447.377	17.95
447.579	18.45
447.781	18.15
447.983	17.82
448.184	17.46
448.386	17.87
448.588	17.23
448.79	17.25
448.991	17.55
449.193	17.53
449.395	16.94
449.597	16.64
449.798	16.56
450	15.94
450.202	16.04
450.403	15.99
450.605	15.7
450.806	15.5
451.008	15.39
451.21	15.12
451.411	14.66
451.613	13.97
451.814	14.21
452.016	14.2
452.217	13.38
452.419	13.52
452.62	13.07
452.821	12.95
453.023	12.79
453.224	12.36
453.426	12
453.627	11.33
453.828	11.44
454.03	11.39
454.231	11.44
454.432	11.22
454.634	10.96
454.835	10.62
455.036	10.59
455.238	10.17
455.439	9.98
455.64	9.74
455.841	9.46
456.042	9.68
456.244	9.36
456.445	9.01
456.646	8.74
456.847	8.69
457.048	8.66
457.249	8.67
457.45	8.24
457.651	7.89
457.852	7.68
458.054	7.32
458.255	7.3
458.456	7.29
458.657	7.21
458.858	6.85
459.058	6.72
459.259	6.82
459.46	6.58
459.661	6.57
459.862	6.55
460.063	6.49
460.264	6.3
460.465	6.12
460.666	6.17
460.866	5.81
461.067	5.57
461.268	5.64
461.469	5.58
461.67	5.41
461.87	5.27
462.071	5.28
462.272	5.23
462.473	5.2
462.673	5.29
462.874	5.18
463.075	5.16
463.275	5.18
463.476	5.23
463.676	5.09
463.877	4.92
464.078	5.07
464.278	4.99
464.479	4.93
464.679	4.82
464.88	4.76
465.08	4.65
465.281	4.54
465.481	4.39
465.682	4.2
465.882	4.2
466.083	4.17
466.283	4.1
466.483	4.01
466.684	3.8
466.884	3.71
467.085	3.73
467.285	3.8
467.485	3.66
467.686	3.57
467.886	3.47
468.086	3.51
468.286	3.48
468.487	3.45
468.687	3.34
468.887	3.29
469.087	3.44
469.287	3.27
469.488	3.14
469.688	3.2
469.888	3.18
470.088	3.17
470.288	3.11
470.488	3
470.688	2.91
470.888	2.83
471.088	2.75
471.288	2.78
471.488	2.81
471.688	2.77
471.888	2.75
472.088	2.85
472.288	2.73
472.488	2.69
472.688	2.64
472.888	2.66
473.088	2.64
473.288	2.51
473.488	2.5
473.688	2.66
473.887	2.47
474.087	2.5
474.287	2.49
474.487	2.37
474.687	2.42
474.886	2.39
475.086	2.33
475.286	2.37
475.486	2.36
475.685	2.29
475.885	2.28
476.085	2.31
476.284	2.31
476.484	2.31
476.684	2.25
476.883	2.31
477.083	2.23
477.282	2.13
477.482	2.18
477.681	2.17
477.881	2.08
478.08	2.15
478.28	2.04
478.479	2.14
478.679	2.19
478.878	2.06
479.078	2.05
479.277	2.09
479.477	2.05
479.676	2.06
479.875	2.03
480.075	2.01
480.274	2.02
480.473	2.05
480.673	2.03
480.872	2.1
481.071	2.07
481.271	2.1
481.47	1.99
481.669	2.02
481.868	1.95
482.067	1.99
482.267	1.96
482.466	1.97
482.665	1.95
482.864	1.94
483.063	1.94
483.262	2.02
483.461	2.04
483.661	2.09
483.86	2
484.059	2.04
484.258	2.04
484.457	2
484.656	2.05
484.855	2.05
485.054	1.94
485.253	2
485.452	2.01
485.651	2.08
485.849	2.05
486.048	2.02
486.247	2.05
486.446	2.08
486.645	2.05
486.844	2.03
487.043	2.03
487.241	2.09
487.44	2.08
487.639	2.15
487.838	2.13
488.037	2.1
488.235	2.2
488.434	2.17
488.633	2.07
488.831	2.19
489.03	2.23
489.229	2.22
489.427	2.2
489.626	2.25
489.825	2.26
490.023	2.28
490.222	2.27
490.42	2.3
490.619	2.37
490.817	2.38
491.016	2.35
491.214	2.38
491.413	2.39
491.611	2.36
491.81	2.4
492.008	2.49
492.207	2.54
492.405	2.53
492.604	2.44
492.802	2.55
493	2.57
493.199	2.64
493.397	2.64
493.595	2.71
493.794	2.66
493.992	2.78
494.19	2.72
494.388	2.81
494.587	2.76
494.785	2.77
494.983	2.75
495.181	2.87
495.379	2.93
495.578	2.95
495.776	2.96
495.974	2.88
496.172	2.95
496.37	3.09
496.568	3.07
496.766	3.09
496.964	3.19
497.162	3.17
497.36	3.21
497.558	3.23
497.756	3.27
497.954	3.25
498.152	3.37
498.35	3.39
498.548	3.37
498.746	3.35
498.944	3.41
499.142	3.44
499.34	3.52
499.538	3.62
499.736	3.51
499.933	3.6
500.131	3.61
500.329	3.77
500.527	3.75
500.725	3.87
500.922	3.83
501.12	3.85
501.318	3.92
501.516	3.92
501.713	4.01
501.911	3.99
502.109	3.95
502.306	4.08
