Data from Apollo_Calib_20240827__AbsoluteIrradiance__865__13-34-02-791.txt Node

Date: Wed Aug 28 13:34:02 BST 2024
User: biology
Spectrometer: FLMT08252
Trigger mode: 0
Integration Time (sec): 5.000000E-1
Scans to average: 5
Electric dark correction enabled: true
Nonlinearity correction enabled: false
Boxcar width: 0
XAxis mode: Wavelengths
Number of Pixels in Spectrum: 3648
>>>>>Begin Spectral Data<<<<<
179.588	-0
179.809	-0
180.03	-0
180.251	-0
180.473	-0
180.694	0
180.915	0
181.136	-0
181.357	0
181.578	-0
181.799	-0
182.02	-0
182.241	-0
182.462	-0
182.683	0
182.904	-0
183.125	-0
183.346	0
183.567	0
183.788	0
184.009	0
184.23	0
184.451	0
184.672	0
184.892	0
185.113	0
185.334	0
185.555	0
185.776	0
185.996	0
186.217	0
186.438	0
186.659	0
186.879	0
187.1	0
187.321	0
187.541	0
187.762	0
187.983	0
188.203	0
188.424	0
188.644	0
188.865	0
189.086	0
189.306	0
189.527	0
189.747	0
189.968	0
190.188	0
190.409	0
190.629	0
190.849	0
191.07	0
191.29	0
191.511	0
191.731	0
191.951	0
192.172	0
192.392	0
192.612	0
192.833	0
193.053	0
193.273	0
193.493	0
193.714	0
193.934	0
194.154	0
194.374	0
194.594	0
194.815	0
195.035	0
195.255	0
195.475	0
195.695	0
195.915	0
196.135	0
196.355	0
196.575	0
196.795	0
197.015	0
197.235	0
197.455	0
197.675	0
197.895	0
198.115	0
198.335	0
198.555	0
198.775	0
198.995	0
199.214	0
199.434	0
199.654	0
199.874	0
200.094	3.56
200.313	2.61
200.533	2.19
200.753	1.79
200.973	3.86
201.192	3.35
201.412	0.91
201.632	1.57
201.851	3.35
202.071	1.74
202.291	1.66
202.51	1.24
202.73	2.67
202.95	1.92
203.169	0.76
203.389	1.46
203.608	1.86
203.828	1.62
204.047	1.55
204.267	1.83
204.486	1.77
204.706	1.8
204.925	1.6
205.145	0.99
205.364	1.99
205.583	2.29
205.803	0.99
206.022	1
206.242	2.18
206.461	1.34
206.68	1.08
206.9	1.46
207.119	2.62
207.338	2.16
207.557	0.92
207.777	1.17
207.996	1.18
208.215	2.1
208.434	0.9
208.654	0.79
208.873	1.12
209.092	2.34
209.311	1.07
209.53	0.97
209.749	1.06
209.968	0.81
210.187	1.05
210.407	0.78
210.626	1.06
210.845	1.52
211.064	0.92
211.283	0.53
211.502	1.53
211.721	1.06
211.94	0.96
212.159	1.22
212.377	1.38
212.596	1.25
212.815	1.16
213.034	1.17
213.253	1.11
213.472	1.33
213.691	0.86
213.91	0.7
214.128	0.58
214.347	1.49
214.566	0.49
214.785	0.36
215.003	1.3
215.222	1.06
215.441	0.68
215.66	0.51
215.878	1
216.097	1.35
216.316	0.58
216.534	0.74
216.753	1.16
216.972	0.77
217.19	0.78
217.409	0.48
217.627	0.93
217.846	0.86
218.064	0.81
218.283	0.53
218.501	1.39
218.72	1.14
218.938	0.6
219.157	0.6
219.375	1.04
219.594	0.93
219.812	0.52
220.031	0.4
220.249	1.12
220.467	1.23
220.686	0.59
220.904	0.37
221.122	0.74
221.341	1.06
221.559	0.93
221.777	0.44
221.995	0.81
222.214	0.94
222.432	0.46
222.65	0.81
222.868	0.77
223.086	0.75
223.305	0.91
223.523	0.6
223.741	1.33
223.959	0.69
224.177	0.22
224.395	0.43
224.613	0.63
224.831	0.89
225.049	0.37
225.267	0.62
225.485	0.74
225.703	0.6
225.921	0.66
226.139	0.36
226.357	0.84
226.575	0.89
226.793	0.48
227.011	1.68
227.229	0.67
227.447	0.84
227.665	0.54
227.883	0.38
228.1	0.61
228.318	0.75
228.536	0.3
228.754	0.34
228.972	0.73
229.189	0.7
229.407	0.56
229.625	0.5
229.843	0.84
230.06	0.73
230.278	0.48
230.496	0.55
230.713	0.63
230.931	0.73
231.149	0.49
231.366	0.18
231.584	0.62
231.801	0.92
232.019	0.36
232.236	0.38
232.454	0.46
232.671	0.7
232.889	0.46
233.106	0.32
233.324	0.51
233.541	0.47
233.759	0.45
233.976	0.37
234.194	0.49
234.411	0.52
234.628	0.44
234.846	0.41
235.063	0.51
235.28	0.5
235.498	0.45
235.715	0.26
235.932	0.73
236.149	0.56
236.367	0.31
236.584	0.58
236.801	0.48
237.018	0.56
237.236	0.37
237.453	0.28
237.67	0.62
237.887	0.44
238.104	0.47
238.321	0.28
238.538	0.35
238.755	0.75
238.973	0.19
239.19	0.46
239.407	0.58
239.624	0.53
239.841	0.33
240.058	0.29
240.275	0.56
240.492	0.46
240.709	0.43
240.925	0.36
241.142	0.52
241.359	0.29
241.576	0.16
241.793	0.28
242.01	0.46
242.227	0.62
242.444	0.49
242.66	0.57
242.877	0.46
243.094	0.32
243.311	0.48
243.527	0.34
243.744	0.58
243.961	0.59
244.178	0.35
244.394	0.36
244.611	0.62
244.828	0.61
245.044	0.24
245.261	0.34
245.477	0.46
245.694	0.5
245.911	0.23
246.127	0.46
246.344	0.6
246.56	0.51
246.777	0.32
246.993	0.35
247.21	0.49
247.426	0.46
247.643	0.33
247.859	0.28
248.076	0.33
248.292	0.66
248.508	0.4
248.725	0.5
248.941	0.51
249.157	0.48
249.374	0.29
249.59	0.46
249.806	0.37
250.023	0.6
250.239	0.33
250.455	0.31
250.671	0.41
250.888	0.43
251.104	0.45
251.32	0.34
251.536	0.34
251.752	0.35
251.969	0.33
252.185	0.36
252.401	0.71
252.617	0.43
252.833	0.33
253.049	0.42
253.265	0.43
253.481	0.36
253.697	0.34
253.913	0.32
254.129	0.44
254.345	0.46
254.561	0.23
254.777	0.3
254.993	0.47
255.209	0.46
255.425	0.3
255.641	0.24
255.857	0.5
256.073	0.4
256.288	0.31
256.504	0.28
256.72	0.45
256.936	0.52
257.152	0.35
257.367	0.34
257.583	0.36
257.799	0.43
258.015	0.24
258.23	0.23
258.446	0.59
258.662	0.38
258.877	0.21
259.093	0.26
259.309	0.39
259.524	0.46
259.74	0.32
259.955	0.24
260.171	0.31
260.387	0.38
260.602	0.37
260.818	0.34
261.033	0.3
261.249	0.42
261.464	0.31
261.68	0.23
261.895	0.45
262.11	0.38
262.326	0.28
262.541	0.22
262.757	0.44
262.972	0.44
263.187	0.37
263.403	0.3
263.618	0.44
263.833	0.29
264.049	0.22
264.264	0.29
264.479	0.41
264.694	0.43
264.91	0.26
265.125	0.29
265.34	0.42
265.555	0.56
265.77	0.37
265.986	0.27
266.201	0.47
266.416	0.36
266.631	0.28
266.846	0.26
267.061	0.46
267.276	0.41
267.491	0.16
267.706	0.38
267.921	0.36
268.136	0.36
268.351	0.28
268.566	0.19
268.781	0.47
268.996	0.38
269.211	0.27
269.426	0.16
269.641	0.27
269.856	0.47
270.071	0.3
270.285	0.2
270.5	0.39
270.715	0.44
270.93	0.27
271.145	0.29
271.359	0.47
271.574	0.23
271.789	0.33
272.004	0.18
272.218	0.33
272.433	0.41
272.648	0.28
272.862	0.34
273.077	0.35
273.292	0.32
273.506	0.25
273.721	0.3
273.936	0.41
274.15	0.4
274.365	0.26
274.579	0.35
274.794	0.44
275.008	0.41
275.223	0.22
275.437	0.31
275.652	0.32
275.866	0.38
276.081	0.32
276.295	0.39
276.509	0.34
276.724	0.29
276.938	0.32
277.153	0.35
277.367	0.36
277.581	0.31
277.796	0.23
278.01	0.26
278.224	0.41
278.438	0.49
278.653	0.27
278.867	0.23
279.081	0.16
279.295	0.32
279.51	0.35
279.724	0.2
279.938	0.39
280.152	0.32
280.366	0.26
280.58	0.3
280.794	0.43
281.008	0.31
281.222	0.38
281.437	0.46
281.651	0.34
281.865	0.33
282.079	0.25
282.293	0.1
282.507	0.23
282.721	0.3
282.935	0.23
283.148	0.18
283.362	0.27
283.576	0.19
283.79	0.25
284.004	0.22
284.218	0.37
284.432	0.2
284.646	0.26
284.859	0.23
285.073	0.27
285.287	0.33
285.501	0.3
285.714	0.28
285.928	0.29
286.142	0.31
286.356	0.2
286.569	0.23
286.783	0.38
286.997	0.3
287.21	0.25
287.424	0.26
287.637	0.23
287.851	0.27
288.065	0.31
288.278	0.27
288.492	0.27
288.705	0.26
288.919	0.31
289.132	0.21
289.346	0.37
289.559	0.21
289.773	0.16
289.986	0.27
290.2	0.29
290.413	0.35
290.626	0.16
290.84	0.26
291.053	0.3
291.267	0.38
291.48	0.22
291.693	0.2
291.906	0.24
292.12	0.25
292.333	0.17
292.546	0.21
292.76	0.36
292.973	0.32
293.186	0.24
293.399	0.2
293.612	0.31
293.826	0.26
294.039	0.26
294.252	0.22
294.465	0.32
294.678	0.29
294.891	0.26
295.104	0.19
295.317	0.22
295.53	0.28
295.743	0.23
295.956	0.25
296.169	0.37
296.382	0.32
296.595	0.24
296.808	0.2
297.021	0.37
297.234	0.35
297.447	0.2
297.66	0.24
297.873	0.33
298.086	0.36
298.299	0.21
298.511	0.16
298.724	0.26
298.937	0.15
299.15	0.2
299.363	0.24
299.575	0.31
299.788	0.31
300.001	0.22
300.213	0.18
300.426	0.23
300.639	0.19
300.852	0.19
301.064	0.28
301.277	0.37
301.489	0.32
301.702	0.29
301.915	0.2
302.127	0.26
302.34	0.26
302.552	0.27
302.765	0.18
302.977	0.31
303.19	0.22
303.402	0.24
303.615	0.22
303.827	0.21
304.04	0.28
304.252	0.28
304.464	0.22
304.677	0.4
304.889	0.3
305.102	0.21
305.314	0.2
305.526	0.29
305.739	0.3
305.951	0.17
306.163	0.17
306.375	0.34
306.588	0.2
306.8	0.23
307.012	0.2
307.224	0.26
307.436	0.41
307.649	0.14
307.861	0.25
308.073	0.28
308.285	0.21
308.497	0.16
308.709	0.23
308.921	0.26
309.133	0.34
309.346	0.26
309.558	0.22
309.77	0.32
309.982	0.36
310.194	0.28
310.406	0.19
310.617	0.36
310.829	0.22
311.041	0.27
311.253	0.17
311.465	0.23
311.677	0.24
311.889	0.25
312.101	0.19
312.313	0.32
312.524	0.38
312.736	0.15
312.948	0.19
313.16	0.35
313.372	0.32
313.583	0.26
313.795	0.2
314.007	0.27
314.218	0.31
314.43	0.26
314.642	0.19
314.853	0.16
315.065	0.31
315.277	0.23
315.488	0.26
315.7	0.31
315.912	0.3
316.123	0.25
316.335	0.2
316.546	0.37
316.758	0.23
316.969	0.21
317.181	0.25
317.392	0.23
317.604	0.32
317.815	0.18
318.026	0.21
318.238	0.2
318.449	0.28
318.661	0.13
318.872	0.2
319.083	0.17
319.295	0.29
319.506	0.21
319.717	0.23
319.929	0.29
320.14	0.21
320.351	0.25
320.562	0.22
320.774	0.25
320.985	0.25
321.196	0.2
321.407	0.17
321.618	0.33
321.829	0.28
322.041	0.24
322.252	0.22
322.463	0.27
322.674	0.28
322.885	0.22
323.096	0.25
323.307	0.24
323.518	0.27
323.729	0.2
323.94	0.24
324.151	0.21
324.362	0.28
324.573	0.26
324.784	0.24
324.995	0.3
325.206	0.25
325.417	0.18
325.628	0.21
325.838	0.24
326.049	0.26
326.26	0.26
326.471	0.21
326.682	0.27
326.892	0.24
327.103	0.21
327.314	0.24
327.525	0.29
327.735	0.23
327.946	0.17
328.157	0.2
328.368	0.28
328.578	0.24
328.789	0.28
328.999	0.25
329.21	0.2
329.421	0.32
329.631	0.2
329.842	0.22
330.052	0.24
330.263	0.26
330.473	0.31
330.684	0.17
330.894	0.27
331.105	0.22
331.315	0.24
331.526	0.18
331.736	0.38
331.947	0.24
332.157	0.29
332.367	0.15
332.578	0.28
332.788	0.31
332.999	0.27
333.209	0.19
333.419	0.15
333.629	0.29
333.84	0.24
334.05	0.22
334.26	0.33
334.47	0.24
334.681	0.27
334.891	0.25
335.101	0.27
335.311	0.35
335.521	0.25
335.732	0.18
335.942	0.28
336.152	0.28
336.362	0.25
336.572	0.22
336.782	0.24
336.992	0.22
337.202	0.21
337.412	0.21
337.622	0.31
337.832	0.21
338.042	0.24
338.252	0.23
338.462	0.22
338.672	0.2
338.882	0.29
339.092	0.18
339.302	0.33
339.511	0.27
339.721	0.21
339.931	0.19
340.141	0.32
340.351	0.31
340.561	0.23
340.77	0.24
340.98	0.24
341.19	0.25
341.4	0.25
341.609	0.18
341.819	0.21
342.029	0.19
342.238	0.26
342.448	0.18
342.658	0.27
342.867	0.25
343.077	0.23
343.286	0.23
343.496	0.26
343.706	0.35
343.915	0.16
344.125	0.22
344.334	0.27
344.544	0.22
344.753	0.19
344.963	0.18
345.172	0.23
345.381	0.21
345.591	0.2
345.8	0.23
346.01	0.29
346.219	0.27
346.428	0.13
346.638	0.23
346.847	0.22
347.056	0.31
347.266	0.19
347.475	0.25
347.684	0.24
347.893	0.28
348.103	0.29
348.312	0.19
348.521	0.22
348.73	0.25
348.94	0.23
349.149	0.22
349.358	0.27
349.567	0.22
349.776	0.16
349.985	0.18
350.194	0.28
350.403	0.31
350.612	0.14
350.821	0.19
351.03	0.26
351.239	0.18
351.448	0.18
351.657	0.23
351.866	0.37
352.075	0.26
352.284	0.31
352.493	0.2
352.702	0.3
352.911	0.24
353.12	0.26
353.329	0.27
353.538	0.27
353.746	0.22
353.955	0.2
354.164	0.27
354.373	0.25
354.582	0.33
354.79	0.21
354.999	0.2
355.208	0.22
355.416	0.38
355.625	0.23
355.834	0.21
356.042	0.3
356.251	0.18
356.46	0.19
356.668	0.25
356.877	0.34
357.085	0.28
357.294	0.15
357.503	0.22
357.711	0.28
357.92	0.4
358.128	0.26
358.337	0.23
358.545	0.21
358.754	0.24
358.962	0.26
359.17	0.21
359.379	0.24
359.587	0.23
359.796	0.21
360.004	0.3
360.212	0.26
360.421	0.29
360.629	0.19
360.837	0.21
361.046	0.3
361.254	0.38
361.462	0.24
361.67	0.16
361.879	0.25
362.087	0.29
362.295	0.21
362.503	0.2
362.711	0.19
362.92	0.19
363.128	0.19
363.336	0.2
363.544	0.15
363.752	0.26
363.96	0.21
364.168	0.21
364.376	0.25
364.584	0.26
364.792	0.32
365	0.25
365.208	0.25
365.416	0.28
365.624	0.26
365.832	0.17
366.04	0.32
366.248	0.26
366.456	0.23
366.664	0.24
366.872	0.25
367.079	0.24
367.287	0.21
367.495	0.25
367.703	0.25
367.911	0.24
368.118	0.18
368.326	0.23
368.534	0.21
368.742	0.31
368.949	0.15
369.157	0.22
369.365	0.26
369.572	0.26
369.78	0.2
369.988	0.26
370.195	0.26
370.403	0.3
370.61	0.21
370.818	0.25
371.026	0.33
371.233	0.24
371.441	0.2
371.648	0.25
371.856	0.26
372.063	0.21
372.271	0.18
372.478	0.16
372.685	0.21
372.893	0.3
373.1	0.24
373.308	0.22
373.515	0.33
373.722	0.31
373.93	0.24
374.137	0.24
374.344	0.39
374.552	0.31
374.759	0.26
374.966	0.25
375.173	0.24
375.381	0.34
375.588	0.21
375.795	0.18
376.002	0.27
376.209	0.24
376.417	0.22
376.624	0.27
376.831	0.31
377.038	0.21
377.245	0.16
377.452	0.24
377.659	0.28
377.866	0.23
378.073	0.26
378.28	0.24
378.487	0.33
378.694	0.29
378.901	0.21
379.108	0.22
379.315	0.32
379.522	0.36
379.729	0.27
379.936	0.23
380.143	0.28
380.35	0.3
380.557	0.23
380.763	0.21
380.97	0.25
381.177	0.27
381.384	0.28
381.591	0.22
381.797	0.28
382.004	0.34
382.211	0.32
382.418	0.19
382.624	0.3
382.831	0.33
383.038	0.24
383.244	0.28
383.451	0.31
383.658	0.33
383.864	0.25
384.071	0.19
384.277	0.38
384.484	0.22
384.69	0.31
384.897	0.22
385.103	0.26
385.31	0.2
385.516	0.23
385.723	0.23
385.929	0.25
386.136	0.27
386.342	0.29
386.549	0.25
386.755	0.35
386.961	0.31
387.168	0.25
387.374	0.24
387.58	0.31
387.787	0.29
387.993	0.22
388.199	0.26
388.406	0.26
388.612	0.26
388.818	0.24
389.024	0.25
389.231	0.29
389.437	0.38
389.643	0.29
389.849	0.26
390.055	0.28
390.261	0.32
390.467	0.3
390.674	0.25
390.88	0.28
391.086	0.33
391.292	0.22
391.498	0.29
391.704	0.36
391.91	0.25
392.116	0.25
392.322	0.2
392.528	0.34
392.734	0.29
392.94	0.26
393.146	0.3
393.352	0.31
393.557	0.23
393.763	0.33
393.969	0.35
394.175	0.28
394.381	0.31
394.587	0.24
394.792	0.24
394.998	0.39
395.204	0.34
395.41	0.26
395.615	0.33
395.821	0.36
396.027	0.34
396.233	0.27
396.438	0.32
396.644	0.41
396.85	0.35
397.055	0.29
397.261	0.36
397.466	0.41
397.672	0.33
397.878	0.36
398.083	0.32
398.289	0.29
398.494	0.36
398.7	0.36
398.905	0.21
399.111	0.44
399.316	0.29
399.522	0.33
399.727	0.29
399.932	0.35
400.138	0.32
400.343	0.35
400.549	0.31
400.754	0.35
400.959	0.4
401.165	0.32
401.37	0.35
401.575	0.26
401.78	0.38
401.986	0.35
402.191	0.34
402.396	0.36
402.601	0.4
402.807	0.4
403.012	0.39
403.217	0.45
403.422	0.4
403.627	0.43
403.832	0.39
404.037	0.48
404.243	0.43
404.448	0.34
404.653	0.39
404.858	0.45
405.063	0.41
405.268	0.4
405.473	0.35
405.678	0.36
405.883	0.64
406.088	0.48
406.293	0.4
406.498	0.46
406.703	0.53
406.907	0.46
407.112	0.37
407.317	0.54
407.522	0.57
407.727	0.46
407.932	0.52
408.136	0.66
408.341	0.5
408.546	0.56
408.751	0.55
408.956	0.6
409.16	0.67
409.365	0.58
409.57	0.55
409.774	0.63
409.979	0.67
410.184	0.69
410.388	0.61
410.593	0.74
410.798	0.75
411.002	0.69
411.207	0.72
411.411	0.78
411.616	0.71
411.82	0.83
412.025	0.81
412.229	0.85
412.434	0.95
412.638	0.9
412.843	0.87
413.047	0.96
413.252	0.89
413.456	0.94
413.66	1.08
413.865	1.04
414.069	1.18
414.273	1.1
414.478	1.09
414.682	1.19
414.886	1.21
415.091	1.15
415.295	1.22
415.499	1.38
415.703	1.36
415.908	1.46
416.112	1.28
416.316	1.54
416.52	1.54
416.724	1.56
416.929	1.62
417.133	1.84
417.337	1.67
417.541	1.79
417.745	1.84
417.949	1.96
418.153	2.04
418.357	1.94
418.561	2.24
418.765	2.23
418.969	2.39
419.173	2.43
419.377	2.44
419.581	2.68
419.785	2.65
419.989	2.61
420.193	2.75
420.397	2.96
420.601	3.06
420.804	3.13
421.008	3.13
421.212	3.27
421.416	3.27
421.62	3.22
421.823	3.4
422.027	3.5
422.231	3.54
422.435	3.53
422.638	3.63
422.842	3.74
423.046	3.73
423.249	3.99
423.453	4.01
423.657	4.19
423.86	4.28
424.064	4.37
424.268	4.58
424.471	4.47
424.675	4.75
424.878	4.82
425.082	4.9
425.285	5.19
425.489	5.14
425.692	5.31
425.896	5.29
426.099	5.52
426.303	5.64
426.506	5.83
426.71	6.03
426.913	6.18
427.116	6.46
427.32	6.35
427.523	6.5
427.726	6.82
427.93	6.85
428.133	7.18
428.336	7.31
428.54	7.46
428.743	7.73
428.946	8
429.149	7.89
429.353	7.94
429.556	8.16
429.759	8.06
429.962	8.17
430.165	8.45
430.368	8.06
430.571	8.02
430.775	8.18
430.978	8.2
431.181	8.15
431.384	8.28
431.587	8.36
431.79	8.77
431.993	8.72
432.196	8.99
432.399	9.33
432.602	9.45
432.805	9.66
433.008	10.13
433.211	9.95
433.414	10.43
433.616	10.43
433.819	10.37
434.022	10.35
434.225	10.67
434.428	10.68
434.631	11.07
434.833	10.85
435.036	11.19
435.239	11.41
435.442	11.42
435.645	11.62
435.847	11.72
436.05	11.96
436.253	12.12
436.455	12.18
436.658	12
436.861	12.34
437.063	12.6
437.266	12.55
437.468	12.83
437.671	13.24
437.874	13.17
438.076	13
438.279	13.56
438.481	13.6
438.684	14.22
438.886	13.91
439.089	14.28
439.291	14.21
439.494	14.63
439.696	14.81
439.899	15.32
440.101	15.7
440.303	16.01
440.506	16.6
440.708	16.32
440.91	16.57
441.113	16.64
441.315	17.12
441.517	16.79
441.72	17.37
441.922	16.9
442.124	16.96
442.326	17.24
442.529	17.55
442.731	17.38
442.933	17.88
443.135	17.63
443.337	17.55
443.539	18.08
443.742	17.61
443.944	18.38
444.146	18.16
444.348	18.1
444.55	18.08
444.752	18.14
444.954	18.18
445.156	17.97
445.358	18.47
445.56	18.7
445.762	18.49
445.964	18.94
446.166	18.53
446.368	18.62
446.57	18.58
446.772	18.24
446.974	18.06
447.175	18.32
447.377	17.91
447.579	18.29
447.781	18.02
447.983	17.96
448.184	17.32
448.386	17.65
448.588	17.35
448.79	17.15
448.991	17.46
449.193	17.44
449.395	16.74
449.597	16.56
449.798	16.4
450	15.97
450.202	15.82
450.403	15.85
450.605	15.77
450.806	15.28
451.008	15.12
451.21	14.84
451.411	14.48
451.613	13.73
451.814	13.98
452.016	14
452.217	13.14
452.419	13.22
452.62	12.93
452.821	12.61
453.023	12.55
453.224	12.13
453.426	11.73
453.627	11.07
453.828	11.13
454.03	11.2
454.231	11.1
454.432	11.01
454.634	10.72
454.835	10.41
455.036	10.32
455.238	9.93
455.439	9.73
455.64	9.45
455.841	9.26
456.042	9.52
456.244	9.14
456.445	8.89
456.646	8.48
456.847	8.44
457.048	8.42
457.249	8.45
457.45	8.16
457.651	7.65
457.852	7.55
458.054	7.26
458.255	7.16
458.456	7.19
458.657	7.06
458.858	6.7
459.058	6.64
459.259	6.61
459.46	6.31
459.661	6.36
459.862	6.36
460.063	6.33
460.264	6.22
460.465	5.87
460.666	6.02
460.866	5.73
461.067	5.44
461.268	5.49
461.469	5.42
461.67	5.31
461.87	5.17
462.071	5.17
462.272	5.11
462.473	5.1
462.673	5.2
462.874	5.11
463.075	5.11
463.275	5.11
463.476	5.18
463.676	5.06
463.877	4.94
464.078	4.91
464.278	4.89
464.479	4.79
464.679	4.74
464.88	4.72
465.08	4.62
465.281	4.55
465.481	4.21
465.682	4.1
465.882	4.11
466.083	4.06
466.283	4.03
466.483	3.9
466.684	3.7
466.884	3.65
467.085	3.61
467.285	3.72
467.485	3.52
467.686	3.48
467.886	3.36
468.086	3.36
468.286	3.28
468.487	3.41
468.687	3.22
468.887	3.19
469.087	3.28
469.287	3.24
469.488	3.03
469.688	3.15
469.888	3.18
470.088	3.11
470.288	3.04
470.488	3.01
470.688	2.84
470.888	2.83
471.088	2.6
471.288	2.79
471.488	2.72
471.688	2.74
471.888	2.59
472.088	2.8
472.288	2.69
472.488	2.58
472.688	2.54
472.888	2.58
473.088	2.6
473.288	2.51
473.488	2.42
473.688	2.63
473.887	2.44
474.087	2.4
474.287	2.4
474.487	2.35
474.687	2.42
474.886	2.29
475.086	2.22
475.286	2.28
475.486	2.23
475.685	2.25
475.885	2.14
476.085	2.26
476.284	2.28
476.484	2.24
476.684	2.15
476.883	2.28
477.083	2.19
477.282	2.14
477.482	2.18
477.681	2.13
477.881	2.07
478.08	2.07
478.28	2.04
478.479	2.07
478.679	2.13
478.878	2.01
479.078	1.98
479.277	2.05
479.477	2.06
479.676	2
479.875	1.99
480.075	1.89
480.274	1.99
480.473	2.03
480.673	1.98
480.872	2.09
481.071	2.06
481.271	1.99
481.47	1.93
481.669	2.02
481.868	1.95
482.067	1.98
482.267	1.91
482.466	1.95
482.665	1.91
482.864	1.93
483.063	1.89
483.262	2.03
483.461	2.01
483.661	2.06
483.86	1.97
484.059	2.04
484.258	2.04
484.457	1.99
484.656	2.04
484.855	2.07
485.054	1.9
485.253	1.95
485.452	1.94
485.651	2.07
485.849	2.03
486.048	1.99
486.247	2.03
486.446	2.1
486.645	2.01
486.844	2.04
487.043	2.04
487.241	2.14
487.44	2.04
487.639	2.12
487.838	2.1
488.037	2.11
488.235	2.2
488.434	2.13
488.633	2.02
488.831	2.21
489.03	2.21
489.229	2.19
489.427	2.21
489.626	2.27
489.825	2.29
490.023	2.29
490.222	2.23
490.42	2.34
490.619	2.36
490.817	2.32
491.016	2.33
491.214	2.39
491.413	2.42
491.611	2.36
491.81	2.39
492.008	2.44
492.207	2.52
492.405	2.53
492.604	2.43
492.802	2.54
493	2.59
493.199	2.62
493.397	2.6
493.595	2.68
493.794	2.65
493.992	2.79
494.19	2.75
494.388	2.84
494.587	2.78
494.785	2.76
494.983	2.75
495.181	2.86
495.379	2.91
495.578	2.93
495.776	2.93
495.974	2.93
496.172	2.92
496.37	3.1
496.568	3.08
496.766	3.05
496.964	3.19
497.162	3.18
497.36	3.17
497.558	3.27
497.756	3.31
497.954	3.27
498.152	3.38
498.35	3.47
498.548	3.38
498.746	3.37
498.944	3.44
499.142	3.4
499.34	3.54
499.538	3.61
499.736	3.53
499.933	3.65
500.131	3.64
500.329	3.75
500.527	3.76
500.725	3.87
500.922	3.86
501.12	3.89
501.318	3.95
501.516	3.95
501.713	4
501.911	3.95
502.109	3.99
502.306	4.09
502.504	4.02
