Data from Apollo_Calib_20240827__AbsoluteIrradiance__2__23-11-01-869.txt Node

Date: Tue Aug 27 23:11:01 BST 2024
User: biology
Spectrometer: FLMT08252
Trigger mode: 0
Integration Time (sec): 5.000000E-1
Scans to average: 5
Electric dark correction enabled: true
Nonlinearity correction enabled: false
Boxcar width: 0
XAxis mode: Wavelengths
Number of Pixels in Spectrum: 3648
>>>>>Begin Spectral Data<<<<<
179.588	-0
179.809	-0
180.03	-0
180.251	-0
180.473	-0
180.694	0
180.915	0
181.136	-0
181.357	-0
181.578	0
181.799	-0
182.02	-0
182.241	0
182.462	0
182.683	0
182.904	-0
183.125	-0
183.346	0
183.567	0
183.788	0
184.009	0
184.23	0
184.451	0
184.672	0
184.892	0
185.113	0
185.334	0
185.555	0
185.776	0
185.996	0
186.217	0
186.438	0
186.659	0
186.879	0
187.1	0
187.321	0
187.541	0
187.762	0
187.983	0
188.203	0
188.424	0
188.644	0
188.865	0
189.086	0
189.306	0
189.527	0
189.747	0
189.968	0
190.188	0
190.409	0
190.629	0
190.849	0
191.07	0
191.29	0
191.511	0
191.731	0
191.951	0
192.172	0
192.392	0
192.612	0
192.833	0
193.053	0
193.273	0
193.493	0
193.714	0
193.934	0
194.154	0
194.374	0
194.594	0
194.815	0
195.035	0
195.255	0
195.475	0
195.695	0
195.915	0
196.135	0
196.355	0
196.575	0
196.795	0
197.015	0
197.235	0
197.455	0
197.675	0
197.895	0
198.115	0
198.335	0
198.555	0
198.775	0
198.995	0
199.214	0
199.434	0
199.654	0
199.874	0
200.094	3.25
200.313	2.19
200.533	2.84
200.753	2.04
200.973	2.9
201.192	2.73
201.412	1.83
201.632	2.09
201.851	2.55
202.071	1.97
202.291	2.12
202.51	0.81
202.73	2.33
202.95	1.93
203.169	1.88
203.389	1.65
203.608	1.93
203.828	1.54
204.047	2.17
204.267	2.02
204.486	1.84
204.706	1.55
204.925	1.72
205.145	1.55
205.364	2
205.583	2
205.803	1.81
206.022	1.2
206.242	1.54
206.461	1.62
206.68	1.13
206.9	1.26
207.119	1.89
207.338	1.67
207.557	1.37
207.777	1.35
207.996	1.18
208.215	1.39
208.434	1.1
208.654	1.54
208.873	1.38
209.092	1.45
209.311	1.8
209.53	1.13
209.749	0.84
209.968	0.81
210.187	1.14
210.407	0.85
210.626	1.21
210.845	1.2
211.064	1.13
211.283	0.98
211.502	1.3
211.721	1.25
211.94	1.03
212.159	1.29
212.377	1.11
212.596	1.41
212.815	1.2
213.034	1.09
213.253	1.08
213.472	1.21
213.691	0.86
213.91	0.93
214.128	1.07
214.347	1.08
214.566	0.85
214.785	1.04
215.003	1.05
215.222	0.95
215.441	0.89
215.66	0.94
215.878	0.74
216.097	1.05
216.316	0.63
216.534	1.01
216.753	0.67
216.972	0.95
217.19	0.86
217.409	0.61
217.627	0.73
217.846	0.88
218.064	0.91
218.283	0.85
218.501	1.07
218.72	1.08
218.938	0.62
219.157	0.63
219.375	1.03
219.594	1.03
219.812	0.7
220.031	0.68
220.249	1
220.467	1.01
220.686	0.64
220.904	0.58
221.122	0.47
221.341	1.02
221.559	0.84
221.777	0.66
221.995	0.74
222.214	0.88
222.432	0.59
222.65	0.86
222.868	0.84
223.086	0.73
223.305	0.86
223.523	0.57
223.741	0.79
223.959	0.51
224.177	0.59
224.395	0.71
224.613	0.73
224.831	0.73
225.049	0.5
225.267	0.71
225.485	0.68
225.703	0.53
225.921	0.62
226.139	0.64
226.357	0.71
226.575	0.61
226.793	0.61
227.011	0.9
227.229	0.68
227.447	0.68
227.665	0.54
227.883	0.55
228.1	0.63
228.318	0.58
228.536	0.51
228.754	0.61
228.972	0.61
229.189	0.68
229.407	0.54
229.625	0.54
229.843	0.8
230.06	0.63
230.278	0.69
230.496	0.63
230.713	0.63
230.931	0.61
231.149	0.46
231.366	0.41
231.584	0.55
231.801	0.9
232.019	0.59
232.236	0.49
232.454	0.53
232.671	0.64
232.889	0.61
233.106	0.36
233.324	0.53
233.541	0.47
233.759	0.62
233.976	0.51
234.194	0.49
234.411	0.52
234.628	0.52
234.846	0.54
235.063	0.52
235.28	0.45
235.498	0.6
235.715	0.47
235.932	0.55
236.149	0.45
236.367	0.4
236.584	0.48
236.801	0.38
237.018	0.6
237.236	0.56
237.453	0.38
237.67	0.58
237.887	0.43
238.104	0.52
238.321	0.36
238.538	0.5
238.755	0.5
238.973	0.35
239.19	0.57
239.407	0.55
239.624	0.56
239.841	0.33
240.058	0.45
240.275	0.5
240.492	0.46
240.709	0.49
240.925	0.54
241.142	0.5
241.359	0.39
241.576	0.37
241.793	0.43
242.01	0.46
242.227	0.5
242.444	0.49
242.66	0.56
242.877	0.53
243.094	0.29
243.311	0.54
243.527	0.48
243.744	0.49
243.961	0.43
244.178	0.42
244.394	0.46
244.611	0.51
244.828	0.49
245.044	0.32
245.261	0.44
245.477	0.43
245.694	0.55
245.911	0.41
246.127	0.43
246.344	0.56
246.56	0.49
246.777	0.41
246.993	0.46
247.21	0.46
247.426	0.4
247.643	0.46
247.859	0.36
248.076	0.44
248.292	0.5
248.508	0.43
248.725	0.42
248.941	0.5
249.157	0.43
249.374	0.36
249.59	0.44
249.806	0.35
250.023	0.4
250.239	0.32
250.455	0.34
250.671	0.43
250.888	0.45
251.104	0.44
251.32	0.43
251.536	0.39
251.752	0.35
251.969	0.44
252.185	0.46
252.401	0.47
252.617	0.37
252.833	0.39
253.049	0.38
253.265	0.35
253.481	0.46
253.697	0.45
253.913	0.35
254.129	0.35
254.345	0.38
254.561	0.35
254.777	0.45
254.993	0.41
255.209	0.45
255.425	0.38
255.641	0.31
255.857	0.44
256.073	0.32
256.288	0.35
256.504	0.47
256.72	0.34
256.936	0.5
257.152	0.36
257.367	0.33
257.583	0.44
257.799	0.45
258.015	0.38
258.23	0.38
258.446	0.47
258.662	0.38
258.877	0.29
259.093	0.38
259.309	0.44
259.524	0.36
259.74	0.38
259.955	0.28
260.171	0.42
260.387	0.3
260.602	0.41
260.818	0.43
261.033	0.27
261.249	0.33
261.464	0.32
261.68	0.34
261.895	0.39
262.11	0.41
262.326	0.34
262.541	0.35
262.757	0.39
262.972	0.35
263.187	0.41
263.403	0.34
263.618	0.39
263.833	0.35
264.049	0.32
264.264	0.37
264.479	0.45
264.694	0.45
264.91	0.26
265.125	0.37
265.34	0.39
265.555	0.49
265.77	0.4
265.986	0.29
266.201	0.43
266.416	0.37
266.631	0.32
266.846	0.4
267.061	0.37
267.276	0.31
267.491	0.21
267.706	0.42
267.921	0.35
268.136	0.31
268.351	0.36
268.566	0.32
268.781	0.41
268.996	0.37
269.211	0.38
269.426	0.32
269.641	0.34
269.856	0.34
270.071	0.28
270.285	0.24
270.5	0.32
270.715	0.37
270.93	0.35
271.145	0.36
271.359	0.36
271.574	0.27
271.789	0.36
272.004	0.35
272.218	0.29
272.433	0.4
272.648	0.28
272.862	0.38
273.077	0.28
273.292	0.31
273.506	0.28
273.721	0.3
273.936	0.35
274.15	0.31
274.365	0.29
274.579	0.34
274.794	0.35
275.008	0.38
275.223	0.22
275.437	0.34
275.652	0.46
275.866	0.34
276.081	0.31
276.295	0.37
276.509	0.32
276.724	0.27
276.938	0.31
277.153	0.33
277.367	0.29
277.581	0.28
277.796	0.31
278.01	0.26
278.224	0.36
278.438	0.41
278.653	0.28
278.867	0.28
279.081	0.3
279.295	0.3
279.51	0.34
279.724	0.3
279.938	0.32
280.152	0.26
280.366	0.24
280.58	0.33
280.794	0.33
281.008	0.25
281.222	0.31
281.437	0.42
281.651	0.31
281.865	0.38
282.079	0.26
282.293	0.22
282.507	0.29
282.721	0.28
282.935	0.27
283.148	0.24
283.362	0.23
283.576	0.23
283.79	0.32
284.004	0.23
284.218	0.31
284.432	0.22
284.646	0.29
284.859	0.21
285.073	0.26
285.287	0.28
285.501	0.23
285.714	0.31
285.928	0.28
286.142	0.25
286.356	0.25
286.569	0.27
286.783	0.35
286.997	0.32
287.21	0.27
287.424	0.3
287.637	0.26
287.851	0.23
288.065	0.3
288.278	0.27
288.492	0.33
288.705	0.27
288.919	0.35
289.132	0.24
289.346	0.32
289.559	0.24
289.773	0.22
289.986	0.26
290.2	0.26
290.413	0.31
290.626	0.24
290.84	0.31
291.053	0.33
291.267	0.31
291.48	0.3
291.693	0.25
291.906	0.22
292.12	0.23
292.333	0.27
292.546	0.27
292.76	0.34
292.973	0.28
293.186	0.29
293.399	0.24
293.612	0.36
293.826	0.29
294.039	0.28
294.252	0.32
294.465	0.26
294.678	0.31
294.891	0.27
295.104	0.18
295.317	0.27
295.53	0.28
295.743	0.2
295.956	0.29
296.169	0.3
296.382	0.28
296.595	0.22
296.808	0.23
297.021	0.25
297.234	0.26
297.447	0.27
297.66	0.26
297.873	0.33
298.086	0.24
298.299	0.19
298.511	0.23
298.724	0.28
298.937	0.18
299.15	0.23
299.363	0.25
299.575	0.28
299.788	0.25
300.001	0.25
300.213	0.21
300.426	0.24
300.639	0.19
300.852	0.17
301.064	0.32
301.277	0.29
301.489	0.29
301.702	0.25
301.915	0.24
302.127	0.25
302.34	0.27
302.552	0.27
302.765	0.28
302.977	0.3
303.19	0.19
303.402	0.22
303.615	0.22
303.827	0.22
304.04	0.24
304.252	0.24
304.464	0.22
304.677	0.33
304.889	0.27
305.102	0.19
305.314	0.23
305.526	0.34
305.739	0.28
305.951	0.18
306.163	0.26
306.375	0.31
306.588	0.18
306.8	0.23
307.012	0.19
307.224	0.25
307.436	0.27
307.649	0.16
307.861	0.25
308.073	0.25
308.285	0.25
308.497	0.26
308.709	0.25
308.921	0.29
309.133	0.25
309.346	0.26
309.558	0.22
309.77	0.29
309.982	0.27
310.194	0.3
310.406	0.18
310.617	0.31
310.829	0.28
311.041	0.29
311.253	0.22
311.465	0.24
311.677	0.22
311.889	0.23
312.101	0.24
312.313	0.26
312.524	0.26
312.736	0.17
312.948	0.21
313.16	0.35
313.372	0.25
313.583	0.22
313.795	0.25
314.007	0.22
314.218	0.26
314.43	0.23
314.642	0.2
314.853	0.22
315.065	0.27
315.277	0.23
315.488	0.28
315.7	0.28
315.912	0.24
316.123	0.25
316.335	0.26
316.546	0.32
316.758	0.18
316.969	0.23
317.181	0.22
317.392	0.23
317.604	0.28
317.815	0.19
318.026	0.24
318.238	0.21
318.449	0.23
318.661	0.23
318.872	0.18
319.083	0.22
319.295	0.26
319.506	0.2
319.717	0.28
319.929	0.26
320.14	0.23
320.351	0.27
320.562	0.25
320.774	0.21
320.985	0.21
321.196	0.21
321.407	0.22
321.618	0.29
321.829	0.25
322.041	0.25
322.252	0.27
322.463	0.22
322.674	0.24
322.885	0.22
323.096	0.23
323.307	0.21
323.518	0.23
323.729	0.2
323.94	0.25
324.151	0.24
324.362	0.22
324.573	0.25
324.784	0.21
324.995	0.25
325.206	0.25
325.417	0.19
325.628	0.23
325.838	0.26
326.049	0.26
326.26	0.22
326.471	0.26
326.682	0.27
326.892	0.25
327.103	0.19
327.314	0.22
327.525	0.3
327.735	0.24
327.946	0.28
328.157	0.18
328.368	0.27
328.578	0.22
328.789	0.27
328.999	0.24
329.21	0.27
329.421	0.28
329.631	0.22
329.842	0.19
330.052	0.26
330.263	0.27
330.473	0.29
330.684	0.21
330.894	0.22
331.105	0.26
331.315	0.22
331.526	0.21
331.736	0.31
331.947	0.21
332.157	0.22
332.367	0.2
332.578	0.27
332.788	0.24
332.999	0.27
333.209	0.23
333.419	0.24
333.629	0.2
333.84	0.27
334.05	0.26
334.26	0.26
334.47	0.25
334.681	0.27
334.891	0.24
335.101	0.23
335.311	0.29
335.521	0.23
335.732	0.18
335.942	0.3
336.152	0.27
336.362	0.28
336.572	0.26
336.782	0.27
336.992	0.21
337.202	0.23
337.412	0.23
337.622	0.24
337.832	0.28
338.042	0.27
338.252	0.23
338.462	0.21
338.672	0.28
338.882	0.22
339.092	0.27
339.302	0.29
339.511	0.24
339.721	0.23
339.931	0.22
340.141	0.26
340.351	0.32
340.561	0.24
340.77	0.21
340.98	0.21
341.19	0.27
341.4	0.21
341.609	0.18
341.819	0.25
342.029	0.23
342.238	0.28
342.448	0.23
342.658	0.25
342.867	0.24
343.077	0.24
343.286	0.27
343.496	0.22
343.706	0.23
343.915	0.21
344.125	0.24
344.334	0.25
344.544	0.16
344.753	0.26
344.963	0.24
345.172	0.25
345.381	0.22
345.591	0.22
345.8	0.25
346.01	0.28
346.219	0.29
346.428	0.14
346.638	0.23
346.847	0.22
347.056	0.3
347.266	0.25
347.475	0.26
347.684	0.25
347.893	0.23
348.103	0.3
348.312	0.22
348.521	0.22
348.73	0.26
348.94	0.28
349.149	0.25
349.358	0.23
349.567	0.21
349.776	0.21
349.985	0.23
350.194	0.21
350.403	0.27
350.612	0.2
350.821	0.2
351.03	0.23
351.239	0.19
351.448	0.23
351.657	0.15
351.866	0.28
352.075	0.25
352.284	0.24
352.493	0.21
352.702	0.25
352.911	0.27
353.12	0.25
353.329	0.23
353.538	0.26
353.746	0.24
353.955	0.21
354.164	0.21
354.373	0.27
354.582	0.28
354.79	0.24
354.999	0.3
355.208	0.21
355.416	0.28
355.625	0.2
355.834	0.23
356.042	0.19
356.251	0.21
356.46	0.22
356.668	0.2
356.877	0.25
357.085	0.3
357.294	0.19
357.503	0.26
357.711	0.2
357.92	0.36
358.128	0.24
358.337	0.21
358.545	0.26
358.754	0.22
358.962	0.27
359.17	0.25
359.379	0.23
359.587	0.24
359.796	0.25
360.004	0.25
360.212	0.26
360.421	0.28
360.629	0.2
360.837	0.25
361.046	0.27
361.254	0.29
361.462	0.24
361.67	0.19
361.879	0.29
362.087	0.31
362.295	0.27
362.503	0.23
362.711	0.17
362.92	0.25
363.128	0.24
363.336	0.18
363.544	0.17
363.752	0.21
363.96	0.2
364.168	0.22
364.376	0.2
364.584	0.23
364.792	0.28
365	0.24
365.208	0.25
365.416	0.21
365.624	0.25
365.832	0.2
366.04	0.27
366.248	0.25
366.456	0.28
366.664	0.26
366.872	0.22
367.079	0.19
367.287	0.27
367.495	0.21
367.703	0.24
367.911	0.22
368.118	0.2
368.326	0.24
368.534	0.22
368.742	0.25
368.949	0.18
369.157	0.21
369.365	0.29
369.572	0.22
369.78	0.23
369.988	0.29
370.195	0.25
370.403	0.23
370.61	0.19
370.818	0.26
371.026	0.3
371.233	0.21
371.441	0.24
371.648	0.23
371.856	0.25
372.063	0.21
372.271	0.2
372.478	0.26
372.685	0.2
372.893	0.26
373.1	0.26
373.308	0.21
373.515	0.27
373.722	0.23
373.93	0.23
374.137	0.28
374.344	0.28
374.552	0.26
374.759	0.25
374.966	0.26
375.173	0.18
375.381	0.26
375.588	0.21
375.795	0.18
376.002	0.2
376.209	0.23
376.417	0.22
376.624	0.23
376.831	0.24
377.038	0.24
377.245	0.2
377.452	0.27
377.659	0.32
377.866	0.27
378.073	0.25
378.28	0.27
378.487	0.26
378.694	0.26
378.901	0.24
379.108	0.28
379.315	0.26
379.522	0.28
379.729	0.29
379.936	0.22
380.143	0.22
380.35	0.24
380.557	0.23
380.763	0.28
380.97	0.24
381.177	0.27
381.384	0.26
381.591	0.26
381.797	0.21
382.004	0.25
382.211	0.29
382.418	0.24
382.624	0.27
382.831	0.3
383.038	0.27
383.244	0.27
383.451	0.22
383.658	0.25
383.864	0.29
384.071	0.27
384.277	0.35
384.484	0.22
384.69	0.29
384.897	0.27
385.103	0.28
385.31	0.25
385.516	0.26
385.723	0.25
385.929	0.27
386.136	0.25
386.342	0.29
386.549	0.25
386.755	0.31
386.961	0.27
387.168	0.28
387.374	0.31
387.58	0.3
387.787	0.28
387.993	0.29
388.199	0.25
388.406	0.25
388.612	0.23
388.818	0.25
389.024	0.29
389.231	0.27
389.437	0.32
389.643	0.3
389.849	0.28
390.055	0.33
390.261	0.26
390.467	0.32
390.674	0.23
390.88	0.31
391.086	0.32
391.292	0.26
391.498	0.31
391.704	0.28
391.91	0.25
392.116	0.31
392.322	0.21
392.528	0.31
392.734	0.28
392.94	0.28
393.146	0.27
393.352	0.25
393.557	0.29
393.763	0.28
393.969	0.3
394.175	0.28
394.381	0.31
394.587	0.29
394.792	0.28
394.998	0.31
395.204	0.35
395.41	0.26
395.615	0.34
395.821	0.34
396.027	0.35
396.233	0.26
396.438	0.31
396.644	0.36
396.85	0.34
397.055	0.34
397.261	0.34
397.466	0.37
397.672	0.32
397.878	0.37
398.083	0.28
398.289	0.33
398.494	0.34
398.7	0.35
398.905	0.29
399.111	0.35
399.316	0.27
399.522	0.34
399.727	0.32
399.932	0.32
400.138	0.32
400.343	0.39
400.549	0.41
400.754	0.3
400.959	0.41
401.165	0.33
401.37	0.38
401.575	0.42
401.78	0.28
401.986	0.33
402.191	0.37
402.396	0.34
402.601	0.41
402.807	0.35
403.012	0.36
403.217	0.42
403.422	0.34
403.627	0.36
403.832	0.35
404.037	0.39
404.243	0.44
404.448	0.37
404.653	0.34
404.858	0.42
405.063	0.45
405.268	0.38
405.473	0.4
405.678	0.4
405.883	0.57
406.088	0.47
406.293	0.37
406.498	0.45
406.703	0.48
406.907	0.48
407.112	0.39
407.317	0.49
407.522	0.53
407.727	0.47
407.932	0.52
408.136	0.6
408.341	0.46
408.546	0.54
408.751	0.57
408.956	0.54
409.16	0.63
409.365	0.6
409.57	0.57
409.774	0.64
409.979	0.61
410.184	0.7
410.388	0.68
410.593	0.74
410.798	0.66
411.002	0.71
411.207	0.76
411.411	0.74
411.616	0.7
411.82	0.79
412.025	0.82
412.229	0.82
412.434	0.87
412.638	0.9
412.843	0.88
413.047	0.94
413.252	0.85
413.456	0.99
413.66	1.03
413.865	0.98
414.069	1.08
414.273	1.08
414.478	1.06
414.682	1.07
414.886	1.15
415.091	1.2
415.295	1.17
415.499	1.31
415.703	1.31
415.908	1.36
416.112	1.39
416.316	1.47
416.52	1.49
416.724	1.52
416.929	1.57
417.133	1.73
417.337	1.67
417.541	1.73
417.745	1.81
417.949	1.89
418.153	1.98
418.357	1.95
418.561	2.13
418.765	2.11
418.969	2.2
419.173	2.37
419.377	2.34
419.581	2.52
419.785	2.53
419.989	2.49
420.193	2.69
420.397	2.76
420.601	2.88
420.804	2.94
421.008	2.92
421.212	3.1
421.416	3.11
421.62	3.14
421.823	3.22
422.027	3.32
422.231	3.41
422.435	3.33
422.638	3.47
422.842	3.45
423.046	3.65
423.249	3.76
423.453	3.77
423.657	4
423.86	3.98
424.064	4.13
424.268	4.32
424.471	4.3
424.675	4.45
424.878	4.56
425.082	4.7
425.285	5.01
425.489	4.86
425.692	5.03
425.896	5.07
426.099	5.33
426.303	5.42
426.506	5.64
426.71	5.81
426.913	5.93
427.116	6.12
427.32	6.16
427.523	6.23
427.726	6.47
427.93	6.65
428.133	6.91
428.336	7.08
428.54	7.19
428.743	7.41
428.946	7.57
429.149	7.65
429.353	7.63
429.556	7.74
429.759	7.81
429.962	7.94
430.165	8.07
430.368	7.75
430.571	7.85
430.775	7.93
430.978	7.88
431.181	7.94
431.384	8.05
431.587	8.18
431.79	8.52
431.993	8.42
432.196	8.72
432.399	9.15
432.602	9.22
432.805	9.28
433.008	9.87
433.211	9.72
433.414	10.13
433.616	10.16
433.819	10.09
434.022	10.17
434.225	10.37
434.428	10.49
434.631	10.76
434.833	10.65
435.036	10.9
435.239	11.12
435.442	11.1
435.645	11.27
435.847	11.43
436.05	11.59
436.253	11.92
436.455	11.93
436.658	11.81
436.861	12.05
437.063	12.33
437.266	12.24
437.468	12.59
437.671	12.78
437.874	12.86
438.076	12.84
438.279	13.29
438.481	13.29
438.684	14.04
438.886	13.62
439.089	13.93
439.291	13.83
439.494	14.28
439.696	14.46
439.899	15.12
440.101	15.44
440.303	15.63
440.506	16.26
440.708	15.93
440.91	16.15
441.113	16.41
441.315	16.68
441.517	16.66
441.72	17.04
441.922	16.71
442.124	16.53
442.326	16.97
442.529	17.15
442.731	17.17
442.933	17.6
443.135	17.33
443.337	17.2
443.539	17.9
443.742	17.66
443.944	18.11
444.146	17.88
444.348	17.91
444.55	17.81
444.752	18
444.954	18.04
445.156	17.89
445.358	18.27
445.56	18.64
445.762	18.39
445.964	18.75
446.166	18.43
446.368	18.41
446.57	18.43
446.772	18.17
446.974	17.83
447.175	18.3
447.377	17.79
447.579	18.4
447.781	18
447.983	17.75
448.184	17.41
448.386	17.8
448.588	17.39
448.79	17.23
448.991	17.67
449.193	17.66
449.395	17
449.597	16.57
449.798	16.26
450	15.97
450.202	16.05
450.403	15.96
450.605	15.93
450.806	15.64
451.008	15.28
451.21	15.25
451.411	14.86
451.613	14.11
451.814	14.35
452.016	14.12
452.217	13.5
452.419	13.44
452.62	13.36
452.821	13
453.023	12.92
453.224	12.44
453.426	12.11
453.627	11.34
453.828	11.45
454.03	11.48
454.231	11.54
454.432	11.4
454.634	10.94
454.835	10.75
455.036	10.7
455.238	10.3
455.439	10.08
455.64	9.84
455.841	9.62
456.042	9.63
456.244	9.44
456.445	9.15
456.646	8.87
456.847	8.87
457.048	8.6
457.249	8.7
457.45	8.25
457.651	8.01
457.852	7.76
458.054	7.41
458.255	7.51
458.456	7.51
458.657	7.28
458.858	6.92
459.058	6.81
459.259	6.84
459.46	6.54
459.661	6.73
459.862	6.47
460.063	6.55
460.264	6.32
460.465	6.17
460.666	6.17
460.866	5.92
461.067	5.6
461.268	5.62
461.469	5.59
461.67	5.51
461.87	5.38
462.071	5.31
462.272	5.25
462.473	5.25
462.673	5.39
462.874	5.28
463.075	5.26
463.275	5.16
463.476	5.25
463.676	5.2
463.877	5.08
464.078	5.07
464.278	5.09
464.479	4.97
464.679	4.87
464.88	4.75
465.08	4.79
465.281	4.62
465.481	4.42
465.682	4.22
465.882	4.17
466.083	4.14
466.283	4.09
466.483	4.01
466.684	3.85
466.884	3.75
467.085	3.88
467.285	3.78
467.485	3.66
467.686	3.57
467.886	3.52
468.086	3.5
468.286	3.42
468.487	3.52
468.687	3.35
468.887	3.26
469.087	3.38
469.287	3.37
469.488	3.16
469.688	3.21
469.888	3.21
470.088	3.19
470.288	3.14
470.488	2.99
470.688	2.93
470.888	2.86
471.088	2.76
471.288	2.82
471.488	2.8
471.688	2.72
471.888	2.76
472.088	2.85
472.288	2.71
472.488	2.67
472.688	2.59
472.888	2.67
473.088	2.64
473.288	2.51
473.488	2.51
473.688	2.65
473.887	2.52
474.087	2.53
474.287	2.49
474.487	2.48
474.687	2.46
474.886	2.35
475.086	2.36
475.286	2.36
475.486	2.3
475.685	2.25
475.885	2.27
476.085	2.27
476.284	2.22
476.484	2.28
476.684	2.27
476.883	2.28
477.083	2.13
477.282	2.14
477.482	2.23
477.681	2.19
477.881	2.04
478.08	2.13
478.28	2.06
478.479	2.14
478.679	2.12
478.878	2.08
479.078	2.03
479.277	2.1
479.477	2.09
479.676	2.01
479.875	2.05
480.075	1.98
480.274	2.04
480.473	2.07
480.673	2.03
480.872	2.07
481.071	2.04
481.271	2.06
481.47	2
481.669	1.99
481.868	1.91
482.067	2.02
482.267	1.97
482.466	1.97
482.665	1.96
482.864	1.98
483.063	1.97
483.262	2.02
483.461	1.98
483.661	2.1
483.86	2.05
484.059	2.03
484.258	2.05
484.457	1.99
484.656	2.01
484.855	2.09
485.054	1.92
485.253	2.02
485.452	1.98
485.651	2.09
485.849	2.01
486.048	2.02
486.247	2.1
486.446	2.03
486.645	2.09
486.844	2.07
487.043	2.03
487.241	2.11
487.44	2.11
487.639	2.1
487.838	2.13
488.037	2.13
488.235	2.2
488.434	2.18
488.633	2.07
488.831	2.21
489.03	2.24
489.229	2.23
489.427	2.24
489.626	2.21
489.825	2.23
490.023	2.29
490.222	2.26
490.42	2.31
490.619	2.31
490.817	2.37
491.016	2.32
491.214	2.38
491.413	2.43
491.611	2.4
491.81	2.4
492.008	2.43
492.207	2.51
492.405	2.53
492.604	2.46
492.802	2.52
493	2.59
493.199	2.59
493.397	2.65
493.595	2.64
493.794	2.59
493.992	2.77
494.19	2.77
494.388	2.81
494.587	2.7
494.785	2.76
494.983	2.77
495.181	2.83
495.379	2.88
495.578	2.96
495.776	2.94
495.974	2.96
496.172	2.92
496.37	3.04
496.568	3.08
496.766	3.06
496.964	3.16
497.162	3.16
497.36	3.18
497.558	3.21
497.756	3.28
497.954	3.28
498.152	3.33
498.35	3.4
498.548	3.32
498.746	3.37
498.944	3.42
499.142	3.45
499.34	3.47
499.538	3.65
499.736	3.54
499.933	3.58
500.131	3.63
500.329	3.73
500.527	3.72
500.725	3.75
500.922	3.81
501.12	3.8
501.318	3.92
501.516	3.9
501.713	3.99
501.911	3.98
502.109	3.94
502.306	4.08
502.504	3.99
