Data from Apollo_Calib_20240827__AbsoluteIrradiance__38__23-47-01-796.txt Node

Date: Tue Aug 27 23:47:01 BST 2024
User: biology
Spectrometer: FLMT08252
Trigger mode: 0
Integration Time (sec): 5.000000E-1
Scans to average: 5
Electric dark correction enabled: true
Nonlinearity correction enabled: false
Boxcar width: 0
XAxis mode: Wavelengths
Number of Pixels in Spectrum: 3648
>>>>>Begin Spectral Data<<<<<
179.588	-0
179.809	-0
180.03	-0
180.251	-0
180.473	-0
180.694	0
180.915	0
181.136	-0
181.357	0
181.578	-0
181.799	0
182.02	-0
182.241	0
182.462	-0
182.683	0
182.904	-0
183.125	-0
183.346	0
183.567	0
183.788	0
184.009	0
184.23	0
184.451	0
184.672	0
184.892	0
185.113	0
185.334	0
185.555	0
185.776	0
185.996	0
186.217	0
186.438	0
186.659	0
186.879	0
187.1	0
187.321	0
187.541	0
187.762	0
187.983	0
188.203	0
188.424	0
188.644	0
188.865	0
189.086	0
189.306	0
189.527	0
189.747	0
189.968	0
190.188	0
190.409	0
190.629	0
190.849	0
191.07	0
191.29	0
191.511	0
191.731	0
191.951	0
192.172	0
192.392	0
192.612	0
192.833	0
193.053	0
193.273	0
193.493	0
193.714	0
193.934	0
194.154	0
194.374	0
194.594	0
194.815	0
195.035	0
195.255	0
195.475	0
195.695	0
195.915	0
196.135	0
196.355	0
196.575	0
196.795	0
197.015	0
197.235	0
197.455	0
197.675	0
197.895	0
198.115	0
198.335	0
198.555	0
198.775	0
198.995	0
199.214	0
199.434	0
199.654	0
199.874	0
200.094	4.11
200.313	2.34
200.533	1.83
200.753	2.1
200.973	3.55
201.192	2.76
201.412	1.63
201.632	1.96
201.851	3.49
202.071	2.03
202.291	2.08
202.51	1.6
202.73	2.67
202.95	1.39
203.169	1.57
203.389	2.17
203.608	2.02
203.828	1.93
204.047	1.54
204.267	2.39
204.486	2.01
204.706	1.95
204.925	2.05
205.145	1.66
205.364	2.15
205.583	2.28
205.803	1.17
206.022	1.3
206.242	1.63
206.461	1.69
206.68	1.52
206.9	1.49
207.119	2.25
207.338	2.31
207.557	1.41
207.777	1.26
207.996	1.45
208.215	1.93
208.434	1.21
208.654	0.91
208.873	1.72
209.092	2.02
209.311	1.19
209.53	1.52
209.749	1.54
209.968	0.83
210.187	1.03
210.407	1
210.626	0.96
210.845	1.65
211.064	1.17
211.283	1.04
211.502	1.41
211.721	1.09
211.94	1.13
212.159	1.35
212.377	1.31
212.596	1.62
212.815	1.03
213.034	1.19
213.253	1.36
213.472	1.36
213.691	0.85
213.91	0.87
214.128	1.1
214.347	1.44
214.566	0.65
214.785	0.66
215.003	1.13
215.222	1.14
215.441	1.11
215.66	0.6
215.878	1
216.097	1.18
216.316	0.76
216.534	0.94
216.753	1.08
216.972	0.89
217.19	0.98
217.409	0.74
217.627	0.93
217.846	0.88
218.064	0.98
218.283	0.84
218.501	1.25
218.72	1.05
218.938	0.67
219.157	0.82
219.375	1.16
219.594	0.86
219.812	0.81
220.031	0.66
220.249	1.23
220.467	1.22
220.686	0.65
220.904	0.72
221.122	0.77
221.341	1.18
221.559	0.83
221.777	0.46
221.995	0.81
222.214	0.93
222.432	0.73
222.65	0.92
222.868	0.94
223.086	0.85
223.305	0.89
223.523	0.78
223.741	0.98
223.959	0.58
224.177	0.46
224.395	0.67
224.613	0.8
224.831	0.93
225.049	0.53
225.267	0.57
225.485	0.85
225.703	0.59
225.921	0.67
226.139	0.54
226.357	0.88
226.575	0.81
226.793	0.48
227.011	1.36
227.229	0.7
227.447	0.9
227.665	0.71
227.883	0.43
228.1	0.66
228.318	0.74
228.536	0.27
228.754	0.46
228.972	0.77
229.189	0.81
229.407	0.62
229.625	0.66
229.843	0.88
230.06	0.75
230.278	0.61
230.496	0.6
230.713	0.65
230.931	0.72
231.149	0.55
231.366	0.41
231.584	0.53
231.801	0.91
232.019	0.59
232.236	0.38
232.454	0.5
232.671	0.68
232.889	0.7
233.106	0.49
233.324	0.5
233.541	0.52
233.759	0.49
233.976	0.46
234.194	0.58
234.411	0.64
234.628	0.44
234.846	0.49
235.063	0.55
235.28	0.56
235.498	0.57
235.715	0.43
235.932	0.64
236.149	0.6
236.367	0.43
236.584	0.55
236.801	0.37
237.018	0.53
237.236	0.5
237.453	0.33
237.67	0.65
237.887	0.57
238.104	0.49
238.321	0.4
238.538	0.5
238.755	0.73
238.973	0.35
239.19	0.47
239.407	0.63
239.624	0.56
239.841	0.36
240.058	0.39
240.275	0.57
240.492	0.46
240.709	0.44
240.925	0.42
241.142	0.6
241.359	0.4
241.576	0.41
241.793	0.49
242.01	0.45
242.227	0.68
242.444	0.59
242.66	0.64
242.877	0.54
243.094	0.39
243.311	0.46
243.527	0.36
243.744	0.48
243.961	0.6
244.178	0.4
244.394	0.41
244.611	0.57
244.828	0.58
245.044	0.36
245.261	0.46
245.477	0.5
245.694	0.59
245.911	0.45
246.127	0.48
246.344	0.61
246.56	0.51
246.777	0.42
246.993	0.48
247.21	0.4
247.426	0.51
247.643	0.37
247.859	0.32
248.076	0.41
248.292	0.63
248.508	0.4
248.725	0.49
248.941	0.49
249.157	0.54
249.374	0.38
249.59	0.41
249.806	0.41
250.023	0.45
250.239	0.34
250.455	0.39
250.671	0.37
250.888	0.49
251.104	0.56
251.32	0.45
251.536	0.44
251.752	0.43
251.969	0.41
252.185	0.43
252.401	0.65
252.617	0.5
252.833	0.42
253.049	0.4
253.265	0.44
253.481	0.54
253.697	0.44
253.913	0.28
254.129	0.44
254.345	0.38
254.561	0.37
254.777	0.43
254.993	0.45
255.209	0.39
255.425	0.36
255.641	0.32
255.857	0.51
256.073	0.42
256.288	0.32
256.504	0.4
256.72	0.39
256.936	0.52
257.152	0.34
257.367	0.34
257.583	0.37
257.799	0.51
258.015	0.31
258.23	0.33
258.446	0.6
258.662	0.41
258.877	0.39
259.093	0.39
259.309	0.42
259.524	0.41
259.74	0.37
259.955	0.24
260.171	0.44
260.387	0.35
260.602	0.46
260.818	0.43
261.033	0.33
261.249	0.35
261.464	0.28
261.68	0.29
261.895	0.42
262.11	0.47
262.326	0.34
262.541	0.24
262.757	0.48
262.972	0.47
263.187	0.4
263.403	0.4
263.618	0.46
263.833	0.38
264.049	0.27
264.264	0.39
264.479	0.39
264.694	0.47
264.91	0.29
265.125	0.31
265.34	0.44
265.555	0.54
265.77	0.38
265.986	0.33
266.201	0.5
266.416	0.46
266.631	0.34
266.846	0.36
267.061	0.41
267.276	0.42
267.491	0.22
267.706	0.37
267.921	0.43
268.136	0.36
268.351	0.36
268.566	0.19
268.781	0.43
268.996	0.48
269.211	0.34
269.426	0.28
269.641	0.33
269.856	0.4
270.071	0.3
270.285	0.25
270.5	0.42
270.715	0.41
270.93	0.32
271.145	0.36
271.359	0.4
271.574	0.29
271.789	0.37
272.004	0.38
272.218	0.34
272.433	0.36
272.648	0.29
272.862	0.42
273.077	0.33
273.292	0.34
273.506	0.32
273.721	0.32
273.936	0.42
274.15	0.4
274.365	0.24
274.579	0.39
274.794	0.44
275.008	0.44
275.223	0.21
275.437	0.37
275.652	0.44
275.866	0.39
276.081	0.36
276.295	0.38
276.509	0.33
276.724	0.34
276.938	0.33
277.153	0.39
277.367	0.42
277.581	0.28
277.796	0.34
278.01	0.27
278.224	0.4
278.438	0.43
278.653	0.27
278.867	0.27
279.081	0.39
279.295	0.33
279.51	0.32
279.724	0.25
279.938	0.32
280.152	0.34
280.366	0.3
280.58	0.33
280.794	0.48
281.008	0.36
281.222	0.34
281.437	0.42
281.651	0.34
281.865	0.4
282.079	0.27
282.293	0.23
282.507	0.28
282.721	0.34
282.935	0.29
283.148	0.2
283.362	0.29
283.576	0.21
283.79	0.34
284.004	0.29
284.218	0.39
284.432	0.24
284.646	0.35
284.859	0.27
285.073	0.28
285.287	0.35
285.501	0.29
285.714	0.24
285.928	0.34
286.142	0.33
286.356	0.26
286.569	0.24
286.783	0.35
286.997	0.34
287.21	0.32
287.424	0.3
287.637	0.28
287.851	0.25
288.065	0.35
288.278	0.29
288.492	0.32
288.705	0.27
288.919	0.37
289.132	0.24
289.346	0.35
289.559	0.23
289.773	0.23
289.986	0.28
290.2	0.29
290.413	0.34
290.626	0.22
290.84	0.26
291.053	0.24
291.267	0.35
291.48	0.26
291.693	0.34
291.906	0.27
292.12	0.31
292.333	0.26
292.546	0.23
292.76	0.36
292.973	0.29
293.186	0.33
293.399	0.22
293.612	0.28
293.826	0.27
294.039	0.27
294.252	0.25
294.465	0.32
294.678	0.37
294.891	0.29
295.104	0.26
295.317	0.28
295.53	0.32
295.743	0.25
295.956	0.27
296.169	0.32
296.382	0.37
296.595	0.31
296.808	0.23
297.021	0.37
297.234	0.35
297.447	0.28
297.66	0.27
297.873	0.33
298.086	0.3
298.299	0.22
298.511	0.25
298.724	0.33
298.937	0.23
299.15	0.23
299.363	0.26
299.575	0.29
299.788	0.26
300.001	0.27
300.213	0.26
300.426	0.22
300.639	0.29
300.852	0.2
301.064	0.33
301.277	0.35
301.489	0.29
301.702	0.31
301.915	0.26
302.127	0.22
302.34	0.27
302.552	0.31
302.765	0.22
302.977	0.33
303.19	0.25
303.402	0.22
303.615	0.24
303.827	0.24
304.04	0.28
304.252	0.29
304.464	0.26
304.677	0.34
304.889	0.28
305.102	0.23
305.314	0.26
305.526	0.31
305.739	0.27
305.951	0.21
306.163	0.22
306.375	0.34
306.588	0.22
306.8	0.21
307.012	0.23
307.224	0.28
307.436	0.31
307.649	0.2
307.861	0.27
308.073	0.32
308.285	0.24
308.497	0.22
308.709	0.24
308.921	0.28
309.133	0.28
309.346	0.24
309.558	0.25
309.77	0.31
309.982	0.33
310.194	0.24
310.406	0.24
310.617	0.31
310.829	0.28
311.041	0.33
311.253	0.23
311.465	0.21
311.677	0.26
311.889	0.27
312.101	0.23
312.313	0.29
312.524	0.33
312.736	0.19
312.948	0.22
313.16	0.34
313.372	0.27
313.583	0.24
313.795	0.27
314.007	0.25
314.218	0.34
314.43	0.2
314.642	0.22
314.853	0.22
315.065	0.32
315.277	0.29
315.488	0.26
315.7	0.32
315.912	0.28
316.123	0.26
316.335	0.26
316.546	0.36
316.758	0.25
316.969	0.25
317.181	0.22
317.392	0.21
317.604	0.31
317.815	0.23
318.026	0.2
318.238	0.2
318.449	0.27
318.661	0.21
318.872	0.2
319.083	0.24
319.295	0.3
319.506	0.21
319.717	0.25
319.929	0.34
320.14	0.27
320.351	0.27
320.562	0.23
320.774	0.29
320.985	0.27
321.196	0.23
321.407	0.17
321.618	0.31
321.829	0.24
322.041	0.32
322.252	0.26
322.463	0.25
322.674	0.26
322.885	0.21
323.096	0.23
323.307	0.26
323.518	0.26
323.729	0.25
323.94	0.26
324.151	0.2
324.362	0.33
324.573	0.26
324.784	0.21
324.995	0.27
325.206	0.3
325.417	0.22
325.628	0.27
325.838	0.27
326.049	0.3
326.26	0.32
326.471	0.26
326.682	0.33
326.892	0.26
327.103	0.2
327.314	0.2
327.525	0.31
327.735	0.24
327.946	0.26
328.157	0.21
328.368	0.28
328.578	0.29
328.789	0.28
328.999	0.23
329.21	0.24
329.421	0.26
329.631	0.21
329.842	0.22
330.052	0.26
330.263	0.31
330.473	0.25
330.684	0.26
330.894	0.23
331.105	0.3
331.315	0.26
331.526	0.17
331.736	0.33
331.947	0.3
332.157	0.26
332.367	0.25
332.578	0.26
332.788	0.37
332.999	0.28
333.209	0.26
333.419	0.2
333.629	0.29
333.84	0.3
334.05	0.27
334.26	0.35
334.47	0.32
334.681	0.28
334.891	0.22
335.101	0.23
335.311	0.31
335.521	0.26
335.732	0.18
335.942	0.26
336.152	0.3
336.362	0.27
336.572	0.26
336.782	0.3
336.992	0.24
337.202	0.24
337.412	0.24
337.622	0.28
337.832	0.24
338.042	0.22
338.252	0.24
338.462	0.25
338.672	0.25
338.882	0.26
339.092	0.3
339.302	0.32
339.511	0.29
339.721	0.22
339.931	0.21
340.141	0.29
340.351	0.29
340.561	0.3
340.77	0.26
340.98	0.25
341.19	0.26
341.4	0.24
341.609	0.24
341.819	0.29
342.029	0.25
342.238	0.26
342.448	0.23
342.658	0.32
342.867	0.3
343.077	0.24
343.286	0.24
343.496	0.3
343.706	0.28
343.915	0.28
344.125	0.24
344.334	0.26
344.544	0.22
344.753	0.22
344.963	0.23
345.172	0.26
345.381	0.22
345.591	0.23
345.8	0.24
346.01	0.31
346.219	0.27
346.428	0.13
346.638	0.31
346.847	0.26
347.056	0.34
347.266	0.29
347.475	0.29
347.684	0.3
347.893	0.28
348.103	0.26
348.312	0.23
348.521	0.26
348.73	0.28
348.94	0.28
349.149	0.23
349.358	0.22
349.567	0.24
349.776	0.18
349.985	0.18
350.194	0.3
350.403	0.29
350.612	0.19
350.821	0.24
351.03	0.28
351.239	0.19
351.448	0.27
351.657	0.22
351.866	0.32
352.075	0.22
352.284	0.31
352.493	0.15
352.702	0.28
352.911	0.29
353.12	0.21
353.329	0.27
353.538	0.25
353.746	0.25
353.955	0.2
354.164	0.25
354.373	0.26
354.582	0.27
354.79	0.29
354.999	0.29
355.208	0.27
355.416	0.28
355.625	0.2
355.834	0.22
356.042	0.26
356.251	0.2
356.46	0.24
356.668	0.26
356.877	0.37
357.085	0.27
357.294	0.14
357.503	0.25
357.711	0.24
357.92	0.4
358.128	0.24
358.337	0.24
358.545	0.26
358.754	0.25
358.962	0.28
359.17	0.21
359.379	0.28
359.587	0.22
359.796	0.28
360.004	0.32
360.212	0.27
360.421	0.31
360.629	0.26
360.837	0.25
361.046	0.24
361.254	0.37
361.462	0.25
361.67	0.26
361.879	0.25
362.087	0.32
362.295	0.28
362.503	0.23
362.711	0.19
362.92	0.31
363.128	0.21
363.336	0.23
363.544	0.22
363.752	0.25
363.96	0.22
364.168	0.24
364.376	0.26
364.584	0.25
364.792	0.29
365	0.29
365.208	0.24
365.416	0.27
365.624	0.3
365.832	0.2
366.04	0.3
366.248	0.23
366.456	0.29
366.664	0.23
366.872	0.25
367.079	0.25
367.287	0.23
367.495	0.24
367.703	0.24
367.911	0.2
368.118	0.21
368.326	0.23
368.534	0.2
368.742	0.3
368.949	0.19
369.157	0.21
369.365	0.24
369.572	0.19
369.78	0.22
369.988	0.32
370.195	0.27
370.403	0.28
370.61	0.25
370.818	0.25
371.026	0.35
371.233	0.22
371.441	0.24
371.648	0.26
371.856	0.28
372.063	0.24
372.271	0.22
372.478	0.23
372.685	0.24
372.893	0.33
373.1	0.22
373.308	0.25
373.515	0.39
373.722	0.28
373.93	0.24
374.137	0.3
374.344	0.35
374.552	0.29
374.759	0.31
374.966	0.25
375.173	0.23
375.381	0.28
375.588	0.22
375.795	0.19
376.002	0.23
376.209	0.25
376.417	0.27
376.624	0.34
376.831	0.3
377.038	0.24
377.245	0.19
377.452	0.25
377.659	0.28
377.866	0.24
378.073	0.25
378.28	0.24
378.487	0.29
378.694	0.37
378.901	0.25
379.108	0.23
379.315	0.32
379.522	0.35
379.729	0.27
379.936	0.22
380.143	0.31
380.35	0.32
380.557	0.28
380.763	0.26
380.97	0.31
381.177	0.3
381.384	0.28
381.591	0.2
381.797	0.29
382.004	0.29
382.211	0.3
382.418	0.28
382.624	0.31
382.831	0.35
383.038	0.26
383.244	0.31
383.451	0.27
383.658	0.29
383.864	0.27
384.071	0.23
384.277	0.32
384.484	0.27
384.69	0.35
384.897	0.28
385.103	0.29
385.31	0.25
385.516	0.26
385.723	0.22
385.929	0.28
386.136	0.24
386.342	0.3
386.549	0.27
386.755	0.31
386.961	0.28
387.168	0.3
387.374	0.29
387.58	0.37
387.787	0.27
387.993	0.27
388.199	0.29
388.406	0.29
388.612	0.29
388.818	0.29
389.024	0.26
389.231	0.34
389.437	0.37
389.643	0.3
389.849	0.28
390.055	0.31
390.261	0.29
390.467	0.32
390.674	0.31
390.88	0.3
391.086	0.35
391.292	0.27
391.498	0.3
391.704	0.32
391.91	0.33
392.116	0.27
392.322	0.17
392.528	0.35
392.734	0.29
392.94	0.35
393.146	0.31
393.352	0.34
393.557	0.3
393.763	0.33
393.969	0.33
394.175	0.31
394.381	0.3
394.587	0.24
394.792	0.29
394.998	0.32
395.204	0.32
395.41	0.3
395.615	0.35
395.821	0.37
396.027	0.36
396.233	0.27
396.438	0.39
396.644	0.42
396.85	0.39
397.055	0.31
397.261	0.34
397.466	0.32
397.672	0.33
397.878	0.34
398.083	0.37
398.289	0.29
398.494	0.39
398.7	0.38
398.905	0.29
399.111	0.41
399.316	0.32
399.522	0.36
399.727	0.35
399.932	0.36
400.138	0.31
400.343	0.38
400.549	0.36
400.754	0.33
400.959	0.36
401.165	0.39
401.37	0.38
401.575	0.52
401.78	0.36
401.986	0.37
402.191	0.35
402.396	0.42
402.601	0.39
402.807	0.42
403.012	0.44
403.217	0.42
403.422	0.4
403.627	0.44
403.832	0.38
404.037	0.46
404.243	0.46
404.448	0.37
404.653	0.41
404.858	0.48
405.063	0.49
405.268	0.45
405.473	0.33
405.678	0.4
405.883	0.62
406.088	0.46
406.293	0.38
406.498	0.44
406.703	0.5
406.907	0.51
407.112	0.43
407.317	0.52
407.522	0.57
407.727	0.47
407.932	0.56
408.136	0.61
408.341	0.59
408.546	0.55
408.751	0.59
408.956	0.58
409.16	0.64
409.365	0.64
409.57	0.59
409.774	0.65
409.979	0.65
410.184	0.72
410.388	0.66
410.593	0.77
410.798	0.74
411.002	0.71
411.207	0.82
411.411	0.82
411.616	0.77
411.82	0.83
412.025	0.85
412.229	0.8
412.434	0.95
412.638	0.93
412.843	0.97
413.047	0.98
413.252	0.92
413.456	0.99
413.66	1.02
413.865	1.08
414.069	1.2
414.273	1.09
414.478	1.17
414.682	1.19
414.886	1.25
415.091	1.18
415.295	1.23
415.499	1.41
415.703	1.39
415.908	1.44
416.112	1.4
416.316	1.59
416.52	1.57
416.724	1.55
416.929	1.67
417.133	1.87
417.337	1.76
417.541	1.84
417.745	1.86
417.949	1.99
418.153	2.02
418.357	2.08
418.561	2.24
418.765	2.23
418.969	2.37
419.173	2.47
419.377	2.42
419.581	2.64
419.785	2.63
419.989	2.65
420.193	2.88
420.397	2.94
420.601	3.06
420.804	3.13
421.008	3.09
421.212	3.22
421.416	3.28
421.62	3.24
421.823	3.32
422.027	3.52
422.231	3.47
422.435	3.5
422.638	3.6
422.842	3.72
423.046	3.78
423.249	3.95
423.453	3.96
423.657	4.14
423.86	4.19
424.064	4.42
424.268	4.59
424.471	4.47
424.675	4.73
424.878	4.84
425.082	4.99
425.285	5.14
425.489	5.06
425.692	5.28
425.896	5.3
426.099	5.5
426.303	5.59
426.506	5.86
426.71	5.96
426.913	6.22
427.116	6.42
427.32	6.4
427.523	6.5
427.726	6.74
427.93	6.84
428.133	7.18
428.336	7.38
428.54	7.45
428.743	7.68
428.946	7.99
429.149	7.87
429.353	7.89
429.556	8.09
429.759	8.06
429.962	8.24
430.165	8.42
430.368	7.98
430.571	8.05
430.775	8.14
430.978	8.12
431.181	8.17
431.384	8.36
431.587	8.43
431.79	8.84
431.993	8.59
432.196	8.95
432.399	9.31
432.602	9.48
432.805	9.47
433.008	10.08
433.211	9.9
433.414	10.35
433.616	10.32
433.819	10.25
434.022	10.5
434.225	10.67
434.428	10.63
434.631	10.98
434.833	10.74
435.036	11.22
435.239	11.22
435.442	11.4
435.645	11.49
435.847	11.63
436.05	11.96
436.253	12.1
436.455	12.19
436.658	12.08
436.861	12.33
437.063	12.51
437.266	12.48
437.468	12.71
437.671	13.06
437.874	13.04
438.076	12.89
438.279	13.39
438.481	13.6
438.684	14.22
438.886	13.85
439.089	14.22
439.291	14.17
439.494	14.6
439.696	14.79
439.899	15.24
440.101	15.79
440.303	15.78
440.506	16.64
440.708	16.33
440.91	16.51
441.113	16.82
441.315	16.95
441.517	16.86
441.72	17.36
441.922	17.03
442.124	16.86
442.326	17.25
442.529	17.54
442.731	17.46
442.933	17.8
443.135	17.53
443.337	17.55
443.539	18.23
443.742	17.76
443.944	18.42
444.146	18.07
444.348	18.23
444.55	18.06
444.752	18.17
444.954	18.19
445.156	18.03
445.358	18.45
445.56	18.71
445.762	18.49
445.964	18.86
446.166	18.79
446.368	18.74
446.57	18.66
446.772	18.09
446.974	18.01
447.175	18.29
447.377	18.01
447.579	18.47
447.781	18.13
447.983	17.9
448.184	17.51
448.386	17.8
448.588	17.23
448.79	17.2
448.991	17.76
449.193	17.55
449.395	16.89
449.597	16.48
449.798	16.45
450	16.08
450.202	15.78
450.403	16.07
450.605	15.75
450.806	15.43
451.008	15.25
451.21	15.04
451.411	14.55
451.613	13.84
451.814	14.08
452.016	14.02
452.217	13.34
452.419	13.32
452.62	12.97
452.821	12.73
453.023	12.55
453.224	12.19
453.426	11.89
453.627	11.06
453.828	11.25
454.03	11.34
454.231	11.21
454.432	11.07
454.634	10.83
454.835	10.67
455.036	10.52
455.238	9.98
455.439	9.74
455.64	9.53
455.841	9.4
456.042	9.51
456.244	9.16
456.445	8.93
456.646	8.66
456.847	8.51
457.048	8.52
457.249	8.58
457.45	8.24
457.651	7.74
457.852	7.49
458.054	7.35
458.255	7.19
458.456	7.25
458.657	7.15
458.858	6.7
459.058	6.62
459.259	6.7
459.46	6.48
459.661	6.47
459.862	6.47
460.063	6.42
460.264	6.14
460.465	5.95
460.666	5.99
460.866	5.76
461.067	5.57
461.268	5.6
461.469	5.5
461.67	5.36
461.87	5.15
462.071	5.23
462.272	5.21
462.473	5.16
462.673	5.22
462.874	5.09
463.075	5.16
463.275	5.09
463.476	5.13
463.676	5.1
463.877	4.88
464.078	4.9
464.278	5.01
464.479	4.91
464.679	4.82
464.88	4.69
465.08	4.69
465.281	4.51
465.481	4.36
465.682	4.15
465.882	4.13
466.083	4.07
466.283	4.08
466.483	3.83
466.684	3.7
466.884	3.63
467.085	3.69
467.285	3.78
467.485	3.62
467.686	3.54
467.886	3.42
468.086	3.36
468.286	3.29
468.487	3.48
468.687	3.27
468.887	3.18
469.087	3.35
469.287	3.25
469.488	3.04
469.688	3.17
469.888	3.2
470.088	3.09
470.288	3.06
470.488	3.03
470.688	2.84
470.888	2.86
471.088	2.66
471.288	2.75
471.488	2.78
471.688	2.74
471.888	2.69
472.088	2.87
472.288	2.76
472.488	2.61
472.688	2.52
472.888	2.61
473.088	2.55
473.288	2.47
473.488	2.42
473.688	2.6
473.887	2.49
474.087	2.42
474.287	2.41
474.487	2.42
474.687	2.38
474.886	2.33
475.086	2.3
475.286	2.3
475.486	2.27
475.685	2.23
475.885	2.24
476.085	2.29
476.284	2.23
476.484	2.27
476.684	2.27
476.883	2.25
477.083	2.16
477.282	2.13
477.482	2.18
477.681	2.17
477.881	2.06
478.08	2.09
478.28	1.99
478.479	2.11
478.679	2.1
478.878	2.02
479.078	2.03
479.277	2.08
479.477	2.05
479.676	1.98
479.875	2.05
480.075	1.95
480.274	1.99
480.473	2.07
480.673	2
480.872	2.07
481.071	2.04
481.271	2.06
481.47	1.98
481.669	1.99
481.868	1.92
482.067	2.03
482.267	1.93
482.466	1.93
482.665	1.93
482.864	1.95
483.063	1.92
483.262	2
483.461	2.01
483.661	2.06
483.86	2.01
484.059	2.04
484.258	2.01
484.457	1.99
484.656	2
484.855	2.08
485.054	1.93
485.253	1.95
485.452	1.95
485.651	2.04
485.849	1.99
486.048	2.01
486.247	1.99
486.446	2.08
486.645	2.02
486.844	2.03
487.043	2.05
487.241	2.08
487.44	2.07
487.639	2.1
487.838	2.16
488.037	2.09
488.235	2.19
488.434	2.18
488.633	2.05
488.831	2.22
489.03	2.2
489.229	2.21
489.427	2.19
489.626	2.26
489.825	2.24
490.023	2.28
490.222	2.23
490.42	2.29
490.619	2.36
490.817	2.39
491.016	2.32
491.214	2.39
491.413	2.42
491.611	2.39
491.81	2.42
492.008	2.44
492.207	2.57
492.405	2.53
492.604	2.45
492.802	2.51
493	2.6
493.199	2.58
493.397	2.64
493.595	2.69
493.794	2.63
493.992	2.77
494.19	2.74
494.388	2.79
494.587	2.71
494.785	2.77
494.983	2.76
495.181	2.85
495.379	2.91
495.578	2.95
495.776	2.95
495.974	2.9
496.172	2.98
496.37	3.04
496.568	3.09
496.766	3.08
496.964	3.16
497.162	3.17
497.36	3.2
497.558	3.21
497.756	3.28
497.954	3.3
498.152	3.36
498.35	3.4
498.548	3.28
498.746	3.39
498.944	3.4
499.142	3.43
499.34	3.5
499.538	3.64
499.736	3.5
499.933	3.63
500.131	3.64
500.329	3.8
500.527	3.73
500.725	3.82
500.922	3.8
501.12	3.87
501.318	3.98
501.516	3.88
501.713	4.04
501.911	3.97
502.109	3.95
502.306	4.09
502.504	4
502.701	4.08
