Data from Apollo_Calib_20240827__AbsoluteIrradiance__813__12-42-02-910.txt Node

Date: Wed Aug 28 12:42:02 BST 2024
User: biology
Spectrometer: FLMT08252
Trigger mode: 0
Integration Time (sec): 5.000000E-1
Scans to average: 5
Electric dark correction enabled: true
Nonlinearity correction enabled: false
Boxcar width: 0
XAxis mode: Wavelengths
Number of Pixels in Spectrum: 3648
>>>>>Begin Spectral Data<<<<<
179.588	-0
179.809	-0
180.03	-0
180.251	-0
180.473	-0
180.694	0
180.915	0
181.136	-0
181.357	0
181.578	-0
181.799	0
182.02	-0
182.241	-0
182.462	-0
182.683	0
182.904	-0
183.125	-0
183.346	0
183.567	0
183.788	0
184.009	0
184.23	0
184.451	0
184.672	0
184.892	0
185.113	0
185.334	0
185.555	0
185.776	0
185.996	0
186.217	0
186.438	0
186.659	0
186.879	0
187.1	0
187.321	0
187.541	0
187.762	0
187.983	0
188.203	0
188.424	0
188.644	0
188.865	0
189.086	0
189.306	0
189.527	0
189.747	0
189.968	0
190.188	0
190.409	0
190.629	0
190.849	0
191.07	0
191.29	0
191.511	0
191.731	0
191.951	0
192.172	0
192.392	0
192.612	0
192.833	0
193.053	0
193.273	0
193.493	0
193.714	0
193.934	0
194.154	0
194.374	0
194.594	0
194.815	0
195.035	0
195.255	0
195.475	0
195.695	0
195.915	0
196.135	0
196.355	0
196.575	0
196.795	0
197.015	0
197.235	0
197.455	0
197.675	0
197.895	0
198.115	0
198.335	0
198.555	0
198.775	0
198.995	0
199.214	0
199.434	0
199.654	0
199.874	0
200.094	3.63
200.313	2.09
200.533	1.89
200.753	1.45
200.973	4.03
201.192	3.27
201.412	1.73
201.632	1.54
201.851	3.49
202.071	1.83
202.291	2.03
202.51	1.48
202.73	3.04
202.95	2.19
203.169	1.49
203.389	1.65
203.608	2.46
203.828	1.55
204.047	1.28
204.267	2.16
204.486	2.66
204.706	2.11
204.925	2.07
205.145	1.36
205.364	2.17
205.583	2.46
205.803	1.12
206.022	1.34
206.242	1.92
206.461	1.63
206.68	1.2
206.9	1.53
207.119	2.78
207.338	2.37
207.557	1.6
207.777	1.07
207.996	1.72
208.215	1.93
208.434	1.1
208.654	0.88
208.873	1.4
209.092	2.07
209.311	0.91
209.53	0.99
209.749	1.37
209.968	0.87
210.187	1.01
210.407	0.69
210.626	1.31
210.845	1.72
211.064	1.01
211.283	0.74
211.502	1.53
211.721	1.15
211.94	1.03
212.159	1.48
212.377	1.28
212.596	1.5
212.815	1.12
213.034	1.14
213.253	1.35
213.472	1.42
213.691	1.18
213.91	0.8
214.128	0.83
214.347	1.37
214.566	0.61
214.785	0.42
215.003	1.41
215.222	1.14
215.441	0.94
215.66	0.44
215.878	1.18
216.097	1.2
216.316	0.67
216.534	0.95
216.753	1.19
216.972	0.95
217.19	0.8
217.409	0.64
217.627	0.69
217.846	0.85
218.064	1.07
218.283	0.6
218.501	1.37
218.72	1.17
218.938	0.63
219.157	0.72
219.375	1.41
219.594	1.03
219.812	0.54
220.031	0.59
220.249	1.23
220.467	1.2
220.686	0.64
220.904	0.43
221.122	0.62
221.341	1.2
221.559	0.84
221.777	0.56
221.995	0.95
222.214	1.06
222.432	0.48
222.65	1.03
222.868	0.78
223.086	0.84
223.305	0.82
223.523	0.59
223.741	1.11
223.959	0.86
224.177	0.34
224.395	0.65
224.613	0.78
224.831	1.12
225.049	0.49
225.267	0.55
225.485	0.83
225.703	0.57
225.921	0.71
226.139	0.62
226.357	0.9
226.575	0.74
226.793	0.65
227.011	1.5
227.229	0.82
227.447	1
227.665	0.53
227.883	0.24
228.1	0.69
228.318	0.76
228.536	0.29
228.754	0.53
228.972	0.84
229.189	0.92
229.407	0.55
229.625	0.5
229.843	0.86
230.06	0.9
230.278	0.42
230.496	0.62
230.713	0.67
230.931	0.71
231.149	0.43
231.366	0.3
231.584	0.62
231.801	1.09
232.019	0.47
232.236	0.48
232.454	0.47
232.671	0.79
232.889	0.52
233.106	0.4
233.324	0.59
233.541	0.53
233.759	0.53
233.976	0.43
234.194	0.52
234.411	0.61
234.628	0.4
234.846	0.38
235.063	0.56
235.28	0.59
235.498	0.56
235.715	0.34
235.932	0.75
236.149	0.51
236.367	0.39
236.584	0.57
236.801	0.49
237.018	0.64
237.236	0.42
237.453	0.26
237.67	0.7
237.887	0.52
238.104	0.57
238.321	0.42
238.538	0.44
238.755	0.72
238.973	0.33
239.19	0.44
239.407	0.57
239.624	0.56
239.841	0.41
240.058	0.4
240.275	0.59
240.492	0.53
240.709	0.44
240.925	0.47
241.142	0.56
241.359	0.3
241.576	0.37
241.793	0.32
242.01	0.39
242.227	0.68
242.444	0.51
242.66	0.59
242.877	0.49
243.094	0.41
243.311	0.47
243.527	0.52
243.744	0.61
243.961	0.5
244.178	0.31
244.394	0.35
244.611	0.62
244.828	0.76
245.044	0.34
245.261	0.39
245.477	0.48
245.694	0.48
245.911	0.38
246.127	0.48
246.344	0.68
246.56	0.63
246.777	0.34
246.993	0.46
247.21	0.52
247.426	0.59
247.643	0.32
247.859	0.25
248.076	0.35
248.292	0.7
248.508	0.4
248.725	0.51
248.941	0.49
249.157	0.58
249.374	0.42
249.59	0.38
249.806	0.44
250.023	0.53
250.239	0.3
250.455	0.31
250.671	0.47
250.888	0.48
251.104	0.41
251.32	0.39
251.536	0.41
251.752	0.37
251.969	0.33
252.185	0.43
252.401	0.66
252.617	0.49
252.833	0.37
253.049	0.38
253.265	0.44
253.481	0.46
253.697	0.32
253.913	0.27
254.129	0.46
254.345	0.42
254.561	0.38
254.777	0.32
254.993	0.47
255.209	0.48
255.425	0.34
255.641	0.32
255.857	0.54
256.073	0.47
256.288	0.27
256.504	0.33
256.72	0.41
256.936	0.58
257.152	0.42
257.367	0.27
257.583	0.45
257.799	0.52
258.015	0.3
258.23	0.32
258.446	0.59
258.662	0.43
258.877	0.29
259.093	0.32
259.309	0.42
259.524	0.46
259.74	0.4
259.955	0.25
260.171	0.39
260.387	0.39
260.602	0.42
260.818	0.41
261.033	0.32
261.249	0.49
261.464	0.33
261.68	0.33
261.895	0.47
262.11	0.39
262.326	0.33
262.541	0.27
262.757	0.48
262.972	0.43
263.187	0.38
263.403	0.39
263.618	0.46
263.833	0.41
264.049	0.26
264.264	0.33
264.479	0.33
264.694	0.56
264.91	0.19
265.125	0.26
265.34	0.43
265.555	0.57
265.77	0.33
265.986	0.31
266.201	0.36
266.416	0.42
266.631	0.3
266.846	0.27
267.061	0.4
267.276	0.45
267.491	0.11
267.706	0.38
267.921	0.45
268.136	0.38
268.351	0.4
268.566	0.31
268.781	0.5
268.996	0.44
269.211	0.27
269.426	0.25
269.641	0.27
269.856	0.48
270.071	0.34
270.285	0.2
270.5	0.39
270.715	0.49
270.93	0.29
271.145	0.36
271.359	0.47
271.574	0.3
271.789	0.31
272.004	0.3
272.218	0.3
272.433	0.37
272.648	0.29
272.862	0.36
273.077	0.37
273.292	0.37
273.506	0.33
273.721	0.31
273.936	0.37
274.15	0.49
274.365	0.32
274.579	0.38
274.794	0.38
275.008	0.4
275.223	0.26
275.437	0.3
275.652	0.43
275.866	0.4
276.081	0.32
276.295	0.37
276.509	0.39
276.724	0.38
276.938	0.36
277.153	0.32
277.367	0.4
277.581	0.29
277.796	0.31
278.01	0.23
278.224	0.4
278.438	0.46
278.653	0.24
278.867	0.26
279.081	0.15
279.295	0.31
279.51	0.3
279.724	0.18
279.938	0.42
280.152	0.33
280.366	0.29
280.58	0.26
280.794	0.41
281.008	0.35
281.222	0.3
281.437	0.54
281.651	0.37
281.865	0.41
282.079	0.27
282.293	0.18
282.507	0.23
282.721	0.27
282.935	0.3
283.148	0.24
283.362	0.27
283.576	0.23
283.79	0.3
284.004	0.28
284.218	0.41
284.432	0.26
284.646	0.31
284.859	0.28
285.073	0.25
285.287	0.32
285.501	0.28
285.714	0.29
285.928	0.3
286.142	0.31
286.356	0.32
286.569	0.24
286.783	0.42
286.997	0.37
287.21	0.32
287.424	0.25
287.637	0.31
287.851	0.32
288.065	0.37
288.278	0.27
288.492	0.34
288.705	0.31
288.919	0.32
289.132	0.22
289.346	0.32
289.559	0.22
289.773	0.23
289.986	0.26
290.2	0.32
290.413	0.38
290.626	0.26
290.84	0.26
291.053	0.28
291.267	0.36
291.48	0.3
291.693	0.31
291.906	0.22
292.12	0.31
292.333	0.27
292.546	0.22
292.76	0.37
292.973	0.32
293.186	0.32
293.399	0.24
293.612	0.37
293.826	0.25
294.039	0.26
294.252	0.23
294.465	0.36
294.678	0.3
294.891	0.26
295.104	0.22
295.317	0.24
295.53	0.3
295.743	0.27
295.956	0.29
296.169	0.36
296.382	0.37
296.595	0.28
296.808	0.21
297.021	0.35
297.234	0.36
297.447	0.27
297.66	0.31
297.873	0.38
298.086	0.35
298.299	0.24
298.511	0.15
298.724	0.28
298.937	0.17
299.15	0.25
299.363	0.23
299.575	0.35
299.788	0.29
300.001	0.25
300.213	0.21
300.426	0.24
300.639	0.24
300.852	0.26
301.064	0.27
301.277	0.39
301.489	0.31
301.702	0.29
301.915	0.31
302.127	0.25
302.34	0.27
302.552	0.31
302.765	0.21
302.977	0.32
303.19	0.29
303.402	0.26
303.615	0.25
303.827	0.26
304.04	0.31
304.252	0.3
304.464	0.26
304.677	0.42
304.889	0.29
305.102	0.22
305.314	0.22
305.526	0.3
305.739	0.28
305.951	0.18
306.163	0.21
306.375	0.34
306.588	0.24
306.8	0.22
307.012	0.22
307.224	0.31
307.436	0.37
307.649	0.18
307.861	0.23
308.073	0.3
308.285	0.26
308.497	0.2
308.709	0.19
308.921	0.27
309.133	0.33
309.346	0.27
309.558	0.25
309.77	0.3
309.982	0.33
310.194	0.28
310.406	0.21
310.617	0.4
310.829	0.29
311.041	0.26
311.253	0.19
311.465	0.27
311.677	0.28
311.889	0.25
312.101	0.17
312.313	0.33
312.524	0.38
312.736	0.19
312.948	0.22
313.16	0.33
313.372	0.34
313.583	0.25
313.795	0.18
314.007	0.26
314.218	0.34
314.43	0.25
314.642	0.25
314.853	0.19
315.065	0.32
315.277	0.28
315.488	0.26
315.7	0.33
315.912	0.24
316.123	0.28
316.335	0.26
316.546	0.41
316.758	0.27
316.969	0.2
317.181	0.25
317.392	0.28
317.604	0.35
317.815	0.23
318.026	0.2
318.238	0.27
318.449	0.29
318.661	0.2
318.872	0.26
319.083	0.2
319.295	0.3
319.506	0.26
319.717	0.25
319.929	0.3
320.14	0.26
320.351	0.26
320.562	0.22
320.774	0.34
320.985	0.26
321.196	0.23
321.407	0.2
321.618	0.31
321.829	0.3
322.041	0.28
322.252	0.23
322.463	0.28
322.674	0.29
322.885	0.2
323.096	0.29
323.307	0.29
323.518	0.31
323.729	0.21
323.94	0.18
324.151	0.24
324.362	0.3
324.573	0.24
324.784	0.25
324.995	0.29
325.206	0.3
325.417	0.23
325.628	0.22
325.838	0.29
326.049	0.25
326.26	0.3
326.471	0.19
326.682	0.27
326.892	0.27
327.103	0.15
327.314	0.22
327.525	0.32
327.735	0.29
327.946	0.28
328.157	0.21
328.368	0.29
328.578	0.24
328.789	0.3
328.999	0.27
329.21	0.21
329.421	0.32
329.631	0.23
329.842	0.22
330.052	0.25
330.263	0.34
330.473	0.32
330.684	0.23
330.894	0.27
331.105	0.27
331.315	0.27
331.526	0.18
331.736	0.39
331.947	0.31
332.157	0.3
332.367	0.17
332.578	0.31
332.788	0.37
332.999	0.27
333.209	0.27
333.419	0.16
333.629	0.28
333.84	0.3
334.05	0.25
334.26	0.3
334.47	0.31
334.681	0.32
334.891	0.25
335.101	0.32
335.311	0.37
335.521	0.27
335.732	0.19
335.942	0.37
336.152	0.27
336.362	0.27
336.572	0.26
336.782	0.31
336.992	0.24
337.202	0.25
337.412	0.25
337.622	0.26
337.832	0.25
338.042	0.27
338.252	0.25
338.462	0.19
338.672	0.28
338.882	0.25
339.092	0.18
339.302	0.31
339.511	0.31
339.721	0.25
339.931	0.18
340.141	0.3
340.351	0.34
340.561	0.31
340.77	0.26
340.98	0.3
341.19	0.3
341.4	0.21
341.609	0.2
341.819	0.24
342.029	0.24
342.238	0.29
342.448	0.23
342.658	0.28
342.867	0.22
343.077	0.22
343.286	0.23
343.496	0.3
343.706	0.4
343.915	0.23
344.125	0.27
344.334	0.28
344.544	0.2
344.753	0.2
344.963	0.22
345.172	0.22
345.381	0.23
345.591	0.2
345.8	0.25
346.01	0.35
346.219	0.29
346.428	0.26
346.638	0.26
346.847	0.25
347.056	0.31
347.266	0.18
347.475	0.21
347.684	0.34
347.893	0.29
348.103	0.3
348.312	0.21
348.521	0.27
348.73	0.25
348.94	0.27
349.149	0.23
349.358	0.27
349.567	0.23
349.776	0.18
349.985	0.23
350.194	0.3
350.403	0.34
350.612	0.19
350.821	0.2
351.03	0.28
351.239	0.21
351.448	0.23
351.657	0.21
351.866	0.36
352.075	0.26
352.284	0.3
352.493	0.22
352.702	0.31
352.911	0.28
353.12	0.24
353.329	0.23
353.538	0.28
353.746	0.27
353.955	0.19
354.164	0.26
354.373	0.25
354.582	0.29
354.79	0.24
354.999	0.28
355.208	0.27
355.416	0.34
355.625	0.18
355.834	0.2
356.042	0.25
356.251	0.2
356.46	0.2
356.668	0.25
356.877	0.34
357.085	0.28
357.294	0.14
357.503	0.28
357.711	0.26
357.92	0.41
358.128	0.24
358.337	0.23
358.545	0.28
358.754	0.26
358.962	0.31
359.17	0.25
359.379	0.26
359.587	0.29
359.796	0.26
360.004	0.3
360.212	0.31
360.421	0.33
360.629	0.24
360.837	0.25
361.046	0.33
361.254	0.36
361.462	0.25
361.67	0.26
361.879	0.27
362.087	0.29
362.295	0.25
362.503	0.21
362.711	0.21
362.92	0.23
363.128	0.23
363.336	0.21
363.544	0.19
363.752	0.24
363.96	0.21
364.168	0.21
364.376	0.26
364.584	0.26
364.792	0.32
365	0.26
365.208	0.23
365.416	0.31
365.624	0.29
365.832	0.23
366.04	0.32
366.248	0.3
366.456	0.25
366.664	0.29
366.872	0.29
367.079	0.27
367.287	0.22
367.495	0.25
367.703	0.27
367.911	0.26
368.118	0.23
368.326	0.25
368.534	0.25
368.742	0.32
368.949	0.21
369.157	0.24
369.365	0.31
369.572	0.21
369.78	0.23
369.988	0.28
370.195	0.25
370.403	0.32
370.61	0.21
370.818	0.27
371.026	0.39
371.233	0.2
371.441	0.27
371.648	0.23
371.856	0.28
372.063	0.29
372.271	0.26
372.478	0.21
372.685	0.25
372.893	0.3
373.1	0.25
373.308	0.26
373.515	0.36
373.722	0.31
373.93	0.26
374.137	0.3
374.344	0.36
374.552	0.31
374.759	0.26
374.966	0.3
375.173	0.23
375.381	0.33
375.588	0.24
375.795	0.19
376.002	0.23
376.209	0.25
376.417	0.22
376.624	0.26
376.831	0.29
377.038	0.27
377.245	0.18
377.452	0.27
377.659	0.29
377.866	0.28
378.073	0.23
378.28	0.24
378.487	0.32
378.694	0.32
378.901	0.29
379.108	0.25
379.315	0.3
379.522	0.37
379.729	0.29
379.936	0.25
380.143	0.29
380.35	0.31
380.557	0.25
380.763	0.22
380.97	0.28
381.177	0.29
381.384	0.28
381.591	0.23
381.797	0.28
382.004	0.34
382.211	0.32
382.418	0.19
382.624	0.33
382.831	0.32
383.038	0.33
383.244	0.34
383.451	0.29
383.658	0.29
383.864	0.26
384.071	0.23
384.277	0.35
384.484	0.25
384.69	0.36
384.897	0.25
385.103	0.29
385.31	0.23
385.516	0.24
385.723	0.21
385.929	0.28
386.136	0.26
386.342	0.34
386.549	0.26
386.755	0.35
386.961	0.3
387.168	0.27
387.374	0.27
387.58	0.34
387.787	0.29
387.993	0.29
388.199	0.26
388.406	0.22
388.612	0.3
388.818	0.3
389.024	0.24
389.231	0.3
389.437	0.39
389.643	0.33
389.849	0.28
390.055	0.33
390.261	0.31
390.467	0.34
390.674	0.23
390.88	0.31
391.086	0.35
391.292	0.26
391.498	0.37
391.704	0.36
391.91	0.28
392.116	0.25
392.322	0.23
392.528	0.34
392.734	0.29
392.94	0.32
393.146	0.27
393.352	0.34
393.557	0.24
393.763	0.27
393.969	0.35
394.175	0.27
394.381	0.28
394.587	0.25
394.792	0.32
394.998	0.39
395.204	0.36
395.41	0.28
395.615	0.37
395.821	0.36
396.027	0.38
396.233	0.29
396.438	0.34
396.644	0.42
396.85	0.32
397.055	0.34
397.261	0.37
397.466	0.33
397.672	0.38
397.878	0.37
398.083	0.35
398.289	0.27
398.494	0.39
398.7	0.4
398.905	0.24
399.111	0.5
399.316	0.28
399.522	0.36
399.727	0.31
399.932	0.3
400.138	0.34
400.343	0.41
400.549	0.34
400.754	0.39
400.959	0.35
401.165	0.37
401.37	0.4
401.575	0.48
401.78	0.39
401.986	0.41
402.191	0.36
402.396	0.38
402.601	0.43
402.807	0.44
403.012	0.32
403.217	0.43
403.422	0.45
403.627	0.41
403.832	0.32
404.037	0.47
404.243	0.47
404.448	0.37
404.653	0.44
404.858	0.5
405.063	0.47
405.268	0.43
405.473	0.39
405.678	0.45
405.883	0.65
406.088	0.49
406.293	0.41
406.498	0.45
406.703	0.51
406.907	0.47
407.112	0.44
407.317	0.55
407.522	0.61
407.727	0.48
407.932	0.54
408.136	0.65
408.341	0.55
408.546	0.56
408.751	0.56
408.956	0.6
409.16	0.71
409.365	0.6
409.57	0.61
409.774	0.64
409.979	0.65
410.184	0.68
410.388	0.6
410.593	0.78
410.798	0.76
411.002	0.7
411.207	0.77
411.411	0.82
411.616	0.71
411.82	0.86
412.025	0.87
412.229	0.85
412.434	0.98
412.638	0.96
412.843	0.94
413.047	1
413.252	0.98
413.456	1.06
413.66	1.02
413.865	1
414.069	1.19
414.273	1.09
414.478	1.12
414.682	1.19
414.886	1.26
415.091	1.2
415.295	1.22
415.499	1.48
415.703	1.45
415.908	1.43
416.112	1.27
416.316	1.64
416.52	1.59
416.724	1.55
416.929	1.61
417.133	1.89
417.337	1.8
417.541	1.8
417.745	1.8
417.949	2
418.153	2.1
418.357	2.06
418.561	2.28
418.765	2.25
418.969	2.4
419.173	2.45
419.377	2.43
419.581	2.69
419.785	2.64
419.989	2.61
420.193	2.78
420.397	2.96
420.601	3.08
420.804	3.11
421.008	3.18
421.212	3.31
421.416	3.35
421.62	3.24
421.823	3.42
422.027	3.57
422.231	3.53
422.435	3.53
422.638	3.6
422.842	3.73
423.046	3.79
423.249	4.02
423.453	3.99
423.657	4.15
423.86	4.27
424.064	4.41
424.268	4.5
424.471	4.5
424.675	4.73
424.878	4.88
425.082	4.96
425.285	5.31
425.489	5.15
425.692	5.24
425.896	5.31
426.099	5.57
426.303	5.62
426.506	5.8
426.71	6.08
426.913	6.3
427.116	6.4
427.32	6.36
427.523	6.37
427.726	6.86
427.93	6.91
428.133	7.14
428.336	7.36
428.54	7.46
428.743	7.76
428.946	7.97
429.149	7.92
429.353	7.93
429.556	8.08
429.759	8.12
429.962	8.24
430.165	8.37
430.368	8.06
430.571	8.08
430.775	8.11
430.978	8.17
431.181	8.24
431.384	8.23
431.587	8.43
431.79	8.83
431.993	8.69
432.196	8.95
432.399	9.34
432.602	9.45
432.805	9.67
433.008	10.15
433.211	9.94
433.414	10.38
433.616	10.34
433.819	10.3
434.022	10.5
434.225	10.66
434.428	10.66
434.631	11
434.833	10.84
435.036	11.24
435.239	11.34
435.442	11.46
435.645	11.5
435.847	11.59
436.05	11.96
436.253	12.22
436.455	12.2
436.658	11.97
436.861	12.36
437.063	12.5
437.266	12.46
437.468	12.79
437.671	13.18
437.874	13.29
438.076	13.01
438.279	13.58
438.481	13.51
438.684	14.26
438.886	13.86
439.089	14.02
439.291	14.19
439.494	14.52
439.696	14.79
439.899	15.23
440.101	15.66
440.303	15.9
440.506	16.66
440.708	16.27
440.91	16.46
441.113	16.5
441.315	17.07
441.517	16.82
441.72	17.24
441.922	16.78
442.124	16.83
442.326	17.24
442.529	17.47
442.731	17.27
442.933	17.75
443.135	17.37
443.337	17.46
443.539	18.01
443.742	17.75
443.944	18.33
444.146	18.03
444.348	18.12
444.55	17.98
444.752	18.06
444.954	18.18
445.156	18.09
445.358	18.3
445.56	18.66
445.762	18.43
445.964	18.85
446.166	18.65
446.368	18.45
446.57	18.56
446.772	18.17
446.974	17.94
447.175	18.35
447.377	17.95
447.579	18.23
447.781	18.02
447.983	17.71
448.184	17.37
448.386	17.76
448.588	17.19
448.79	17.16
448.991	17.52
449.193	17.49
449.395	16.71
449.597	16.32
449.798	16.26
450	15.83
450.202	15.9
450.403	15.66
450.605	15.72
450.806	15.42
451.008	15.16
451.21	14.94
451.411	14.62
451.613	13.72
451.814	14.02
452.016	13.91
452.217	13.16
452.419	13.21
452.62	12.91
452.821	12.67
453.023	12.44
453.224	12.09
453.426	11.71
453.627	11
453.828	11.17
454.03	11.12
454.231	11.16
454.432	10.98
454.634	10.69
454.835	10.37
455.036	10.27
455.238	9.91
455.439	9.71
455.64	9.33
455.841	9.24
456.042	9.5
456.244	9.11
456.445	8.81
456.646	8.48
456.847	8.47
457.048	8.36
457.249	8.47
457.45	8.24
457.651	7.56
457.852	7.56
458.054	7.17
458.255	7.15
458.456	7.26
458.657	7.11
458.858	6.62
459.058	6.52
459.259	6.68
459.46	6.41
459.661	6.37
459.862	6.34
460.063	6.3
460.264	6.28
460.465	5.91
460.666	6.08
460.866	5.71
461.067	5.51
461.268	5.52
461.469	5.47
461.67	5.33
461.87	5.16
462.071	5.23
462.272	5.07
462.473	5.07
462.673	5.17
462.874	5
463.075	5.11
463.275	5.13
463.476	5.14
463.676	5.03
463.877	4.95
464.078	4.94
464.278	5.01
464.479	4.85
464.679	4.69
464.88	4.66
465.08	4.76
465.281	4.49
465.481	4.3
465.682	4.17
465.882	4.19
466.083	4.04
466.283	4.05
466.483	3.87
466.684	3.61
466.884	3.59
467.085	3.66
467.285	3.68
467.485	3.63
467.686	3.52
467.886	3.39
468.086	3.35
468.286	3.25
468.487	3.42
468.687	3.2
468.887	3.17
469.087	3.34
469.287	3.19
469.488	3.06
469.688	3.13
469.888	3.23
470.088	3.1
470.288	3.06
470.488	3.02
470.688	2.81
470.888	2.86
471.088	2.68
471.288	2.82
471.488	2.76
471.688	2.73
471.888	2.55
472.088	2.73
472.288	2.73
472.488	2.6
472.688	2.56
472.888	2.58
473.088	2.54
473.288	2.4
473.488	2.39
473.688	2.59
473.887	2.5
474.087	2.38
474.287	2.43
474.487	2.39
474.687	2.44
474.886	2.37
475.086	2.26
475.286	2.31
475.486	2.22
475.685	2.17
475.885	2.21
476.085	2.26
476.284	2.23
476.484	2.28
476.684	2.27
476.883	2.28
477.083	2.16
477.282	2.12
477.482	2.17
477.681	2.12
477.881	2.05
478.08	2.08
478.28	2.05
478.479	2.07
478.679	2.14
478.878	2.05
479.078	2.05
479.277	2.06
479.477	2.03
479.676	2.01
479.875	1.96
480.075	1.95
480.274	1.99
480.473	2.04
480.673	1.99
480.872	2.04
481.071	2.05
481.271	2.01
481.47	1.97
481.669	1.99
481.868	1.94
482.067	1.98
482.267	1.89
482.466	1.88
482.665	1.9
482.864	1.9
483.063	1.89
483.262	2.02
483.461	2.04
483.661	2.02
483.86	1.99
484.059	2.02
484.258	2
484.457	1.98
484.656	2.01
484.855	2.11
485.054	1.91
485.253	1.98
485.452	1.98
485.651	2.04
485.849	2.01
486.048	1.99
486.247	2
486.446	2.06
486.645	2.04
486.844	2.05
487.043	2.03
487.241	2.05
487.44	2.09
487.639	2.11
487.838	2.1
488.037	2.13
488.235	2.23
488.434	2.16
488.633	2.04
488.831	2.19
489.03	2.21
489.229	2.2
489.427	2.23
489.626	2.25
489.825	2.28
490.023	2.31
490.222	2.26
490.42	2.29
490.619	2.36
490.817	2.36
491.016	2.37
491.214	2.43
491.413	2.41
491.611	2.35
491.81	2.38
492.008	2.44
492.207	2.55
492.405	2.51
492.604	2.42
492.802	2.55
493	2.61
493.199	2.63
493.397	2.6
493.595	2.68
493.794	2.67
493.992	2.79
494.19	2.74
494.388	2.8
494.587	2.75
494.785	2.75
494.983	2.74
495.181	2.87
495.379	2.9
495.578	2.95
495.776	2.95
495.974	2.95
496.172	2.96
496.37	3.12
496.568	3.06
496.766	3.09
496.964	3.21
497.162	3.17
497.36	3.19
497.558	3.22
497.756	3.32
497.954	3.27
498.152	3.36
498.35	3.44
498.548	3.37
498.746	3.37
498.944	3.39
499.142	3.44
499.34	3.53
499.538	3.61
499.736	3.54
499.933	3.66
500.131	3.62
500.329	3.76
500.527	3.76
500.725	3.84
500.922	3.9
501.12	3.9
501.318	3.92
501.516	3.95
501.713	4
501.911	3.98
502.109	3.96
502.306	4.1
502.504	4.01
502.701	4.08
502.899	4.15
