Data from Apollo_Calib_20240827__AbsoluteIrradiance__734__11-23-00-688.txt Node

Date: Wed Aug 28 11:23:00 BST 2024
User: biology
Spectrometer: FLMT08252
Trigger mode: 0
Integration Time (sec): 5.000000E-1
Scans to average: 5
Electric dark correction enabled: true
Nonlinearity correction enabled: false
Boxcar width: 0
XAxis mode: Wavelengths
Number of Pixels in Spectrum: 3648
>>>>>Begin Spectral Data<<<<<
179.588	-0
179.809	-0
180.03	-0
180.251	-0
180.473	-0
180.694	0
180.915	0
181.136	-0
181.357	0
181.578	-0
181.799	-0
182.02	-0
182.241	0
182.462	-0
182.683	0
182.904	0
183.125	-0
183.346	0
183.567	0
183.788	0
184.009	0
184.23	0
184.451	0
184.672	0
184.892	0
185.113	0
185.334	0
185.555	0
185.776	0
185.996	0
186.217	0
186.438	0
186.659	-0
186.879	0
187.1	0
187.321	0
187.541	0
187.762	0
187.983	0
188.203	0
188.424	0
188.644	0
188.865	0
189.086	0
189.306	0
189.527	0
189.747	0
189.968	0
190.188	0
190.409	0
190.629	0
190.849	0
191.07	0
191.29	0
191.511	0
191.731	-0
191.951	0
192.172	0
192.392	0
192.612	0
192.833	0
193.053	0
193.273	0
193.493	0
193.714	0
193.934	0
194.154	0
194.374	0
194.594	0
194.815	0
195.035	0
195.255	0
195.475	0
195.695	0
195.915	0
196.135	0
196.355	0
196.575	0
196.795	0
197.015	-0
197.235	0
197.455	0
197.675	0
197.895	0
198.115	-0
198.335	0
198.555	0
198.775	0
198.995	0
199.214	0
199.434	0
199.654	0
199.874	0
200.094	2.03
200.313	0.73
200.533	0.96
200.753	-0.01
200.973	1.44
201.192	1.4
201.412	0.06
201.632	0.61
201.851	1.85
202.071	0.6
202.291	0.04
202.51	0.15
202.73	1.21
202.95	0.86
203.169	0.51
203.389	0.64
203.608	0.64
203.828	0.43
204.047	0.6
204.267	0.98
204.486	0.61
204.706	0.7
204.925	0.67
205.145	0.65
205.364	1.08
205.583	1.37
205.803	0.4
206.022	0.38
206.242	0.37
206.461	0.72
206.68	0.34
206.9	0.59
207.119	1.28
207.338	1.36
207.557	0.5
207.777	0.54
207.996	0.6
208.215	1.27
208.434	0.27
208.654	0.2
208.873	0.59
209.092	1.1
209.311	0.43
209.53	0.35
209.749	0.55
209.968	0.29
210.187	0.37
210.407	0.04
210.626	0.4
210.845	0.94
211.064	0.38
211.283	0.1
211.502	0.58
211.721	0.59
211.94	0.47
212.159	0.38
212.377	0.92
212.596	0.92
212.815	0.64
213.034	0.63
213.253	0.66
213.472	0.85
213.691	0.32
213.91	0.29
214.128	0.22
214.347	0.86
214.566	0.06
214.785	0.01
215.003	0.62
215.222	0.29
215.441	0.47
215.66	0.02
215.878	0.29
216.097	0.76
216.316	-0.09
216.534	0.17
216.753	0.69
216.972	0.45
217.19	0.34
217.409	-0.04
217.627	0.26
217.846	0.31
218.064	0.48
218.283	0.1
218.501	0.9
218.72	0.54
218.938	0.06
219.157	0.31
219.375	0.52
219.594	0.57
219.812	0.08
220.031	0.14
220.249	0.57
220.467	0.63
220.686	0.3
220.904	0.05
221.122	0.27
221.341	0.7
221.559	0.25
221.777	0.18
221.995	0.29
222.214	0.42
222.432	0.14
222.65	0.42
222.868	0.38
223.086	0.47
223.305	0.34
223.523	0.28
223.741	0.6
223.959	0.17
224.177	-0.05
224.395	0.25
224.613	0.25
224.831	0.47
225.049	0.06
225.267	0.11
225.485	0.36
225.703	0.14
225.921	0.29
226.139	0.14
226.357	0.36
226.575	0.38
226.793	0.15
227.011	0.92
227.229	0.31
227.447	0.37
227.665	0.22
227.883	0.12
228.1	0.35
228.318	0.38
228.536	0.04
228.754	-0.01
228.972	0.4
229.189	0.41
229.407	0.08
229.625	0.16
229.843	0.39
230.06	0.31
230.278	0.12
230.496	0.25
230.713	0.21
230.931	0.42
231.149	0.18
231.366	0.08
231.584	0.21
231.801	0.63
232.019	0.23
232.236	0.21
232.454	0.12
232.671	0.34
232.889	0.17
233.106	0.12
233.324	0.18
233.541	0.36
233.759	0.18
233.976	0.12
234.194	0.22
234.411	0.22
234.628	0.05
234.846	0.15
235.063	0.17
235.28	0.17
235.498	0.12
235.715	0.12
235.932	0.36
236.149	0.22
236.367	0.06
236.584	0.3
236.801	0.1
237.018	0.24
237.236	0.2
237.453	0.14
237.67	0.34
237.887	0.26
238.104	0.22
238.321	0.08
238.538	0.15
238.755	0.37
238.973	0.01
239.19	0.16
239.407	0.18
239.624	0.31
239.841	0.02
240.058	0.05
240.275	0.2
240.492	0.19
240.709	0.22
240.925	0.15
241.142	0.28
241.359	0.02
241.576	0.05
241.793	0.1
242.01	0.24
242.227	0.33
242.444	0.19
242.66	0.32
242.877	0.17
243.094	0.15
243.311	0.2
243.527	0.13
243.744	0.17
243.961	0.21
244.178	0.09
244.394	0.19
244.611	0.26
244.828	0.33
245.044	0.08
245.261	0.26
245.477	0.18
245.694	0.21
245.911	0.11
246.127	0.14
246.344	0.38
246.56	0.29
246.777	0.13
246.993	0.15
247.21	0.28
247.426	0.31
247.643	0.13
247.859	0.06
248.076	0.11
248.292	0.44
248.508	0.19
248.725	0.18
248.941	0.23
249.157	0.25
249.374	0.08
249.59	0.12
249.806	0.15
250.023	0.33
250.239	0.06
250.455	0.1
250.671	0.1
250.888	0.19
251.104	0.22
251.32	0.15
251.536	0.15
251.752	0.15
251.969	0.22
252.185	0.16
252.401	0.37
252.617	0.19
252.833	0.15
253.049	0.13
253.265	0.25
253.481	0.18
253.697	0.14
253.913	0.08
254.129	0.14
254.345	0.18
254.561	0.13
254.777	0.14
254.993	0.25
255.209	0.19
255.425	0.11
255.641	0.07
255.857	0.29
256.073	0.17
256.288	0.06
256.504	0.11
256.72	0.18
256.936	0.31
257.152	0.11
257.367	0.08
257.583	0.18
257.799	0.22
258.015	0.12
258.23	0.1
258.446	0.3
258.662	0.14
258.877	0.11
259.093	0.06
259.309	0.11
259.524	0.23
259.74	0.13
259.955	0.06
260.171	0.17
260.387	0.17
260.602	0.28
260.818	0.21
261.033	0.08
261.249	0.17
261.464	0.13
261.68	0.07
261.895	0.12
262.11	0.21
262.326	0.13
262.541	0.04
262.757	0.22
262.972	0.19
263.187	0.18
263.403	0.2
263.618	0.19
263.833	0.11
264.049	0.06
264.264	0.1
264.479	0.12
264.694	0.22
264.91	0.06
265.125	0.12
265.34	0.22
265.555	0.32
265.77	0.12
265.986	0.1
266.201	0.17
266.416	0.2
266.631	0.1
266.846	0.08
267.061	0.12
267.276	0.19
267.491	0.05
267.706	0.14
267.921	0.17
268.136	0.18
268.351	0.13
268.566	0.05
268.781	0.27
268.996	0.21
269.211	0.11
269.426	0
269.641	0.09
269.856	0.2
270.071	0.13
270.285	0.06
270.5	0.23
270.715	0.26
270.93	0.11
271.145	0.17
271.359	0.2
271.574	0.08
271.789	0.11
272.004	0.11
272.218	0.08
272.433	0.22
272.648	0.12
272.862	0.18
273.077	0.17
273.292	0.1
273.506	0.09
273.721	0.13
273.936	0.17
274.15	0.23
274.365	0.04
274.579	0.17
274.794	0.17
275.008	0.16
275.223	0.04
275.437	0.12
275.652	0.2
275.866	0.16
276.081	0.1
276.295	0.15
276.509	0.11
276.724	0.18
276.938	0.09
277.153	0.17
277.367	0.21
277.581	0.14
277.796	0.06
278.01	0.02
278.224	0.12
278.438	0.22
278.653	0.14
278.867	0.1
279.081	0.01
279.295	0.12
279.51	0.11
279.724	0.02
279.938	0.16
280.152	0.17
280.366	0.09
280.58	0.15
280.794	0.25
281.008	0.15
281.222	0.17
281.437	0.2
281.651	0.11
281.865	0.22
282.079	0.1
282.293	0.02
282.507	0.07
282.721	0.12
282.935	0.12
283.148	0.06
283.362	0.11
283.576	0.12
283.79	0.11
284.004	0.03
284.218	0.16
284.432	0.14
284.646	0.15
284.859	0.15
285.073	0.07
285.287	0.16
285.501	0.18
285.714	0.09
285.928	0.12
286.142	0.13
286.356	0.07
286.569	0.07
286.783	0.18
286.997	0.12
287.21	0.09
287.424	0.13
287.637	0.12
287.851	0.14
288.065	0.13
288.278	0.11
288.492	0.11
288.705	0.06
288.919	0.15
289.132	0.07
289.346	0.21
289.559	0.06
289.773	0.08
289.986	0.11
290.2	0.12
290.413	0.2
290.626	0.06
290.84	0.1
291.053	0.1
291.267	0.17
291.48	0.09
291.693	0.11
291.906	0.08
292.12	0.06
292.333	0.03
292.546	0.04
292.76	0.16
292.973	0.11
293.186	0.13
293.399	0.1
293.612	0.16
293.826	0.12
294.039	0.1
294.252	0.06
294.465	0.16
294.678	0.15
294.891	0.14
295.104	0.04
295.317	0.07
295.53	0.17
295.743	0.07
295.956	0.07
296.169	0.18
296.382	0.17
296.595	0.11
296.808	0.06
297.021	0.14
297.234	0.18
297.447	0.1
297.66	0.09
297.873	0.13
298.086	0.15
298.299	0.11
298.511	0.05
298.724	0.11
298.937	0.1
299.15	0.09
299.363	0.1
299.575	0.18
299.788	0.12
300.001	0.07
300.213	0.12
300.426	0.1
300.639	0.06
300.852	0.08
301.064	0.12
301.277	0.17
301.489	0.13
301.702	0.13
301.915	0.08
302.127	0.11
302.34	0.14
302.552	0.14
302.765	0.1
302.977	0.13
303.19	0.1
303.402	0.07
303.615	0.11
303.827	0.08
304.04	0.06
304.252	0.17
304.464	0.07
304.677	0.22
304.889	0.16
305.102	0.07
305.314	0.09
305.526	0.2
305.739	0.13
305.951	0.06
306.163	0.06
306.375	0.17
306.588	0.06
306.8	0.08
307.012	0.05
307.224	0.07
307.436	0.17
307.649	0.05
307.861	0.11
308.073	0.15
308.285	0.04
308.497	0.06
308.709	0.08
308.921	0.13
309.133	0.18
309.346	0.12
309.558	0.08
309.77	0.16
309.982	0.14
310.194	0.13
310.406	0.06
310.617	0.21
310.829	0.11
311.041	0.16
311.253	0.07
311.465	0.14
311.677	0.1
311.889	0.14
312.101	0.09
312.313	0.14
312.524	0.18
312.736	0.07
312.948	0.1
313.16	0.18
313.372	0.15
313.583	0.12
313.795	0.1
314.007	0.08
314.218	0.08
314.43	0.11
314.642	0.13
314.853	0.05
315.065	0.13
315.277	0.11
315.488	0.11
315.7	0.16
315.912	0.14
316.123	0.12
316.335	0.09
316.546	0.23
316.758	0.09
316.969	0.11
317.181	0.1
317.392	0.12
317.604	0.18
317.815	0.04
318.026	0.12
318.238	0.1
318.449	0.14
318.661	0.05
318.872	-0
319.083	0.05
319.295	0.12
319.506	0.05
319.717	0.17
319.929	0.16
320.14	0.12
320.351	0.11
320.562	0.06
320.774	0.17
320.985	0.12
321.196	0.02
321.407	0.05
321.618	0.15
321.829	0.12
322.041	0.12
322.252	0.09
322.463	0.15
322.674	0.15
322.885	0.08
323.096	0.08
323.307	0.12
323.518	0.11
323.729	0.14
323.94	0.05
324.151	0.12
324.362	0.12
324.573	0.08
324.784	0.09
324.995	0.14
325.206	0.17
325.417	0.08
325.628	0.06
325.838	0.14
326.049	0.1
326.26	0.13
326.471	0.08
326.682	0.09
326.892	0.12
327.103	0.06
327.314	0.05
327.525	0.18
327.735	0.11
327.946	0.11
328.157	0.09
328.368	0.13
328.578	0.07
328.789	0.11
328.999	0.1
329.21	0.11
329.421	0.16
329.631	0.07
329.842	0.06
330.052	0.15
330.263	0.15
330.473	0.15
330.684	0.11
330.894	0.12
331.105	0.15
331.315	0.1
331.526	0.09
331.736	0.21
331.947	0.13
332.157	0.14
332.367	0.06
332.578	0.11
332.788	0.15
332.999	0.1
333.209	0.11
333.419	0.02
333.629	0.1
333.84	0.14
334.05	0.08
334.26	0.17
334.47	0.09
334.681	0.16
334.891	0.1
335.101	0.13
335.311	0.19
335.521	0.12
335.732	0.05
335.942	0.18
336.152	0.14
336.362	0.12
336.572	0.11
336.782	0.13
336.992	0.06
337.202	0.08
337.412	0.07
337.622	0.15
337.832	0.13
338.042	0.08
338.252	0.05
338.462	0.1
338.672	0.12
338.882	0.11
339.092	0.05
339.302	0.16
339.511	0.16
339.721	0.07
339.931	0.09
340.141	0.17
340.351	0.19
340.561	0.12
340.77	0.12
340.98	0.11
341.19	0.09
341.4	0.14
341.609	0.05
341.819	0.12
342.029	0.05
342.238	0.1
342.448	0.07
342.658	0.12
342.867	0.13
343.077	0.08
343.286	0.12
343.496	0.09
343.706	0.17
343.915	0.06
344.125	0.13
344.334	0.1
344.544	0.08
344.753	0.06
344.963	0.08
345.172	0.09
345.381	0.07
345.591	0.03
345.8	0.1
346.01	0.16
346.219	0.12
346.428	-0.04
346.638	0.11
346.847	0.1
347.056	0.13
347.266	0.07
347.475	0.07
347.684	0.13
347.893	0.07
348.103	0.12
348.312	0.08
348.521	0.11
348.73	0.08
348.94	0.1
349.149	0.07
349.358	0.1
349.567	0.07
349.776	0.02
349.985	0.09
350.194	0.15
350.403	0.14
350.612	0.05
350.821	0.09
351.03	0.11
351.239	0.02
351.448	0.09
351.657	0.06
351.866	0.17
352.075	0.17
352.284	0.14
352.493	0.07
352.702	0.14
352.911	0.13
353.12	0.12
353.329	0.09
353.538	0.14
353.746	0.12
353.955	0.08
354.164	0.11
354.373	0.09
354.582	0.14
354.79	0.1
354.999	0.13
355.208	0.11
355.416	0.14
355.625	0.03
355.834	0.07
356.042	0.1
356.251	0.07
356.46	0.07
356.668	0.11
356.877	0.21
357.085	0.14
357.294	0.02
357.503	0.16
357.711	0.08
357.92	0.21
358.128	0.13
358.337	0.11
358.545	0.11
358.754	0.11
358.962	0.12
359.17	0.1
359.379	0.14
359.587	0.15
359.796	0.12
360.004	0.17
360.212	0.13
360.421	0.14
360.629	0.05
360.837	0.08
361.046	0.15
361.254	0.19
361.462	0.08
361.67	0.1
361.879	0.11
362.087	0.17
362.295	0.12
362.503	0.1
362.711	0.05
362.92	0.08
363.128	0.07
363.336	0.06
363.544	0.02
363.752	0.06
363.96	0.08
364.168	0.05
364.376	0.14
364.584	0.13
364.792	0.14
365	0.12
365.208	0.09
365.416	0.13
365.624	0.13
365.832	0.07
366.04	0.17
366.248	0.12
366.456	0.08
366.664	0.1
366.872	0.09
367.079	0.08
367.287	0.11
367.495	0.09
367.703	0.13
367.911	0.09
368.118	0.07
368.326	0.1
368.534	0.04
368.742	0.15
368.949	0.05
369.157	0.06
369.365	0.11
369.572	0.09
369.78	0.06
369.988	0.14
370.195	0.11
370.403	0.15
370.61	0.07
370.818	0.11
371.026	0.16
371.233	0.05
371.441	0.09
371.648	0.08
371.856	0.1
372.063	0.11
372.271	0.09
372.478	0.11
372.685	0.07
372.893	0.17
373.1	0.09
373.308	0.06
373.515	0.23
373.722	0.13
373.93	0.05
374.137	0.12
374.344	0.15
374.552	0.18
374.759	0.15
374.966	0.13
375.173	0.1
375.381	0.14
375.588	0.09
375.795	-0
376.002	0.07
376.209	0.09
376.417	0.09
376.624	0.09
376.831	0.14
377.038	0.09
377.245	0.01
377.452	0.12
377.659	0.11
377.866	0.05
378.073	0.09
378.28	0.12
378.487	0.18
378.694	0.1
378.901	0.09
379.108	0.1
379.315	0.18
379.522	0.2
379.729	0.1
379.936	0.13
380.143	0.11
380.35	0.11
380.557	0.08
380.763	0.08
380.97	0.12
381.177	0.14
381.384	0.15
381.591	0.06
381.797	0.14
382.004	0.13
382.211	0.1
382.418	0.11
382.624	0.14
382.831	0.1
383.038	0.08
383.244	0.14
383.451	0.08
383.658	0.16
383.864	0.12
384.071	0.09
384.277	0.14
384.484	0.07
384.69	0.16
384.897	0.1
385.103	0.11
385.31	0.14
385.516	0.09
385.723	0.07
385.929	0.14
386.136	0.05
386.342	0.14
386.549	0.09
386.755	0.13
386.961	0.15
387.168	0.08
387.374	0.09
387.58	0.1
387.787	0.09
387.993	0.14
388.199	0.14
388.406	0.07
388.612	0.1
388.818	0.12
389.024	0.08
389.231	0.13
389.437	0.2
389.643	0.16
389.849	0.11
390.055	0.11
390.261	0.13
390.467	0.16
390.674	0.11
390.88	0.14
391.086	0.14
391.292	0.1
391.498	0.17
391.704	0.14
391.91	0.16
392.116	0.12
392.322	-0
392.528	0.13
392.734	0.11
392.94	0.06
393.146	0.09
393.352	0.14
393.557	0.13
393.763	0.13
393.969	0.14
394.175	0.14
394.381	0.12
394.587	0.11
394.792	0.1
394.998	0.2
395.204	0.19
395.41	0.12
395.615	0.16
395.821	0.13
396.027	0.17
396.233	0.07
396.438	0.11
396.644	0.14
396.85	0.19
397.055	0.13
397.261	0.14
397.466	0.16
397.672	0.17
397.878	0.17
398.083	0.19
398.289	0.06
398.494	0.11
398.7	0.14
398.905	0.08
399.111	0.21
399.316	0.15
399.522	0.1
399.727	0.11
399.932	0.12
400.138	0.1
400.343	0.2
400.549	0.13
400.754	0.11
400.959	0.11
401.165	0.14
401.37	0.15
401.575	0.22
401.78	0.16
401.986	0.11
402.191	0.12
402.396	0.17
402.601	0.17
402.807	0.24
403.012	0.14
403.217	0.2
403.422	0.2
403.627	0.12
403.832	0.15
404.037	0.22
404.243	0.19
404.448	0.16
404.653	0.17
404.858	0.17
405.063	0.18
405.268	0.17
405.473	0.1
405.678	0.18
405.883	0.36
406.088	0.25
406.293	0.11
406.498	0.17
406.703	0.22
406.907	0.15
407.112	0.15
407.317	0.21
407.522	0.24
407.727	0.09
407.932	0.23
408.136	0.28
408.341	0.25
408.546	0.26
408.751	0.24
408.956	0.2
409.16	0.3
409.365	0.26
409.57	0.24
409.774	0.25
409.979	0.3
410.184	0.29
410.388	0.25
410.593	0.27
410.798	0.25
411.002	0.24
411.207	0.35
411.411	0.29
411.616	0.23
411.82	0.31
412.025	0.35
412.229	0.3
412.434	0.37
412.638	0.38
412.843	0.33
413.047	0.33
413.252	0.36
413.456	0.39
413.66	0.42
413.865	0.37
414.069	0.4
414.273	0.36
414.478	0.36
414.682	0.44
414.886	0.45
415.091	0.42
415.295	0.42
415.499	0.52
415.703	0.5
415.908	0.59
416.112	0.47
416.316	0.59
416.52	0.59
416.724	0.56
416.929	0.59
417.133	0.79
417.337	0.59
417.541	0.64
417.745	0.71
417.949	0.77
418.153	0.77
418.357	0.73
418.561	0.93
418.765	0.8
418.969	0.94
419.173	0.96
419.377	0.88
419.581	1.1
419.785	0.95
419.989	1.03
420.193	1.05
420.397	1.13
420.601	1.24
420.804	1.27
421.008	1.1
421.212	1.34
421.416	1.29
421.62	1.28
421.823	1.34
422.027	1.44
422.231	1.34
422.435	1.35
422.638	1.37
422.842	1.43
423.046	1.48
423.249	1.59
423.453	1.6
423.657	1.6
423.86	1.71
424.064	1.66
424.268	1.8
424.471	1.76
424.675	1.94
424.878	1.92
425.082	1.91
425.285	2.03
425.489	1.96
425.692	2.06
425.896	2.04
426.099	2.15
426.303	2.17
426.506	2.25
426.71	2.33
426.913	2.5
427.116	2.58
427.32	2.5
427.523	2.49
427.726	2.71
427.93	2.63
428.133	2.78
428.336	2.86
428.54	2.91
428.743	2.97
428.946	3.13
429.149	3.09
429.353	3.16
429.556	3.16
429.759	3.15
429.962	3.26
430.165	3.25
430.368	3.13
430.571	3.12
430.775	3.2
430.978	3.11
431.181	3.22
431.384	3.26
431.587	3.24
431.79	3.5
431.993	3.32
432.196	3.51
432.399	3.67
432.602	3.68
432.805	3.76
433.008	3.97
433.211	3.85
433.414	4.07
433.616	4.13
433.819	4.08
434.022	4.08
434.225	4.24
434.428	4.23
434.631	4.51
434.833	4.29
435.036	4.46
435.239	4.49
435.442	4.53
435.645	4.44
435.847	4.69
436.05	4.68
436.253	4.82
436.455	4.75
436.658	4.8
436.861	4.99
437.063	5.07
437.266	5.07
437.468	5.16
437.671	5.32
437.874	5.33
438.076	5.14
438.279	5.44
438.481	5.43
438.684	5.81
438.886	5.67
439.089	5.81
439.291	5.92
439.494	6.07
439.696	5.98
439.899	6.24
440.101	6.49
440.303	6.5
440.506	6.96
440.708	6.87
440.91	6.91
441.113	7
441.315	7.12
441.517	7.04
441.72	7.41
441.922	7.13
442.124	7.08
442.326	7.47
442.529	7.49
442.731	7.38
442.933	7.75
443.135	7.62
443.337	7.57
443.539	7.85
443.742	7.79
443.944	8.04
444.146	7.88
444.348	7.92
444.55	7.85
444.752	8.09
444.954	7.98
445.156	8
445.358	8.23
445.56	8.33
445.762	8.36
445.964	8.49
446.166	8.38
446.368	8.51
446.57	8.45
446.772	8.22
446.974	8.16
447.175	8.45
447.377	8.24
447.579	8.36
447.781	8.33
447.983	8.19
448.184	7.95
448.386	8.21
448.588	7.93
448.79	7.9
448.991	8.03
449.193	8.14
449.395	7.91
449.597	7.74
449.798	7.68
450	7.49
450.202	7.42
450.403	7.43
450.605	7.32
450.806	7.14
451.008	7.04
451.21	7.07
451.411	6.84
451.613	6.49
451.814	6.61
452.016	6.52
452.217	6.21
452.419	6.28
452.62	6.1
452.821	5.85
453.023	5.94
453.224	5.73
453.426	5.48
453.627	5.1
453.828	5.21
454.03	5.23
454.231	5.22
454.432	5.08
454.634	5.05
454.835	4.84
455.036	4.76
455.238	4.59
455.439	4.51
455.64	4.31
455.841	4.22
456.042	4.44
456.244	4.22
456.445	3.93
456.646	3.85
456.847	3.81
457.048	3.86
457.249	3.84
457.45	3.84
457.651	3.43
457.852	3.38
458.054	3.21
458.255	3.15
458.456	3.31
458.657	3.13
458.858	2.97
459.058	2.95
459.259	2.99
459.46	2.82
459.661	2.83
459.862	2.95
460.063	2.79
460.264	2.83
460.465	2.58
460.666	2.75
460.866	2.53
461.067	2.45
461.268	2.45
461.469	2.43
461.67	2.4
461.87	2.3
462.071	2.27
462.272	2.24
462.473	2.22
462.673	2.36
462.874	2.28
463.075	2.27
463.275	2.15
463.476	2.28
463.676	2.24
463.877	2.15
464.078	2.18
464.278	2.22
464.479	2.13
464.679	2.06
464.88	2.1
465.08	2.14
465.281	1.98
465.481	1.92
465.682	1.79
465.882	1.82
466.083	1.81
466.283	1.79
466.483	1.69
466.684	1.61
466.884	1.55
467.085	1.59
467.285	1.65
467.485	1.6
467.686	1.51
467.886	1.5
468.086	1.49
468.286	1.44
468.487	1.51
468.687	1.38
468.887	1.41
469.087	1.45
469.287	1.41
469.488	1.3
469.688	1.39
469.888	1.38
470.088	1.42
470.288	1.37
470.488	1.34
470.688	1.2
470.888	1.23
471.088	1.14
471.288	1.2
471.488	1.21
471.688	1.19
471.888	1.09
472.088	1.2
472.288	1.16
472.488	1.06
472.688	1.07
472.888	1.1
473.088	1.09
473.288	1.07
473.488	1.06
473.688	1.16
473.887	1.04
474.087	0.99
474.287	1.03
474.487	1.03
474.687	1.02
474.886	0.97
475.086	0.96
475.286	1.04
475.486	0.95
475.685	0.95
475.885	0.94
476.085	1.03
476.284	0.95
476.484	0.98
476.684	0.95
476.883	1
477.083	0.94
477.282	0.88
477.482	0.92
477.681	0.95
477.881	0.9
478.08	0.87
478.28	0.83
478.479	0.91
478.679	0.92
478.878	0.84
479.078	0.85
479.277	0.88
479.477	0.87
479.676	0.83
479.875	0.88
480.075	0.8
480.274	0.86
480.473	0.91
480.673	0.86
480.872	0.9
481.071	0.89
481.271	0.87
481.47	0.82
481.669	0.85
481.868	0.8
482.067	0.84
482.267	0.76
482.466	0.84
482.665	0.8
482.864	0.83
483.063	0.8
483.262	0.85
483.461	0.88
483.661	0.93
483.86	0.85
484.059	0.87
484.258	0.85
484.457	0.85
484.656	0.85
484.855	0.91
485.054	0.81
485.253	0.84
485.452	0.82
485.651	0.87
485.849	0.83
486.048	0.86
486.247	0.88
486.446	0.92
486.645	0.86
486.844	0.86
487.043	0.85
487.241	0.88
487.44	0.88
487.639	0.93
487.838	0.9
488.037	0.9
488.235	0.99
488.434	0.9
488.633	0.85
488.831	0.96
489.03	0.97
489.229	0.94
489.427	0.95
489.626	1.01
489.825	1.02
490.023	1
490.222	0.97
490.42	1
490.619	1.04
490.817	1.01
491.016	0.99
491.214	1.07
491.413	1.04
491.611	1
491.81	1.01
492.008	1.06
492.207	1.12
492.405	1.08
492.604	1.06
492.802	1.12
493	1.14
493.199	1.14
493.397	1.16
493.595	1.16
493.794	1.13
493.992	1.24
494.19	1.2
494.388	1.25
494.587	1.16
494.785	1.22
494.983	1.18
495.181	1.26
495.379	1.29
495.578	1.31
495.776	1.32
495.974	1.29
496.172	1.28
496.37	1.36
496.568	1.35
496.766	1.32
496.964	1.4
497.162	1.39
497.36	1.41
497.558	1.45
497.756	1.45
497.954	1.45
498.152	1.48
498.35	1.55
498.548	1.47
498.746	1.5
498.944	1.51
499.142	1.53
499.34	1.55
499.538	1.63
499.736	1.58
499.933	1.66
500.131	1.62
500.329	1.66
500.527	1.68
500.725	1.72
500.922	1.74
501.12	1.73
501.318	1.77
501.516	1.75
501.713	1.82
501.911	1.79
502.109	1.78
502.306	1.82
502.504	1.75
502.701	1.81
502.899	1.86
503.097	1.97
503.294	1.9
503.492	1.93
503.689	1.96
503.887	1.97
504.084	2.02
504.282	2
504.479	1.93
