Data from Apollo_Calib_20240827__AbsoluteIrradiance__892__14-01-01-931.txt Node

Date: Wed Aug 28 14:01:01 BST 2024
User: biology
Spectrometer: FLMT08252
Trigger mode: 0
Integration Time (sec): 5.000000E-1
Scans to average: 5
Electric dark correction enabled: true
Nonlinearity correction enabled: false
Boxcar width: 0
XAxis mode: Wavelengths
Number of Pixels in Spectrum: 3648
>>>>>Begin Spectral Data<<<<<
179.588	-0
179.809	-0
180.03	-0
180.251	-0
180.473	-0
180.694	0
180.915	0
181.136	-0
181.357	0
181.578	-0
181.799	0
182.02	-0
182.241	-0
182.462	-0
182.683	0
182.904	-0
183.125	-0
183.346	0
183.567	0
183.788	0
184.009	0
184.23	0
184.451	0
184.672	0
184.892	0
185.113	0
185.334	0
185.555	0
185.776	0
185.996	0
186.217	0
186.438	0
186.659	0
186.879	0
187.1	0
187.321	0
187.541	0
187.762	0
187.983	0
188.203	0
188.424	0
188.644	0
188.865	0
189.086	0
189.306	0
189.527	0
189.747	0
189.968	0
190.188	0
190.409	0
190.629	0
190.849	0
191.07	0
191.29	0
191.511	0
191.731	0
191.951	0
192.172	0
192.392	0
192.612	0
192.833	0
193.053	0
193.273	0
193.493	0
193.714	0
193.934	0
194.154	0
194.374	0
194.594	0
194.815	0
195.035	0
195.255	0
195.475	0
195.695	0
195.915	0
196.135	0
196.355	0
196.575	0
196.795	0
197.015	0
197.235	0
197.455	0
197.675	0
197.895	0
198.115	0
198.335	0
198.555	0
198.775	0
198.995	0
199.214	0
199.434	0
199.654	0
199.874	0
200.094	3.79
200.313	2.4
200.533	2.15
200.753	1.21
200.973	3.16
201.192	3.33
201.412	1.52
201.632	1.82
201.851	3.65
202.071	1.18
202.291	1.74
202.51	1.17
202.73	2.55
202.95	1.86
203.169	0.79
203.389	1.63
203.608	1.92
203.828	1.33
204.047	1.11
204.267	2.18
204.486	2.1
204.706	2.7
204.925	1.49
205.145	2.23
205.364	2.34
205.583	2.39
205.803	1.29
206.022	1.18
206.242	1.76
206.461	1.6
206.68	1.23
206.9	1.49
207.119	2.34
207.338	1.98
207.557	1.01
207.777	0.96
207.996	1.56
208.215	2.36
208.434	0.95
208.654	0.94
208.873	1.18
209.092	2.41
209.311	0.72
209.53	0.9
209.749	1.26
209.968	1.19
210.187	0.98
210.407	0.74
210.626	1.11
210.845	1.57
211.064	0.91
211.283	0.95
211.502	1.47
211.721	1.01
211.94	0.85
212.159	1.61
212.377	1.35
212.596	1.65
212.815	1.1
213.034	1.19
213.253	1.14
213.472	1.56
213.691	1
213.91	0.64
214.128	0.64
214.347	1.61
214.566	0.46
214.785	0.52
215.003	1.2
215.222	1.08
215.441	0.82
215.66	0.38
215.878	0.97
216.097	1.07
216.316	0.79
216.534	0.62
216.753	1.1
216.972	0.62
217.19	0.74
217.409	0.71
217.627	0.68
217.846	0.54
218.064	0.86
218.283	0.44
218.501	1.44
218.72	1.02
218.938	0.51
219.157	0.67
219.375	0.99
219.594	1.21
219.812	0.35
220.031	0.41
220.249	1.35
220.467	1.41
220.686	0.66
220.904	0.62
221.122	0.71
221.341	1.18
221.559	0.84
221.777	0.44
221.995	0.81
222.214	0.94
222.432	0.61
222.65	0.83
222.868	0.75
223.086	0.89
223.305	0.86
223.523	0.66
223.741	1.07
223.959	0.66
224.177	0.29
224.395	0.49
224.613	0.88
224.831	1.03
225.049	0.49
225.267	0.55
225.485	0.72
225.703	0.75
225.921	0.57
226.139	0.56
226.357	0.81
226.575	0.71
226.793	0.59
227.011	1.63
227.229	0.85
227.447	0.87
227.665	0.56
227.883	0.25
228.1	0.58
228.318	0.88
228.536	0.36
228.754	0.5
228.972	0.67
229.189	0.92
229.407	0.58
229.625	0.63
229.843	0.85
230.06	0.81
230.278	0.43
230.496	0.49
230.713	0.68
230.931	0.91
231.149	0.43
231.366	0.28
231.584	0.53
231.801	1.06
232.019	0.37
232.236	0.36
232.454	0.44
232.671	0.71
232.889	0.45
233.106	0.4
233.324	0.65
233.541	0.56
233.759	0.53
233.976	0.36
234.194	0.53
234.411	0.55
234.628	0.3
234.846	0.45
235.063	0.59
235.28	0.5
235.498	0.46
235.715	0.27
235.932	0.79
236.149	0.55
236.367	0.32
236.584	0.46
236.801	0.49
237.018	0.7
237.236	0.43
237.453	0.21
237.67	0.69
237.887	0.48
238.104	0.41
238.321	0.36
238.538	0.36
238.755	0.74
238.973	0.3
239.19	0.49
239.407	0.62
239.624	0.51
239.841	0.36
240.058	0.35
240.275	0.49
240.492	0.44
240.709	0.37
240.925	0.3
241.142	0.42
241.359	0.27
241.576	0.38
241.793	0.31
242.01	0.53
242.227	0.71
242.444	0.54
242.66	0.59
242.877	0.49
243.094	0.37
243.311	0.44
243.527	0.38
243.744	0.48
243.961	0.56
244.178	0.34
244.394	0.37
244.611	0.51
244.828	0.67
245.044	0.25
245.261	0.4
245.477	0.49
245.694	0.6
245.911	0.27
246.127	0.5
246.344	0.67
246.56	0.52
246.777	0.42
246.993	0.38
247.21	0.44
247.426	0.62
247.643	0.29
247.859	0.29
248.076	0.3
248.292	0.74
248.508	0.27
248.725	0.44
248.941	0.52
249.157	0.58
249.374	0.33
249.59	0.39
249.806	0.43
250.023	0.48
250.239	0.35
250.455	0.24
250.671	0.43
250.888	0.43
251.104	0.52
251.32	0.34
251.536	0.38
251.752	0.43
251.969	0.32
252.185	0.37
252.401	0.63
252.617	0.45
252.833	0.28
253.049	0.46
253.265	0.42
253.481	0.43
253.697	0.34
253.913	0.3
254.129	0.53
254.345	0.42
254.561	0.32
254.777	0.29
254.993	0.49
255.209	0.45
255.425	0.34
255.641	0.34
255.857	0.57
256.073	0.4
256.288	0.21
256.504	0.25
256.72	0.43
256.936	0.56
257.152	0.31
257.367	0.25
257.583	0.39
257.799	0.45
258.015	0.27
258.23	0.3
258.446	0.65
258.662	0.3
258.877	0.29
259.093	0.31
259.309	0.39
259.524	0.41
259.74	0.28
259.955	0.2
260.171	0.38
260.387	0.39
260.602	0.38
260.818	0.4
261.033	0.28
261.249	0.42
261.464	0.28
261.68	0.27
261.895	0.39
262.11	0.5
262.326	0.31
262.541	0.2
262.757	0.52
262.972	0.49
263.187	0.4
263.403	0.36
263.618	0.49
263.833	0.4
264.049	0.31
264.264	0.33
264.479	0.33
264.694	0.52
264.91	0.17
265.125	0.3
265.34	0.42
265.555	0.57
265.77	0.31
265.986	0.28
266.201	0.4
266.416	0.42
266.631	0.25
266.846	0.33
267.061	0.44
267.276	0.41
267.491	0.16
267.706	0.42
267.921	0.42
268.136	0.43
268.351	0.31
268.566	0.28
268.781	0.37
268.996	0.44
269.211	0.36
269.426	0.19
269.641	0.31
269.856	0.49
270.071	0.27
270.285	0.19
270.5	0.48
270.715	0.42
270.93	0.32
271.145	0.36
271.359	0.44
271.574	0.32
271.789	0.3
272.004	0.26
272.218	0.31
272.433	0.35
272.648	0.23
272.862	0.34
273.077	0.32
273.292	0.27
273.506	0.27
273.721	0.31
273.936	0.38
274.15	0.41
274.365	0.24
274.579	0.4
274.794	0.37
275.008	0.42
275.223	0.13
275.437	0.27
275.652	0.44
275.866	0.39
276.081	0.22
276.295	0.41
276.509	0.3
276.724	0.3
276.938	0.3
277.153	0.33
277.367	0.39
277.581	0.26
277.796	0.21
278.01	0.24
278.224	0.33
278.438	0.5
278.653	0.23
278.867	0.24
279.081	0.19
279.295	0.36
279.51	0.3
279.724	0.15
279.938	0.35
280.152	0.34
280.366	0.27
280.58	0.32
280.794	0.41
281.008	0.3
281.222	0.36
281.437	0.5
281.651	0.27
281.865	0.39
282.079	0.31
282.293	0.22
282.507	0.25
282.721	0.29
282.935	0.29
283.148	0.18
283.362	0.2
283.576	0.23
283.79	0.26
284.004	0.27
284.218	0.4
284.432	0.28
284.646	0.27
284.859	0.23
285.073	0.29
285.287	0.33
285.501	0.35
285.714	0.26
285.928	0.35
286.142	0.35
286.356	0.2
286.569	0.25
286.783	0.46
286.997	0.39
287.21	0.3
287.424	0.3
287.637	0.28
287.851	0.27
288.065	0.33
288.278	0.23
288.492	0.29
288.705	0.28
288.919	0.34
289.132	0.21
289.346	0.33
289.559	0.18
289.773	0.23
289.986	0.27
290.2	0.27
290.413	0.38
290.626	0.23
290.84	0.23
291.053	0.22
291.267	0.39
291.48	0.25
291.693	0.29
291.906	0.22
292.12	0.3
292.333	0.21
292.546	0.24
292.76	0.4
292.973	0.32
293.186	0.31
293.399	0.24
293.612	0.33
293.826	0.25
294.039	0.25
294.252	0.23
294.465	0.3
294.678	0.27
294.891	0.27
295.104	0.22
295.317	0.28
295.53	0.28
295.743	0.26
295.956	0.2
296.169	0.37
296.382	0.32
296.595	0.22
296.808	0.2
297.021	0.36
297.234	0.36
297.447	0.25
297.66	0.27
297.873	0.35
298.086	0.37
298.299	0.16
298.511	0.19
298.724	0.22
298.937	0.19
299.15	0.19
299.363	0.24
299.575	0.33
299.788	0.26
300.001	0.22
300.213	0.24
300.426	0.23
300.639	0.22
300.852	0.21
301.064	0.28
301.277	0.35
301.489	0.33
301.702	0.29
301.915	0.23
302.127	0.23
302.34	0.26
302.552	0.27
302.765	0.2
302.977	0.34
303.19	0.22
303.402	0.23
303.615	0.24
303.827	0.24
304.04	0.24
304.252	0.29
304.464	0.28
304.677	0.41
304.889	0.31
305.102	0.22
305.314	0.19
305.526	0.29
305.739	0.31
305.951	0.15
306.163	0.22
306.375	0.34
306.588	0.2
306.8	0.22
307.012	0.22
307.224	0.24
307.436	0.39
307.649	0.12
307.861	0.24
308.073	0.31
308.285	0.21
308.497	0.15
308.709	0.18
308.921	0.28
309.133	0.32
309.346	0.22
309.558	0.26
309.77	0.26
309.982	0.36
310.194	0.27
310.406	0.17
310.617	0.39
310.829	0.29
311.041	0.32
311.253	0.22
311.465	0.22
311.677	0.26
311.889	0.23
312.101	0.2
312.313	0.32
312.524	0.37
312.736	0.22
312.948	0.21
313.16	0.4
313.372	0.31
313.583	0.26
313.795	0.23
314.007	0.24
314.218	0.3
314.43	0.23
314.642	0.22
314.853	0.19
315.065	0.26
315.277	0.25
315.488	0.23
315.7	0.28
315.912	0.28
316.123	0.24
316.335	0.22
316.546	0.36
316.758	0.24
316.969	0.24
317.181	0.23
317.392	0.26
317.604	0.3
317.815	0.21
318.026	0.21
318.238	0.22
318.449	0.33
318.661	0.16
318.872	0.2
319.083	0.21
319.295	0.33
319.506	0.23
319.717	0.24
319.929	0.3
320.14	0.25
320.351	0.25
320.562	0.21
320.774	0.29
320.985	0.28
321.196	0.25
321.407	0.12
321.618	0.32
321.829	0.3
322.041	0.25
322.252	0.22
322.463	0.31
322.674	0.3
322.885	0.18
323.096	0.24
323.307	0.25
323.518	0.29
323.729	0.21
323.94	0.24
324.151	0.24
324.362	0.27
324.573	0.24
324.784	0.23
324.995	0.34
325.206	0.29
325.417	0.23
325.628	0.16
325.838	0.24
326.049	0.3
326.26	0.33
326.471	0.22
326.682	0.27
326.892	0.26
327.103	0.19
327.314	0.19
327.525	0.34
327.735	0.25
327.946	0.23
328.157	0.19
328.368	0.3
328.578	0.21
328.789	0.3
328.999	0.24
329.21	0.23
329.421	0.33
329.631	0.18
329.842	0.2
330.052	0.27
330.263	0.32
330.473	0.29
330.684	0.17
330.894	0.25
331.105	0.26
331.315	0.22
331.526	0.15
331.736	0.38
331.947	0.27
332.157	0.3
332.367	0.15
332.578	0.3
332.788	0.35
332.999	0.32
333.209	0.23
333.419	0.19
333.629	0.3
333.84	0.24
334.05	0.24
334.26	0.36
334.47	0.3
334.681	0.3
334.891	0.22
335.101	0.3
335.311	0.37
335.521	0.27
335.732	0.17
335.942	0.38
336.152	0.28
336.362	0.23
336.572	0.29
336.782	0.3
336.992	0.23
337.202	0.24
337.412	0.21
337.622	0.26
337.832	0.24
338.042	0.22
338.252	0.24
338.462	0.23
338.672	0.32
338.882	0.24
339.092	0.29
339.302	0.29
339.511	0.29
339.721	0.18
339.931	0.19
340.141	0.32
340.351	0.32
340.561	0.25
340.77	0.27
340.98	0.28
341.19	0.27
341.4	0.16
341.609	0.18
341.819	0.22
342.029	0.21
342.238	0.25
342.448	0.23
342.658	0.3
342.867	0.22
343.077	0.22
343.286	0.26
343.496	0.33
343.706	0.32
343.915	0.16
344.125	0.24
344.334	0.24
344.544	0.2
344.753	0.18
344.963	0.2
345.172	0.23
345.381	0.23
345.591	0.2
345.8	0.26
346.01	0.32
346.219	0.32
346.428	0.09
346.638	0.23
346.847	0.24
347.056	0.36
347.266	0.19
347.475	0.25
347.684	0.31
347.893	0.31
348.103	0.32
348.312	0.18
348.521	0.28
348.73	0.28
348.94	0.25
349.149	0.24
349.358	0.31
349.567	0.24
349.776	0.2
349.985	0.21
350.194	0.32
350.403	0.33
350.612	0.17
350.821	0.19
351.03	0.24
351.239	0.22
351.448	0.25
351.657	0.21
351.866	0.33
352.075	0.25
352.284	0.33
352.493	0.18
352.702	0.31
352.911	0.26
353.12	0.24
353.329	0.21
353.538	0.25
353.746	0.25
353.955	0.16
354.164	0.22
354.373	0.24
354.582	0.3
354.79	0.22
354.999	0.29
355.208	0.23
355.416	0.34
355.625	0.18
355.834	0.23
356.042	0.29
356.251	0.23
356.46	0.17
356.668	0.25
356.877	0.36
357.085	0.34
357.294	0.16
357.503	0.24
357.711	0.28
357.92	0.41
358.128	0.26
358.337	0.22
358.545	0.27
358.754	0.22
358.962	0.27
359.17	0.22
359.379	0.26
359.587	0.22
359.796	0.22
360.004	0.29
360.212	0.3
360.421	0.36
360.629	0.21
360.837	0.23
361.046	0.33
361.254	0.41
361.462	0.23
361.67	0.21
361.879	0.25
362.087	0.36
362.295	0.27
362.503	0.2
362.711	0.19
362.92	0.2
363.128	0.22
363.336	0.18
363.544	0.2
363.752	0.21
363.96	0.2
364.168	0.22
364.376	0.25
364.584	0.28
364.792	0.31
365	0.25
365.208	0.24
365.416	0.31
365.624	0.32
365.832	0.23
366.04	0.3
366.248	0.24
366.456	0.27
366.664	0.26
366.872	0.27
367.079	0.24
367.287	0.23
367.495	0.3
367.703	0.25
367.911	0.21
368.118	0.25
368.326	0.23
368.534	0.18
368.742	0.31
368.949	0.15
369.157	0.21
369.365	0.25
369.572	0.22
369.78	0.22
369.988	0.29
370.195	0.26
370.403	0.31
370.61	0.19
370.818	0.26
371.026	0.33
371.233	0.2
371.441	0.24
371.648	0.2
371.856	0.29
372.063	0.29
372.271	0.22
372.478	0.22
372.685	0.2
372.893	0.3
373.1	0.2
373.308	0.24
373.515	0.33
373.722	0.36
373.93	0.24
374.137	0.3
374.344	0.3
374.552	0.3
374.759	0.25
374.966	0.26
375.173	0.28
375.381	0.36
375.588	0.23
375.795	0.16
376.002	0.26
376.209	0.21
376.417	0.25
376.624	0.27
376.831	0.26
377.038	0.23
377.245	0.16
377.452	0.2
377.659	0.28
377.866	0.21
378.073	0.21
378.28	0.24
378.487	0.32
378.694	0.31
378.901	0.26
379.108	0.26
379.315	0.31
379.522	0.41
379.729	0.25
379.936	0.26
380.143	0.28
380.35	0.31
380.557	0.22
380.763	0.27
380.97	0.28
381.177	0.3
381.384	0.29
381.591	0.28
381.797	0.28
382.004	0.34
382.211	0.32
382.418	0.24
382.624	0.31
382.831	0.32
383.038	0.26
383.244	0.29
383.451	0.29
383.658	0.3
383.864	0.21
384.071	0.24
384.277	0.38
384.484	0.25
384.69	0.33
384.897	0.25
385.103	0.25
385.31	0.28
385.516	0.25
385.723	0.2
385.929	0.3
386.136	0.22
386.342	0.31
386.549	0.22
386.755	0.31
386.961	0.29
387.168	0.28
387.374	0.28
387.58	0.33
387.787	0.32
387.993	0.3
388.199	0.24
388.406	0.26
388.612	0.24
388.818	0.19
389.024	0.22
389.231	0.28
389.437	0.36
389.643	0.31
389.849	0.3
390.055	0.28
390.261	0.26
390.467	0.33
390.674	0.21
390.88	0.24
391.086	0.3
391.292	0.21
391.498	0.29
391.704	0.32
391.91	0.28
392.116	0.29
392.322	0.17
392.528	0.34
392.734	0.3
392.94	0.36
393.146	0.31
393.352	0.32
393.557	0.24
393.763	0.28
393.969	0.34
394.175	0.3
394.381	0.34
394.587	0.25
394.792	0.27
394.998	0.36
395.204	0.39
395.41	0.25
395.615	0.31
395.821	0.33
396.027	0.34
396.233	0.31
396.438	0.35
396.644	0.37
396.85	0.36
397.055	0.31
397.261	0.32
397.466	0.29
397.672	0.36
397.878	0.43
398.083	0.36
398.289	0.3
398.494	0.43
398.7	0.36
398.905	0.22
399.111	0.45
399.316	0.28
399.522	0.29
399.727	0.29
399.932	0.35
400.138	0.28
400.343	0.38
400.549	0.34
400.754	0.35
400.959	0.33
401.165	0.36
401.37	0.36
401.575	0.54
401.78	0.39
401.986	0.35
402.191	0.35
402.396	0.36
402.601	0.39
402.807	0.43
403.012	0.39
403.217	0.42
403.422	0.43
403.627	0.41
403.832	0.4
404.037	0.47
404.243	0.43
404.448	0.5
404.653	0.45
404.858	0.47
405.063	0.47
405.268	0.42
405.473	0.38
405.678	0.39
405.883	0.66
406.088	0.52
406.293	0.42
406.498	0.41
406.703	0.52
406.907	0.47
407.112	0.42
407.317	0.49
407.522	0.55
407.727	0.44
407.932	0.51
408.136	0.67
408.341	0.52
408.546	0.59
408.751	0.57
408.956	0.61
409.16	0.62
409.365	0.62
409.57	0.59
409.774	0.63
409.979	0.68
410.184	0.68
410.388	0.6
410.593	0.79
410.798	0.75
411.002	0.78
411.207	0.81
411.411	0.79
411.616	0.75
411.82	0.83
412.025	0.85
412.229	0.83
412.434	0.99
412.638	0.94
412.843	0.96
413.047	1.01
413.252	0.95
413.456	1.05
413.66	1.04
413.865	1.04
414.069	1.14
414.273	1.08
414.478	1.09
414.682	1.22
414.886	1.25
415.091	1.18
415.295	1.22
415.499	1.45
415.703	1.35
415.908	1.47
416.112	1.35
416.316	1.56
416.52	1.6
416.724	1.57
416.929	1.56
417.133	1.89
417.337	1.76
417.541	1.77
417.745	1.84
417.949	1.96
418.153	2.05
418.357	2
418.561	2.23
418.765	2.19
418.969	2.34
419.173	2.39
419.377	2.31
419.581	2.64
419.785	2.65
419.989	2.59
420.193	2.78
420.397	2.88
420.601	3.03
420.804	3.12
421.008	3.07
421.212	3.29
421.416	3.28
421.62	3.25
421.823	3.35
422.027	3.48
422.231	3.54
422.435	3.47
422.638	3.6
422.842	3.67
423.046	3.76
423.249	3.96
423.453	3.91
423.657	4.12
423.86	4.07
424.064	4.29
424.268	4.55
424.471	4.4
424.675	4.68
424.878	4.74
425.082	4.86
425.285	5.23
425.489	5.07
425.692	5.19
425.896	5.26
426.099	5.49
426.303	5.57
426.506	5.64
426.71	5.95
426.913	6.13
427.116	6.37
427.32	6.31
427.523	6.39
427.726	6.7
427.93	6.79
428.133	7.17
428.336	7.28
428.54	7.37
428.743	7.67
428.946	7.84
429.149	7.84
429.353	7.89
429.556	8.01
429.759	8.05
429.962	8.15
430.165	8.35
430.368	8.05
430.571	8.05
430.775	8.11
430.978	8.07
431.181	8.17
431.384	8.28
431.587	8.36
431.79	8.63
431.993	8.65
432.196	8.91
432.399	9.29
432.602	9.51
432.805	9.48
433.008	10
433.211	9.91
433.414	10.29
433.616	10.28
433.819	10.2
434.022	10.31
434.225	10.64
434.428	10.72
434.631	11.03
434.833	10.8
435.036	11.11
435.239	11.24
435.442	11.48
435.645	11.54
435.847	11.63
436.05	11.93
436.253	12.2
436.455	12.14
436.658	12.12
436.861	12.33
437.063	12.38
437.266	12.38
437.468	12.78
437.671	13.12
437.874	13.2
438.076	12.94
438.279	13.4
438.481	13.48
438.684	14.16
438.886	13.87
439.089	14.09
439.291	14.16
439.494	14.59
439.696	14.77
439.899	15.06
440.101	15.57
440.303	15.78
440.506	16.61
440.708	16.21
440.91	16.49
441.113	16.68
441.315	16.93
441.517	16.72
441.72	17.19
441.922	16.82
442.124	16.75
442.326	17.12
442.529	17.35
442.731	17.38
442.933	17.69
443.135	17.36
443.337	17.48
443.539	18.07
443.742	17.58
443.944	18.3
444.146	17.96
444.348	17.98
444.55	18.09
444.752	18.19
444.954	18.12
445.156	18.04
445.358	18.35
445.56	18.66
445.762	18.61
445.964	18.96
446.166	18.51
446.368	18.52
446.57	18.66
446.772	18.18
446.974	17.86
447.175	18.28
447.377	17.98
447.579	18.37
447.781	18.08
447.983	17.92
448.184	17.33
448.386	17.8
448.588	17.13
448.79	17.08
448.991	17.33
449.193	17.41
449.395	16.74
449.597	16.49
449.798	16.3
450	15.96
450.202	15.9
450.403	15.76
450.605	15.72
450.806	15.38
451.008	15.15
451.21	15.12
451.411	14.55
451.613	13.75
451.814	13.96
452.016	14.05
452.217	13.26
452.419	13.44
452.62	12.98
452.821	12.53
453.023	12.67
453.224	12.21
453.426	11.78
453.627	11.18
453.828	11.31
454.03	11.25
454.231	11.25
454.432	11.09
454.634	10.81
454.835	10.54
455.036	10.31
455.238	10.08
455.439	9.83
455.64	9.53
455.841	9.51
456.042	9.56
456.244	9.18
456.445	8.96
456.646	8.66
456.847	8.55
457.048	8.5
457.249	8.56
457.45	8.27
457.651	7.74
457.852	7.6
458.054	7.29
458.255	7.18
458.456	7.33
458.657	7.09
458.858	6.71
459.058	6.72
459.259	6.65
459.46	6.43
459.661	6.46
459.862	6.49
460.063	6.33
460.264	6.31
460.465	6.01
460.666	6.04
460.866	5.75
461.067	5.56
461.268	5.53
461.469	5.47
461.67	5.37
461.87	5.19
462.071	5.29
462.272	5.07
462.473	5.06
462.673	5.34
462.874	5.15
463.075	5.12
463.275	5.12
463.476	5.16
463.676	5.09
463.877	4.9
464.078	4.94
464.278	5.08
464.479	4.86
464.679	4.76
464.88	4.7
465.08	4.66
465.281	4.6
465.481	4.29
465.682	4.15
465.882	4.16
466.083	4.08
466.283	4.1
466.483	3.96
466.684	3.76
466.884	3.67
467.085	3.65
467.285	3.76
467.485	3.58
467.686	3.54
467.886	3.48
468.086	3.31
468.286	3.38
468.487	3.39
468.687	3.23
468.887	3.22
469.087	3.31
469.287	3.25
469.488	3.06
469.688	3.18
469.888	3.21
470.088	3.11
470.288	3.03
470.488	3.11
470.688	2.85
470.888	2.86
471.088	2.75
471.288	2.82
471.488	2.81
471.688	2.69
471.888	2.65
472.088	2.86
472.288	2.75
472.488	2.63
472.688	2.55
472.888	2.58
473.088	2.59
473.288	2.5
473.488	2.45
473.688	2.68
473.887	2.52
474.087	2.39
474.287	2.46
474.487	2.38
474.687	2.43
474.886	2.32
475.086	2.31
475.286	2.33
475.486	2.33
475.685	2.22
475.885	2.21
476.085	2.29
476.284	2.28
476.484	2.21
476.684	2.24
476.883	2.29
477.083	2.19
477.282	2.12
477.482	2.19
477.681	2.14
477.881	2.1
478.08	2.06
478.28	2.01
478.479	2.08
478.679	2.18
478.878	2
479.078	2
479.277	2.11
479.477	2.1
479.676	1.99
479.875	1.99
480.075	1.95
480.274	2.06
480.473	2.06
480.673	2.05
480.872	2.09
481.071	2.05
481.271	2.08
481.47	1.99
481.669	1.99
481.868	1.93
482.067	1.98
482.267	1.91
482.466	1.91
482.665	1.99
482.864	1.96
483.063	1.94
483.262	2.03
483.461	2.06
483.661	2.09
483.86	2
484.059	2.06
484.258	2.02
484.457	2
484.656	2.02
484.855	2.11
485.054	1.91
485.253	1.97
485.452	1.97
485.651	2.08
485.849	2.05
486.048	1.98
486.247	2.03
486.446	2.1
486.645	1.99
486.844	2.08
487.043	2.04
487.241	2.11
487.44	2.08
487.639	2.12
487.838	2.13
488.037	2.13
488.235	2.24
488.434	2.15
488.633	2.04
488.831	2.24
489.03	2.23
489.229	2.23
489.427	2.22
489.626	2.27
489.825	2.27
490.023	2.26
490.222	2.28
490.42	2.31
490.619	2.38
490.817	2.33
491.016	2.37
491.214	2.41
491.413	2.43
491.611	2.36
491.81	2.39
492.008	2.46
492.207	2.57
492.405	2.55
492.604	2.48
492.802	2.58
493	2.63
493.199	2.6
493.397	2.62
493.595	2.7
493.794	2.67
493.992	2.77
494.19	2.72
494.388	2.79
494.587	2.77
494.785	2.8
494.983	2.7
495.181	2.87
495.379	2.88
495.578	2.96
495.776	2.96
495.974	2.94
496.172	2.96
496.37	3.08
496.568	3.11
496.766	3.05
496.964	3.17
497.162	3.19
497.36	3.25
497.558	3.27
497.756	3.29
497.954	3.26
498.152	3.35
498.35	3.43
498.548	3.38
498.746	3.37
498.944	3.41
499.142	3.42
499.34	3.55
499.538	3.61
499.736	3.51
499.933	3.63
500.131	3.69
500.329	3.82
500.527	3.74
500.725	3.84
500.922	3.87
501.12	3.94
501.318	3.97
501.516	3.9
501.713	3.98
501.911	4.02
502.109	3.95
502.306	4.11
502.504	4.05
502.701	4.11
