Data from Apollo_Calib_20240827__AbsoluteIrradiance__899__14-08-01-115.txt Node

Date: Wed Aug 28 14:08:01 BST 2024
User: biology
Spectrometer: FLMT08252
Trigger mode: 0
Integration Time (sec): 5.000000E-1
Scans to average: 5
Electric dark correction enabled: true
Nonlinearity correction enabled: false
Boxcar width: 0
XAxis mode: Wavelengths
Number of Pixels in Spectrum: 3648
>>>>>Begin Spectral Data<<<<<
179.588	-0
179.809	-0
180.03	-0
180.251	-0
180.473	-0
180.694	0
180.915	0
181.136	-0
181.357	0
181.578	-0
181.799	0
182.02	-0
182.241	-0
182.462	-0
182.683	0
182.904	-0
183.125	-0
183.346	0
183.567	0
183.788	0
184.009	0
184.23	0
184.451	0
184.672	0
184.892	0
185.113	0
185.334	0
185.555	0
185.776	0
185.996	0
186.217	0
186.438	0
186.659	0
186.879	0
187.1	0
187.321	0
187.541	0
187.762	0
187.983	0
188.203	0
188.424	0
188.644	0
188.865	0
189.086	0
189.306	0
189.527	0
189.747	0
189.968	0
190.188	0
190.409	0
190.629	0
190.849	0
191.07	0
191.29	0
191.511	0
191.731	0
191.951	0
192.172	0
192.392	0
192.612	0
192.833	0
193.053	0
193.273	0
193.493	0
193.714	0
193.934	0
194.154	0
194.374	0
194.594	0
194.815	0
195.035	0
195.255	0
195.475	0
195.695	0
195.915	0
196.135	0
196.355	0
196.575	0
196.795	0
197.015	0
197.235	0
197.455	0
197.675	0
197.895	0
198.115	0
198.335	0
198.555	0
198.775	0
198.995	0
199.214	0
199.434	0
199.654	0
199.874	0
200.094	3.81
200.313	1.96
200.533	2.17
200.753	1.35
200.973	4.37
201.192	3.55
201.412	1.11
201.632	1.78
201.851	3.24
202.071	1.94
202.291	1.32
202.51	1.57
202.73	2.39
202.95	1.67
203.169	1.02
203.389	1.74
203.608	1.95
203.828	1.65
204.047	1.37
204.267	2.41
204.486	2.19
204.706	2.38
204.925	1.74
205.145	1.41
205.364	1.96
205.583	2.59
205.803	1.49
206.022	1.21
206.242	1.79
206.461	1.8
206.68	1.18
206.9	1.36
207.119	2.55
207.338	2.11
207.557	1.34
207.777	1.07
207.996	1.38
208.215	2.09
208.434	0.59
208.654	0.89
208.873	1.46
209.092	2.02
209.311	1.09
209.53	0.97
209.749	1.5
209.968	1.12
210.187	1.03
210.407	0.63
210.626	1.06
210.845	1.42
211.064	1.1
211.283	0.88
211.502	1.66
211.721	1.06
211.94	1.05
212.159	1.37
212.377	1.27
212.596	1.61
212.815	1.21
213.034	1.13
213.253	1.37
213.472	1.27
213.691	1.19
213.91	0.59
214.128	0.67
214.347	1.42
214.566	0.25
214.785	0.49
215.003	1.34
215.222	1.24
215.441	0.91
215.66	0.61
215.878	1.08
216.097	1.28
216.316	0.73
216.534	0.76
216.753	1.17
216.972	0.75
217.19	0.83
217.409	0.48
217.627	0.92
217.846	0.75
218.064	0.87
218.283	0.44
218.501	1.45
218.72	1.13
218.938	0.61
219.157	0.48
219.375	1.12
219.594	1.01
219.812	0.56
220.031	0.55
220.249	1.34
220.467	1.05
220.686	0.62
220.904	0.5
221.122	0.78
221.341	0.97
221.559	0.77
221.777	0.58
221.995	0.76
222.214	0.94
222.432	0.57
222.65	0.79
222.868	0.69
223.086	0.87
223.305	0.84
223.523	0.69
223.741	1.35
223.959	0.86
224.177	0.4
224.395	0.6
224.613	0.71
224.831	0.99
225.049	0.27
225.267	0.57
225.485	0.83
225.703	0.51
225.921	0.61
226.139	0.5
226.357	0.85
226.575	0.82
226.793	0.52
227.011	1.65
227.229	0.8
227.447	0.9
227.665	0.5
227.883	0.42
228.1	0.59
228.318	0.73
228.536	0.23
228.754	0.42
228.972	0.79
229.189	0.82
229.407	0.55
229.625	0.54
229.843	0.91
230.06	0.73
230.278	0.49
230.496	0.68
230.713	0.66
230.931	0.82
231.149	0.54
231.366	0.45
231.584	0.65
231.801	1.1
232.019	0.69
232.236	0.31
232.454	0.51
232.671	0.61
232.889	0.49
233.106	0.46
233.324	0.67
233.541	0.51
233.759	0.51
233.976	0.37
234.194	0.48
234.411	0.59
234.628	0.46
234.846	0.47
235.063	0.44
235.28	0.54
235.498	0.49
235.715	0.32
235.932	0.83
236.149	0.54
236.367	0.36
236.584	0.57
236.801	0.49
237.018	0.63
237.236	0.43
237.453	0.24
237.67	0.69
237.887	0.46
238.104	0.45
238.321	0.37
238.538	0.4
238.755	0.7
238.973	0.29
239.19	0.46
239.407	0.55
239.624	0.58
239.841	0.28
240.058	0.23
240.275	0.57
240.492	0.44
240.709	0.42
240.925	0.45
241.142	0.52
241.359	0.37
241.576	0.33
241.793	0.4
242.01	0.44
242.227	0.62
242.444	0.56
242.66	0.57
242.877	0.5
243.094	0.42
243.311	0.29
243.527	0.38
243.744	0.52
243.961	0.56
244.178	0.33
244.394	0.44
244.611	0.79
244.828	0.74
245.044	0.37
245.261	0.31
245.477	0.48
245.694	0.62
245.911	0.32
246.127	0.5
246.344	0.68
246.56	0.53
246.777	0.37
246.993	0.44
247.21	0.52
247.426	0.56
247.643	0.34
247.859	0.32
248.076	0.35
248.292	0.67
248.508	0.38
248.725	0.41
248.941	0.52
249.157	0.65
249.374	0.3
249.59	0.29
249.806	0.43
250.023	0.52
250.239	0.37
250.455	0.3
250.671	0.42
250.888	0.4
251.104	0.49
251.32	0.36
251.536	0.43
251.752	0.39
251.969	0.39
252.185	0.42
252.401	0.66
252.617	0.51
252.833	0.28
253.049	0.45
253.265	0.48
253.481	0.39
253.697	0.31
253.913	0.29
254.129	0.53
254.345	0.47
254.561	0.32
254.777	0.34
254.993	0.47
255.209	0.49
255.425	0.3
255.641	0.31
255.857	0.5
256.073	0.46
256.288	0.31
256.504	0.28
256.72	0.4
256.936	0.63
257.152	0.37
257.367	0.25
257.583	0.43
257.799	0.46
258.015	0.29
258.23	0.38
258.446	0.6
258.662	0.38
258.877	0.3
259.093	0.28
259.309	0.38
259.524	0.42
259.74	0.42
259.955	0.24
260.171	0.38
260.387	0.43
260.602	0.4
260.818	0.42
261.033	0.28
261.249	0.41
261.464	0.25
261.68	0.23
261.895	0.41
262.11	0.44
262.326	0.3
262.541	0.21
262.757	0.51
262.972	0.41
263.187	0.38
263.403	0.47
263.618	0.48
263.833	0.35
264.049	0.3
264.264	0.35
264.479	0.37
264.694	0.5
264.91	0.22
265.125	0.35
265.34	0.44
265.555	0.59
265.77	0.36
265.986	0.27
266.201	0.36
266.416	0.48
266.631	0.28
266.846	0.27
267.061	0.45
267.276	0.44
267.491	0.16
267.706	0.39
267.921	0.41
268.136	0.38
268.351	0.34
268.566	0.21
268.781	0.48
268.996	0.43
269.211	0.27
269.426	0.33
269.641	0.34
269.856	0.43
270.071	0.29
270.285	0.22
270.5	0.41
270.715	0.38
270.93	0.29
271.145	0.35
271.359	0.42
271.574	0.3
271.789	0.34
272.004	0.31
272.218	0.29
272.433	0.46
272.648	0.24
272.862	0.46
273.077	0.36
273.292	0.32
273.506	0.23
273.721	0.31
273.936	0.43
274.15	0.46
274.365	0.3
274.579	0.41
274.794	0.41
275.008	0.49
275.223	0.27
275.437	0.33
275.652	0.45
275.866	0.48
276.081	0.32
276.295	0.4
276.509	0.39
276.724	0.32
276.938	0.3
277.153	0.29
277.367	0.39
277.581	0.3
277.796	0.26
278.01	0.29
278.224	0.36
278.438	0.5
278.653	0.26
278.867	0.2
279.081	0.18
279.295	0.32
279.51	0.32
279.724	0.22
279.938	0.29
280.152	0.37
280.366	0.26
280.58	0.27
280.794	0.39
281.008	0.45
281.222	0.35
281.437	0.5
281.651	0.32
281.865	0.42
282.079	0.33
282.293	0.19
282.507	0.25
282.721	0.28
282.935	0.26
283.148	0.17
283.362	0.29
283.576	0.21
283.79	0.3
284.004	0.22
284.218	0.42
284.432	0.27
284.646	0.26
284.859	0.22
285.073	0.28
285.287	0.35
285.501	0.27
285.714	0.27
285.928	0.32
286.142	0.29
286.356	0.2
286.569	0.25
286.783	0.39
286.997	0.39
287.21	0.22
287.424	0.29
287.637	0.32
287.851	0.24
288.065	0.39
288.278	0.29
288.492	0.35
288.705	0.3
288.919	0.29
289.132	0.16
289.346	0.31
289.559	0.24
289.773	0.24
289.986	0.24
290.2	0.26
290.413	0.39
290.626	0.27
290.84	0.24
291.053	0.32
291.267	0.36
291.48	0.25
291.693	0.28
291.906	0.28
292.12	0.36
292.333	0.25
292.546	0.21
292.76	0.37
292.973	0.31
293.186	0.34
293.399	0.24
293.612	0.37
293.826	0.27
294.039	0.25
294.252	0.25
294.465	0.36
294.678	0.32
294.891	0.28
295.104	0.21
295.317	0.27
295.53	0.31
295.743	0.27
295.956	0.21
296.169	0.39
296.382	0.29
296.595	0.26
296.808	0.25
297.021	0.35
297.234	0.35
297.447	0.25
297.66	0.31
297.873	0.33
298.086	0.36
298.299	0.21
298.511	0.19
298.724	0.25
298.937	0.21
299.15	0.22
299.363	0.27
299.575	0.28
299.788	0.28
300.001	0.24
300.213	0.24
300.426	0.27
300.639	0.22
300.852	0.21
301.064	0.3
301.277	0.32
301.489	0.3
301.702	0.29
301.915	0.28
302.127	0.27
302.34	0.28
302.552	0.27
302.765	0.22
302.977	0.33
303.19	0.18
303.402	0.22
303.615	0.25
303.827	0.26
304.04	0.26
304.252	0.3
304.464	0.22
304.677	0.41
304.889	0.3
305.102	0.19
305.314	0.22
305.526	0.28
305.739	0.28
305.951	0.19
306.163	0.25
306.375	0.32
306.588	0.22
306.8	0.25
307.012	0.14
307.224	0.27
307.436	0.36
307.649	0.23
307.861	0.22
308.073	0.3
308.285	0.23
308.497	0.21
308.709	0.24
308.921	0.27
309.133	0.35
309.346	0.26
309.558	0.3
309.77	0.33
309.982	0.38
310.194	0.26
310.406	0.21
310.617	0.38
310.829	0.31
311.041	0.27
311.253	0.2
311.465	0.24
311.677	0.25
311.889	0.23
312.101	0.2
312.313	0.36
312.524	0.35
312.736	0.18
312.948	0.23
313.16	0.39
313.372	0.31
313.583	0.27
313.795	0.22
314.007	0.21
314.218	0.33
314.43	0.25
314.642	0.21
314.853	0.2
315.065	0.31
315.277	0.21
315.488	0.24
315.7	0.32
315.912	0.3
316.123	0.2
316.335	0.25
316.546	0.38
316.758	0.26
316.969	0.25
317.181	0.26
317.392	0.3
317.604	0.33
317.815	0.21
318.026	0.22
318.238	0.27
318.449	0.29
318.661	0.19
318.872	0.19
319.083	0.2
319.295	0.33
319.506	0.23
319.717	0.26
319.929	0.29
320.14	0.31
320.351	0.27
320.562	0.2
320.774	0.27
320.985	0.23
321.196	0.23
321.407	0.18
321.618	0.32
321.829	0.3
322.041	0.32
322.252	0.28
322.463	0.34
322.674	0.3
322.885	0.22
323.096	0.19
323.307	0.26
323.518	0.29
323.729	0.22
323.94	0.22
324.151	0.27
324.362	0.31
324.573	0.24
324.784	0.29
324.995	0.36
325.206	0.29
325.417	0.25
325.628	0.2
325.838	0.27
326.049	0.3
326.26	0.3
326.471	0.22
326.682	0.26
326.892	0.3
327.103	0.14
327.314	0.26
327.525	0.34
327.735	0.32
327.946	0.26
328.157	0.18
328.368	0.33
328.578	0.26
328.789	0.31
328.999	0.23
329.21	0.23
329.421	0.32
329.631	0.21
329.842	0.19
330.052	0.28
330.263	0.3
330.473	0.27
330.684	0.2
330.894	0.26
331.105	0.31
331.315	0.26
331.526	0.14
331.736	0.37
331.947	0.32
332.157	0.3
332.367	0.15
332.578	0.33
332.788	0.37
332.999	0.3
333.209	0.23
333.419	0.17
333.629	0.28
333.84	0.31
334.05	0.27
334.26	0.36
334.47	0.34
334.681	0.3
334.891	0.22
335.101	0.3
335.311	0.35
335.521	0.27
335.732	0.2
335.942	0.38
336.152	0.27
336.362	0.23
336.572	0.26
336.782	0.31
336.992	0.22
337.202	0.25
337.412	0.24
337.622	0.29
337.832	0.23
338.042	0.25
338.252	0.2
338.462	0.24
338.672	0.26
338.882	0.23
339.092	0.19
339.302	0.34
339.511	0.33
339.721	0.2
339.931	0.21
340.141	0.35
340.351	0.33
340.561	0.26
340.77	0.28
340.98	0.3
341.19	0.27
341.4	0.25
341.609	0.15
341.819	0.27
342.029	0.21
342.238	0.24
342.448	0.23
342.658	0.29
342.867	0.21
343.077	0.31
343.286	0.27
343.496	0.26
343.706	0.34
343.915	0.21
344.125	0.24
344.334	0.31
344.544	0.2
344.753	0.2
344.963	0.23
345.172	0.19
345.381	0.19
345.591	0.21
345.8	0.23
346.01	0.33
346.219	0.31
346.428	0.12
346.638	0.23
346.847	0.26
347.056	0.34
347.266	0.23
347.475	0.21
347.684	0.3
347.893	0.3
348.103	0.29
348.312	0.2
348.521	0.25
348.73	0.27
348.94	0.25
349.149	0.25
349.358	0.27
349.567	0.22
349.776	0.17
349.985	0.22
350.194	0.31
350.403	0.34
350.612	0.18
350.821	0.21
351.03	0.26
351.239	0.2
351.448	0.27
351.657	0.24
351.866	0.31
352.075	0.24
352.284	0.31
352.493	0.19
352.702	0.33
352.911	0.24
353.12	0.21
353.329	0.26
353.538	0.33
353.746	0.26
353.955	0.17
354.164	0.26
354.373	0.2
354.582	0.33
354.79	0.27
354.999	0.28
355.208	0.26
355.416	0.33
355.625	0.15
355.834	0.2
356.042	0.25
356.251	0.23
356.46	0.19
356.668	0.22
356.877	0.34
357.085	0.26
357.294	0.16
357.503	0.27
357.711	0.26
357.92	0.41
358.128	0.22
358.337	0.18
358.545	0.27
358.754	0.22
358.962	0.28
359.17	0.24
359.379	0.27
359.587	0.27
359.796	0.25
360.004	0.3
360.212	0.27
360.421	0.34
360.629	0.24
360.837	0.21
361.046	0.29
361.254	0.4
361.462	0.26
361.67	0.26
361.879	0.3
362.087	0.3
362.295	0.26
362.503	0.21
362.711	0.17
362.92	0.22
363.128	0.23
363.336	0.2
363.544	0.16
363.752	0.2
363.96	0.22
364.168	0.2
364.376	0.23
364.584	0.28
364.792	0.29
365	0.27
365.208	0.25
365.416	0.27
365.624	0.31
365.832	0.21
366.04	0.35
366.248	0.25
366.456	0.31
366.664	0.23
366.872	0.27
367.079	0.27
367.287	0.2
367.495	0.25
367.703	0.21
367.911	0.24
368.118	0.23
368.326	0.25
368.534	0.19
368.742	0.3
368.949	0.2
369.157	0.21
369.365	0.3
369.572	0.26
369.78	0.21
369.988	0.26
370.195	0.29
370.403	0.32
370.61	0.22
370.818	0.24
371.026	0.37
371.233	0.21
371.441	0.3
371.648	0.22
371.856	0.27
372.063	0.27
372.271	0.21
372.478	0.18
372.685	0.21
372.893	0.32
373.1	0.23
373.308	0.21
373.515	0.38
373.722	0.31
373.93	0.22
374.137	0.26
374.344	0.33
374.552	0.34
374.759	0.32
374.966	0.25
375.173	0.26
375.381	0.31
375.588	0.28
375.795	0.19
376.002	0.26
376.209	0.23
376.417	0.22
376.624	0.3
376.831	0.3
377.038	0.25
377.245	0.21
377.452	0.21
377.659	0.28
377.866	0.24
378.073	0.23
378.28	0.24
378.487	0.3
378.694	0.33
378.901	0.24
379.108	0.24
379.315	0.32
379.522	0.37
379.729	0.29
379.936	0.25
380.143	0.3
380.35	0.26
380.557	0.26
380.763	0.22
380.97	0.27
381.177	0.3
381.384	0.27
381.591	0.26
381.797	0.3
382.004	0.38
382.211	0.28
382.418	0.22
382.624	0.35
382.831	0.35
383.038	0.23
383.244	0.27
383.451	0.28
383.658	0.35
383.864	0.27
384.071	0.25
384.277	0.37
384.484	0.27
384.69	0.34
384.897	0.22
385.103	0.24
385.31	0.24
385.516	0.28
385.723	0.2
385.929	0.32
386.136	0.23
386.342	0.3
386.549	0.23
386.755	0.37
386.961	0.33
387.168	0.24
387.374	0.24
387.58	0.33
387.787	0.31
387.993	0.34
388.199	0.27
388.406	0.25
388.612	0.29
388.818	0.25
389.024	0.23
389.231	0.28
389.437	0.39
389.643	0.3
389.849	0.27
390.055	0.33
390.261	0.27
390.467	0.32
390.674	0.25
390.88	0.3
391.086	0.38
391.292	0.25
391.498	0.34
391.704	0.29
391.91	0.3
392.116	0.26
392.322	0.18
392.528	0.35
392.734	0.32
392.94	0.34
393.146	0.31
393.352	0.33
393.557	0.31
393.763	0.31
393.969	0.33
394.175	0.3
394.381	0.37
394.587	0.27
394.792	0.33
394.998	0.37
395.204	0.38
395.41	0.26
395.615	0.36
395.821	0.33
396.027	0.34
396.233	0.3
396.438	0.34
396.644	0.38
396.85	0.36
397.055	0.35
397.261	0.34
397.466	0.37
397.672	0.36
397.878	0.38
398.083	0.31
398.289	0.33
398.494	0.35
398.7	0.35
398.905	0.19
399.111	0.41
399.316	0.34
399.522	0.33
399.727	0.31
399.932	0.36
400.138	0.29
400.343	0.35
400.549	0.34
400.754	0.38
400.959	0.38
401.165	0.35
401.37	0.41
401.575	0.46
401.78	0.38
401.986	0.35
402.191	0.35
402.396	0.35
402.601	0.45
402.807	0.41
403.012	0.35
403.217	0.41
403.422	0.39
403.627	0.41
403.832	0.39
404.037	0.46
404.243	0.47
404.448	0.39
404.653	0.4
404.858	0.41
405.063	0.46
405.268	0.4
405.473	0.39
405.678	0.4
405.883	0.63
406.088	0.51
406.293	0.38
406.498	0.47
406.703	0.59
406.907	0.46
407.112	0.44
407.317	0.51
407.522	0.63
407.727	0.51
407.932	0.54
408.136	0.65
408.341	0.54
408.546	0.55
408.751	0.56
408.956	0.63
409.16	0.68
409.365	0.59
409.57	0.59
409.774	0.64
409.979	0.72
410.184	0.67
410.388	0.61
410.593	0.76
410.798	0.72
411.002	0.75
411.207	0.81
411.411	0.82
411.616	0.77
411.82	0.81
412.025	0.87
412.229	0.87
412.434	1
412.638	0.91
412.843	0.93
413.047	0.98
413.252	0.93
413.456	1.07
413.66	1.08
413.865	1.03
414.069	1.19
414.273	1.07
414.478	1.16
414.682	1.19
414.886	1.26
415.091	1.18
415.295	1.3
415.499	1.48
415.703	1.35
415.908	1.5
416.112	1.37
416.316	1.57
416.52	1.57
416.724	1.59
416.929	1.65
417.133	1.9
417.337	1.73
417.541	1.84
417.745	1.9
417.949	1.97
418.153	2.01
418.357	2.08
418.561	2.25
418.765	2.3
418.969	2.39
419.173	2.44
419.377	2.45
419.581	2.8
419.785	2.66
419.989	2.69
420.193	2.91
420.397	2.94
420.601	3.11
420.804	3.18
421.008	3.16
421.212	3.33
421.416	3.27
421.62	3.31
421.823	3.45
422.027	3.65
422.231	3.55
422.435	3.58
422.638	3.58
422.842	3.79
423.046	3.79
423.249	4.04
423.453	4.06
423.657	4.2
423.86	4.29
424.064	4.39
424.268	4.58
424.471	4.56
424.675	4.88
424.878	4.86
425.082	5
425.285	5.33
425.489	5.27
425.692	5.33
425.896	5.31
426.099	5.6
426.303	5.83
426.506	5.77
426.71	6.09
426.913	6.35
427.116	6.49
427.32	6.4
427.523	6.54
427.726	6.73
427.93	6.95
428.133	7.31
428.336	7.41
428.54	7.46
428.743	7.85
428.946	8.02
429.149	7.97
429.353	7.99
429.556	8.21
429.759	8.17
429.962	8.28
430.165	8.45
430.368	8.18
430.571	8.24
430.775	8.25
430.978	8.13
431.181	8.32
431.384	8.39
431.587	8.42
431.79	8.79
431.993	8.75
432.196	9.02
432.399	9.39
432.602	9.46
432.805	9.68
433.008	10.21
433.211	9.99
433.414	10.39
433.616	10.45
433.819	10.35
434.022	10.51
434.225	10.76
434.428	10.8
434.631	11.21
434.833	10.89
435.036	11.29
435.239	11.4
435.442	11.45
435.645	11.57
435.847	11.61
436.05	11.98
436.253	12.27
436.455	12.19
436.658	12.17
436.861	12.46
437.063	12.64
437.266	12.52
437.468	12.88
437.671	13.28
437.874	13.21
438.076	13.02
438.279	13.52
438.481	13.73
438.684	14.46
438.886	14.09
439.089	14.25
439.291	14.2
439.494	14.68
439.696	14.91
439.899	15.44
440.101	15.87
440.303	15.88
440.506	16.58
440.708	16.48
440.91	16.66
441.113	16.84
441.315	17.2
441.517	16.84
441.72	17.36
441.922	16.95
442.124	17.06
442.326	17.33
442.529	17.58
442.731	17.55
442.933	17.74
443.135	17.44
443.337	17.53
443.539	18.11
443.742	17.8
443.944	18.45
444.146	18.19
444.348	18.11
444.55	17.96
444.752	18.26
444.954	18.22
445.156	18.06
445.358	18.55
445.56	18.85
445.762	18.75
445.964	18.86
446.166	18.6
446.368	18.58
446.57	18.43
446.772	18.11
446.974	17.95
447.175	18.24
447.377	18.01
447.579	18.41
447.781	18.02
447.983	17.84
448.184	17.32
448.386	17.71
448.588	17.16
448.79	17.27
448.991	17.48
449.193	17.48
449.395	16.71
449.597	16.52
449.798	16.31
450	15.85
450.202	15.82
450.403	15.88
450.605	15.83
450.806	15.37
451.008	15.22
451.21	14.9
451.411	14.47
451.613	13.62
451.814	13.96
452.016	13.94
452.217	13.24
452.419	13.19
452.62	12.85
452.821	12.59
453.023	12.5
453.224	12.2
453.426	11.67
453.627	10.95
453.828	11.2
454.03	11.17
454.231	11.2
454.432	11.02
454.634	10.66
454.835	10.35
455.036	10.19
455.238	9.86
455.439	9.78
455.64	9.38
455.841	9.3
456.042	9.42
456.244	9.13
456.445	8.8
456.646	8.5
456.847	8.46
457.048	8.32
457.249	8.35
457.45	8.19
457.651	7.61
457.852	7.54
458.054	7.17
458.255	7.12
458.456	7.16
458.657	7.1
458.858	6.66
459.058	6.57
459.259	6.67
459.46	6.31
459.661	6.33
459.862	6.39
460.063	6.37
460.264	6.17
460.465	5.98
460.666	6.04
460.866	5.72
461.067	5.43
461.268	5.43
461.469	5.41
461.67	5.31
461.87	5.2
462.071	5.19
462.272	5.21
462.473	5.12
462.673	5.29
462.874	5.03
463.075	5.08
463.275	5.05
463.476	5.08
463.676	4.98
463.877	4.82
464.078	4.88
464.278	4.85
464.479	4.81
464.679	4.7
464.88	4.63
465.08	4.65
465.281	4.39
465.481	4.26
465.682	4.03
465.882	4.08
466.083	4.07
466.283	3.96
466.483	3.86
466.684	3.65
466.884	3.57
467.085	3.63
467.285	3.74
467.485	3.57
467.686	3.5
467.886	3.39
468.086	3.37
468.286	3.39
468.487	3.41
468.687	3.2
468.887	3.18
469.087	3.3
469.287	3.26
469.488	3
469.688	3.14
469.888	3.13
470.088	3.08
470.288	3.03
470.488	3.03
470.688	2.84
470.888	2.85
471.088	2.61
471.288	2.81
471.488	2.72
471.688	2.68
471.888	2.69
472.088	2.75
472.288	2.71
472.488	2.53
472.688	2.52
472.888	2.58
473.088	2.67
473.288	2.53
473.488	2.45
473.688	2.67
473.887	2.42
474.087	2.34
474.287	2.41
474.487	2.35
474.687	2.41
474.886	2.31
475.086	2.27
475.286	2.32
475.486	2.32
475.685	2.25
475.885	2.24
476.085	2.24
476.284	2.25
476.484	2.22
476.684	2.19
476.883	2.28
477.083	2.19
477.282	2.11
477.482	2.15
477.681	2.14
477.881	2.01
478.08	2.07
478.28	2
478.479	2.13
478.679	2.15
478.878	2.04
479.078	2.03
479.277	2.08
479.477	2.08
479.676	2.06
479.875	2.03
480.075	1.92
480.274	2.03
480.473	2.04
480.673	1.96
480.872	2.07
481.071	2.06
481.271	2.05
481.47	1.99
481.669	1.96
481.868	1.98
482.067	1.96
482.267	1.89
482.466	1.96
482.665	1.91
482.864	1.99
483.063	1.92
483.262	2.01
483.461	2.06
483.661	2.06
483.86	1.95
484.059	2.06
484.258	2.07
484.457	2.03
484.656	2
484.855	2.11
485.054	1.92
485.253	1.96
485.452	1.94
485.651	2.07
485.849	2.01
486.048	1.94
486.247	2.03
486.446	2.05
486.645	2.06
486.844	2.06
487.043	2.06
487.241	2.07
487.44	2.03
487.639	2.12
487.838	2.12
488.037	2.12
488.235	2.22
488.434	2.12
488.633	2.04
488.831	2.23
489.03	2.22
489.229	2.18
489.427	2.18
489.626	2.25
489.825	2.26
490.023	2.3
490.222	2.28
490.42	2.3
490.619	2.37
490.817	2.35
491.016	2.35
491.214	2.43
491.413	2.42
491.611	2.36
491.81	2.39
492.008	2.46
492.207	2.53
492.405	2.51
492.604	2.45
492.802	2.57
493	2.59
493.199	2.63
493.397	2.64
493.595	2.67
493.794	2.67
493.992	2.78
494.19	2.72
494.388	2.86
494.587	2.78
494.785	2.79
494.983	2.73
495.181	2.84
495.379	2.93
495.578	2.94
495.776	2.97
495.974	2.95
496.172	3
496.37	3.09
496.568	3.06
496.766	3.09
496.964	3.19
497.162	3.18
497.36	3.18
497.558	3.23
497.756	3.29
497.954	3.3
498.152	3.4
498.35	3.45
498.548	3.36
498.746	3.39
498.944	3.41
499.142	3.45
499.34	3.54
499.538	3.64
499.736	3.49
499.933	3.66
500.131	3.68
500.329	3.81
500.527	3.78
500.725	3.9
500.922	3.9
501.12	3.87
501.318	3.96
501.516	3.96
501.713	3.98
501.911	4.03
502.109	3.97
502.306	4.12
502.504	4.04
502.701	4.1
