Data from Apollo_Calib_20240827__AbsoluteIrradiance__760__11-49-02-228.txt Node

Date: Wed Aug 28 11:49:02 BST 2024
User: biology
Spectrometer: FLMT08252
Trigger mode: 0
Integration Time (sec): 5.000000E-1
Scans to average: 5
Electric dark correction enabled: true
Nonlinearity correction enabled: false
Boxcar width: 0
XAxis mode: Wavelengths
Number of Pixels in Spectrum: 3648
>>>>>Begin Spectral Data<<<<<
179.588	-0
179.809	-0
180.03	-0
180.251	-0
180.473	-0
180.694	0
180.915	0
181.136	-0
181.357	0
181.578	-0
181.799	-0
182.02	-0
182.241	-0
182.462	-0
182.683	0
182.904	0
183.125	-0
183.346	0
183.567	0
183.788	0
184.009	0
184.23	0
184.451	0
184.672	0
184.892	0
185.113	0
185.334	0
185.555	0
185.776	0
185.996	0
186.217	0
186.438	0
186.659	0
186.879	0
187.1	0
187.321	0
187.541	0
187.762	0
187.983	0
188.203	0
188.424	0
188.644	0
188.865	0
189.086	0
189.306	0
189.527	0
189.747	0
189.968	0
190.188	0
190.409	0
190.629	0
190.849	0
191.07	0
191.29	0
191.511	0
191.731	0
191.951	0
192.172	0
192.392	0
192.612	0
192.833	0
193.053	0
193.273	0
193.493	0
193.714	0
193.934	0
194.154	0
194.374	0
194.594	0
194.815	0
195.035	0
195.255	0
195.475	0
195.695	0
195.915	0
196.135	0
196.355	0
196.575	0
196.795	0
197.015	0
197.235	0
197.455	0
197.675	0
197.895	0
198.115	0
198.335	0
198.555	0
198.775	0
198.995	0
199.214	0
199.434	0
199.654	0
199.874	0
200.094	3.37
200.313	1.48
200.533	1.26
200.753	1.45
200.973	3.44
201.192	2.74
201.412	1.08
201.632	1.45
201.851	2.73
202.071	1.72
202.291	1.38
202.51	1.11
202.73	2.11
202.95	1.26
203.169	0.93
203.389	1.6
203.608	1.62
203.828	1.19
204.047	1.25
204.267	1.94
204.486	1.73
204.706	1.76
204.925	1.49
205.145	1.27
205.364	1.61
205.583	2.51
205.803	1.08
206.022	0.8
206.242	1.59
206.461	1.32
206.68	0.95
206.9	1.22
207.119	1.96
207.338	1.33
207.557	1.13
207.777	1.19
207.996	0.78
208.215	2.09
208.434	0.76
208.654	0.51
208.873	1.42
209.092	1.85
209.311	0.8
209.53	0.88
209.749	0.79
209.968	1.04
210.187	1.06
210.407	0.61
210.626	0.93
210.845	1.11
211.064	0.93
211.283	0.65
211.502	1.24
211.721	0.97
211.94	0.85
212.159	1.18
212.377	1.34
212.596	1.32
212.815	0.94
213.034	1.1
213.253	1.14
213.472	1.25
213.691	0.79
213.91	0.63
214.128	0.68
214.347	1.36
214.566	0.39
214.785	0.42
215.003	1.07
215.222	1.09
215.441	0.79
215.66	0.38
215.878	0.75
216.097	0.82
216.316	0.55
216.534	0.58
216.753	0.89
216.972	0.91
217.19	0.58
217.409	0.6
217.627	0.71
217.846	0.62
218.064	0.9
218.283	0.54
218.501	1.34
218.72	0.89
218.938	0.57
219.157	0.58
219.375	0.9
219.594	0.96
219.812	0.42
220.031	0.46
220.249	1.02
220.467	1.12
220.686	0.38
220.904	0.38
221.122	0.57
221.341	1.03
221.559	0.61
221.777	0.48
221.995	0.66
222.214	0.67
222.432	0.56
222.65	0.65
222.868	0.49
223.086	0.63
223.305	0.74
223.523	0.45
223.741	0.99
223.959	0.53
224.177	0.13
224.395	0.48
224.613	0.73
224.831	0.88
225.049	0.27
225.267	0.6
225.485	0.44
225.703	0.58
225.921	0.55
226.139	0.44
226.357	0.7
226.575	0.68
226.793	0.46
227.011	1.24
227.229	0.61
227.447	0.69
227.665	0.56
227.883	0.24
228.1	0.45
228.318	0.75
228.536	0.19
228.754	0.35
228.972	0.56
229.189	0.78
229.407	0.52
229.625	0.35
229.843	0.55
230.06	0.65
230.278	0.42
230.496	0.49
230.713	0.61
230.931	0.63
231.149	0.4
231.366	0.16
231.584	0.42
231.801	0.79
232.019	0.51
232.236	0.32
232.454	0.32
232.671	0.5
232.889	0.31
233.106	0.34
233.324	0.56
233.541	0.44
233.759	0.41
233.976	0.32
234.194	0.46
234.411	0.48
234.628	0.36
234.846	0.36
235.063	0.49
235.28	0.44
235.498	0.54
235.715	0.2
235.932	0.64
236.149	0.46
236.367	0.31
236.584	0.51
236.801	0.4
237.018	0.38
237.236	0.34
237.453	0.23
237.67	0.54
237.887	0.38
238.104	0.39
238.321	0.29
238.538	0.38
238.755	0.62
238.973	0.28
239.19	0.35
239.407	0.45
239.624	0.48
239.841	0.24
240.058	0.3
240.275	0.45
240.492	0.5
240.709	0.41
240.925	0.28
241.142	0.4
241.359	0.31
241.576	0.3
241.793	0.25
242.01	0.3
242.227	0.5
242.444	0.4
242.66	0.47
242.877	0.44
243.094	0.32
243.311	0.37
243.527	0.29
243.744	0.39
243.961	0.46
244.178	0.26
244.394	0.41
244.611	0.57
244.828	0.52
245.044	0.3
245.261	0.3
245.477	0.46
245.694	0.39
245.911	0.31
246.127	0.42
246.344	0.57
246.56	0.41
246.777	0.26
246.993	0.24
247.21	0.4
247.426	0.43
247.643	0.25
247.859	0.23
248.076	0.3
248.292	0.51
248.508	0.35
248.725	0.33
248.941	0.41
249.157	0.47
249.374	0.26
249.59	0.32
249.806	0.36
250.023	0.51
250.239	0.23
250.455	0.25
250.671	0.38
250.888	0.4
251.104	0.41
251.32	0.3
251.536	0.37
251.752	0.37
251.969	0.32
252.185	0.27
252.401	0.5
252.617	0.37
252.833	0.33
253.049	0.32
253.265	0.35
253.481	0.41
253.697	0.27
253.913	0.27
254.129	0.43
254.345	0.35
254.561	0.35
254.777	0.27
254.993	0.36
255.209	0.4
255.425	0.28
255.641	0.24
255.857	0.4
256.073	0.44
256.288	0.13
256.504	0.29
256.72	0.28
256.936	0.41
257.152	0.29
257.367	0.25
257.583	0.4
257.799	0.32
258.015	0.27
258.23	0.23
258.446	0.47
258.662	0.29
258.877	0.25
259.093	0.25
259.309	0.34
259.524	0.32
259.74	0.3
259.955	0.23
260.171	0.34
260.387	0.29
260.602	0.34
260.818	0.37
261.033	0.23
261.249	0.27
261.464	0.35
261.68	0.24
261.895	0.37
262.11	0.37
262.326	0.2
262.541	0.24
262.757	0.41
262.972	0.33
263.187	0.32
263.403	0.32
263.618	0.41
263.833	0.31
264.049	0.25
264.264	0.26
264.479	0.38
264.694	0.43
264.91	0.23
265.125	0.31
265.34	0.4
265.555	0.54
265.77	0.28
265.986	0.24
266.201	0.36
266.416	0.43
266.631	0.28
266.846	0.21
267.061	0.27
267.276	0.37
267.491	0.17
267.706	0.33
267.921	0.42
268.136	0.25
268.351	0.25
268.566	0.22
268.781	0.41
268.996	0.33
269.211	0.27
269.426	0.25
269.641	0.28
269.856	0.36
270.071	0.27
270.285	0.21
270.5	0.35
270.715	0.33
270.93	0.29
271.145	0.32
271.359	0.31
271.574	0.23
271.789	0.27
272.004	0.23
272.218	0.2
272.433	0.31
272.648	0.23
272.862	0.34
273.077	0.29
273.292	0.31
273.506	0.19
273.721	0.28
273.936	0.33
274.15	0.38
274.365	0.21
274.579	0.32
274.794	0.3
275.008	0.39
275.223	0.2
275.437	0.21
275.652	0.34
275.866	0.28
276.081	0.23
276.295	0.38
276.509	0.24
276.724	0.27
276.938	0.28
277.153	0.3
277.367	0.33
277.581	0.26
277.796	0.21
278.01	0.14
278.224	0.3
278.438	0.44
278.653	0.24
278.867	0.2
279.081	0.11
279.295	0.31
279.51	0.26
279.724	0.19
279.938	0.31
280.152	0.3
280.366	0.22
280.58	0.26
280.794	0.37
281.008	0.24
281.222	0.32
281.437	0.39
281.651	0.29
281.865	0.33
282.079	0.2
282.293	0.15
282.507	0.22
282.721	0.21
282.935	0.29
283.148	0.16
283.362	0.23
283.576	0.2
283.79	0.26
284.004	0.21
284.218	0.37
284.432	0.2
284.646	0.25
284.859	0.23
285.073	0.23
285.287	0.24
285.501	0.25
285.714	0.21
285.928	0.28
286.142	0.27
286.356	0.19
286.569	0.23
286.783	0.29
286.997	0.3
287.21	0.22
287.424	0.31
287.637	0.2
287.851	0.2
288.065	0.3
288.278	0.22
288.492	0.23
288.705	0.28
288.919	0.27
289.132	0.14
289.346	0.32
289.559	0.15
289.773	0.18
289.986	0.24
290.2	0.23
290.413	0.31
290.626	0.21
290.84	0.16
291.053	0.19
291.267	0.32
291.48	0.19
291.693	0.23
291.906	0.14
292.12	0.19
292.333	0.23
292.546	0.2
292.76	0.33
292.973	0.28
293.186	0.29
293.399	0.26
293.612	0.29
293.826	0.26
294.039	0.23
294.252	0.19
294.465	0.28
294.678	0.27
294.891	0.21
295.104	0.16
295.317	0.23
295.53	0.24
295.743	0.23
295.956	0.16
296.169	0.33
296.382	0.29
296.595	0.22
296.808	0.16
297.021	0.29
297.234	0.34
297.447	0.24
297.66	0.28
297.873	0.29
298.086	0.27
298.299	0.2
298.511	0.11
298.724	0.22
298.937	0.17
299.15	0.18
299.363	0.22
299.575	0.24
299.788	0.27
300.001	0.19
300.213	0.23
300.426	0.23
300.639	0.2
300.852	0.18
301.064	0.23
301.277	0.31
301.489	0.23
301.702	0.27
301.915	0.21
302.127	0.24
302.34	0.27
302.552	0.24
302.765	0.17
302.977	0.25
303.19	0.2
303.402	0.19
303.615	0.23
303.827	0.14
304.04	0.24
304.252	0.26
304.464	0.18
304.677	0.34
304.889	0.29
305.102	0.18
305.314	0.2
305.526	0.28
305.739	0.26
305.951	0.18
306.163	0.17
306.375	0.32
306.588	0.17
306.8	0.15
307.012	0.15
307.224	0.22
307.436	0.34
307.649	0.14
307.861	0.18
308.073	0.25
308.285	0.17
308.497	0.18
308.709	0.2
308.921	0.26
309.133	0.22
309.346	0.21
309.558	0.19
309.77	0.24
309.982	0.31
310.194	0.23
310.406	0.18
310.617	0.3
310.829	0.25
311.041	0.23
311.253	0.18
311.465	0.17
311.677	0.25
311.889	0.22
312.101	0.14
312.313	0.26
312.524	0.28
312.736	0.13
312.948	0.2
313.16	0.28
313.372	0.24
313.583	0.24
313.795	0.2
314.007	0.19
314.218	0.28
314.43	0.23
314.642	0.19
314.853	0.12
315.065	0.27
315.277	0.22
315.488	0.2
315.7	0.28
315.912	0.23
316.123	0.23
316.335	0.19
316.546	0.31
316.758	0.19
316.969	0.16
317.181	0.2
317.392	0.23
317.604	0.32
317.815	0.18
318.026	0.15
318.238	0.19
318.449	0.21
318.661	0.12
318.872	0.17
319.083	0.22
319.295	0.23
319.506	0.22
319.717	0.21
319.929	0.25
320.14	0.2
320.351	0.22
320.562	0.19
320.774	0.21
320.985	0.22
321.196	0.17
321.407	0.18
321.618	0.29
321.829	0.23
322.041	0.25
322.252	0.21
322.463	0.24
322.674	0.22
322.885	0.15
323.096	0.19
323.307	0.24
323.518	0.23
323.729	0.16
323.94	0.17
324.151	0.18
324.362	0.27
324.573	0.22
324.784	0.22
324.995	0.23
325.206	0.22
325.417	0.2
325.628	0.16
325.838	0.26
326.049	0.21
326.26	0.3
326.471	0.18
326.682	0.24
326.892	0.23
327.103	0.15
327.314	0.18
327.525	0.31
327.735	0.19
327.946	0.22
328.157	0.14
328.368	0.25
328.578	0.22
328.789	0.24
328.999	0.24
329.21	0.22
329.421	0.27
329.631	0.16
329.842	0.15
330.052	0.23
330.263	0.23
330.473	0.24
330.684	0.21
330.894	0.25
331.105	0.22
331.315	0.22
331.526	0.12
331.736	0.33
331.947	0.22
332.157	0.25
332.367	0.19
332.578	0.25
332.788	0.28
332.999	0.25
333.209	0.2
333.419	0.16
333.629	0.27
333.84	0.24
334.05	0.25
334.26	0.3
334.47	0.27
334.681	0.27
334.891	0.21
335.101	0.2
335.311	0.3
335.521	0.22
335.732	0.18
335.942	0.32
336.152	0.22
336.362	0.23
336.572	0.22
336.782	0.28
336.992	0.22
337.202	0.21
337.412	0.18
337.622	0.25
337.832	0.22
338.042	0.22
338.252	0.2
338.462	0.2
338.672	0.2
338.882	0.17
339.092	0.19
339.302	0.3
339.511	0.27
339.721	0.22
339.931	0.17
340.141	0.23
340.351	0.29
340.561	0.23
340.77	0.19
340.98	0.21
341.19	0.24
341.4	0.18
341.609	0.14
341.819	0.21
342.029	0.16
342.238	0.23
342.448	0.2
342.658	0.29
342.867	0.25
343.077	0.19
343.286	0.21
343.496	0.22
343.706	0.3
343.915	0.14
344.125	0.18
344.334	0.15
344.544	0.15
344.753	0.16
344.963	0.2
345.172	0.2
345.381	0.16
345.591	0.15
345.8	0.21
346.01	0.29
346.219	0.25
346.428	0.05
346.638	0.2
346.847	0.22
347.056	0.27
347.266	0.22
347.475	0.2
347.684	0.23
347.893	0.24
348.103	0.23
348.312	0.2
348.521	0.17
348.73	0.26
348.94	0.22
349.149	0.18
349.358	0.22
349.567	0.16
349.776	0.11
349.985	0.19
350.194	0.27
350.403	0.25
350.612	0.15
350.821	0.19
351.03	0.2
351.239	0.12
351.448	0.19
351.657	0.15
351.866	0.28
352.075	0.23
352.284	0.22
352.493	0.13
352.702	0.3
352.911	0.25
353.12	0.23
353.329	0.19
353.538	0.27
353.746	0.18
353.955	0.12
354.164	0.25
354.373	0.19
354.582	0.26
354.79	0.17
354.999	0.22
355.208	0.21
355.416	0.3
355.625	0.16
355.834	0.2
356.042	0.25
356.251	0.23
356.46	0.13
356.668	0.24
356.877	0.28
357.085	0.24
357.294	0.09
357.503	0.22
357.711	0.19
357.92	0.31
358.128	0.23
358.337	0.17
358.545	0.24
358.754	0.17
358.962	0.18
359.17	0.22
359.379	0.22
359.587	0.21
359.796	0.22
360.004	0.26
360.212	0.24
360.421	0.23
360.629	0.21
360.837	0.16
361.046	0.24
361.254	0.35
361.462	0.21
361.67	0.14
361.879	0.21
362.087	0.28
362.295	0.2
362.503	0.17
362.711	0.16
362.92	0.16
363.128	0.18
363.336	0.12
363.544	0.15
363.752	0.21
363.96	0.18
364.168	0.2
364.376	0.2
364.584	0.22
364.792	0.24
365	0.2
365.208	0.2
365.416	0.25
365.624	0.28
365.832	0.17
366.04	0.29
366.248	0.26
366.456	0.19
366.664	0.21
366.872	0.24
367.079	0.23
367.287	0.18
367.495	0.19
367.703	0.23
367.911	0.19
368.118	0.23
368.326	0.2
368.534	0.16
368.742	0.24
368.949	0.13
369.157	0.17
369.365	0.28
369.572	0.23
369.78	0.17
369.988	0.26
370.195	0.23
370.403	0.27
370.61	0.19
370.818	0.24
371.026	0.3
371.233	0.17
371.441	0.18
371.648	0.2
371.856	0.21
372.063	0.22
372.271	0.15
372.478	0.19
372.685	0.18
372.893	0.25
373.1	0.22
373.308	0.2
373.515	0.31
373.722	0.29
373.93	0.2
374.137	0.24
374.344	0.27
374.552	0.25
374.759	0.25
374.966	0.2
375.173	0.19
375.381	0.27
375.588	0.21
375.795	0.17
376.002	0.2
376.209	0.2
376.417	0.21
376.624	0.21
376.831	0.24
377.038	0.2
377.245	0.13
377.452	0.25
377.659	0.23
377.866	0.18
378.073	0.21
378.28	0.18
378.487	0.26
378.694	0.27
378.901	0.17
379.108	0.19
379.315	0.27
379.522	0.32
379.729	0.22
379.936	0.23
380.143	0.23
380.35	0.23
380.557	0.21
380.763	0.2
380.97	0.22
381.177	0.26
381.384	0.24
381.591	0.23
381.797	0.23
382.004	0.29
382.211	0.29
382.418	0.15
382.624	0.28
382.831	0.24
383.038	0.21
383.244	0.24
383.451	0.21
383.658	0.26
383.864	0.21
384.071	0.17
384.277	0.32
384.484	0.2
384.69	0.26
384.897	0.26
385.103	0.21
385.31	0.18
385.516	0.22
385.723	0.21
385.929	0.24
386.136	0.21
386.342	0.25
386.549	0.23
386.755	0.32
386.961	0.28
387.168	0.2
387.374	0.22
387.58	0.23
387.787	0.27
387.993	0.22
388.199	0.22
388.406	0.22
388.612	0.22
388.818	0.22
389.024	0.21
389.231	0.24
389.437	0.33
389.643	0.26
389.849	0.26
390.055	0.26
390.261	0.17
390.467	0.23
390.674	0.21
390.88	0.24
391.086	0.27
391.292	0.23
391.498	0.25
391.704	0.28
391.91	0.23
392.116	0.17
392.322	0.15
392.528	0.26
392.734	0.22
392.94	0.26
393.146	0.2
393.352	0.28
393.557	0.22
393.763	0.2
393.969	0.27
394.175	0.25
394.381	0.28
394.587	0.2
394.792	0.22
394.998	0.27
395.204	0.32
395.41	0.21
395.615	0.27
395.821	0.27
396.027	0.31
396.233	0.24
396.438	0.27
396.644	0.32
396.85	0.33
397.055	0.24
397.261	0.28
397.466	0.37
397.672	0.31
397.878	0.32
398.083	0.33
398.289	0.25
398.494	0.36
398.7	0.33
398.905	0.21
399.111	0.38
399.316	0.22
399.522	0.27
399.727	0.3
399.932	0.27
400.138	0.3
400.343	0.31
400.549	0.28
400.754	0.3
400.959	0.35
401.165	0.31
401.37	0.34
401.575	0.37
401.78	0.29
401.986	0.34
402.191	0.29
402.396	0.33
402.601	0.34
402.807	0.33
403.012	0.31
403.217	0.38
403.422	0.37
403.627	0.33
403.832	0.33
404.037	0.37
404.243	0.36
404.448	0.31
404.653	0.34
404.858	0.38
405.063	0.4
405.268	0.32
405.473	0.34
405.678	0.35
405.883	0.59
406.088	0.42
406.293	0.34
406.498	0.34
406.703	0.43
406.907	0.39
407.112	0.35
407.317	0.42
407.522	0.51
407.727	0.41
407.932	0.47
408.136	0.56
408.341	0.42
408.546	0.49
408.751	0.51
408.956	0.51
409.16	0.58
409.365	0.53
409.57	0.51
409.774	0.48
409.979	0.61
410.184	0.59
410.388	0.49
410.593	0.63
410.798	0.58
411.002	0.57
411.207	0.64
411.411	0.66
411.616	0.61
411.82	0.67
412.025	0.7
412.229	0.68
412.434	0.81
412.638	0.76
412.843	0.78
413.047	0.81
413.252	0.75
413.456	0.83
413.66	0.82
413.865	0.9
414.069	1.01
414.273	0.86
414.478	0.92
414.682	0.97
414.886	0.98
415.091	0.93
415.295	1.01
415.499	1.17
415.703	1.07
415.908	1.2
416.112	1.12
416.316	1.28
416.52	1.3
416.724	1.25
416.929	1.29
417.133	1.53
417.337	1.44
417.541	1.43
417.745	1.52
417.949	1.65
418.153	1.65
418.357	1.66
418.561	1.85
418.765	1.77
418.969	1.94
419.173	2
419.377	1.96
419.581	2.21
419.785	2.14
419.989	2.1
420.193	2.23
420.397	2.37
420.601	2.44
420.804	2.6
421.008	2.58
421.212	2.72
421.416	2.65
421.62	2.63
421.823	2.72
422.027	2.82
422.231	2.84
422.435	2.78
422.638	2.89
422.842	2.99
423.046	3.08
423.249	3.27
423.453	3.28
423.657	3.43
423.86	3.49
424.064	3.53
424.268	3.75
424.471	3.71
424.675	3.95
424.878	3.96
425.082	4.07
425.285	4.24
425.489	4.16
425.692	4.32
425.896	4.33
426.099	4.52
426.303	4.61
426.506	4.71
426.71	4.92
426.913	5.19
427.116	5.21
427.32	5.28
427.523	5.29
427.726	5.57
427.93	5.56
428.133	5.79
428.336	6.03
428.54	6.05
428.743	6.35
428.946	6.51
429.149	6.49
429.353	6.54
429.556	6.47
429.759	6.64
429.962	6.72
430.165	6.92
430.368	6.59
430.571	6.59
430.775	6.71
430.978	6.64
431.181	6.74
431.384	6.81
431.587	6.87
431.79	7.2
431.993	7.15
432.196	7.44
432.399	7.67
432.602	7.77
432.805	7.9
433.008	8.26
433.211	8.2
433.414	8.63
433.616	8.48
433.819	8.41
434.022	8.61
434.225	8.77
434.428	8.76
434.631	9.25
434.833	8.98
435.036	9.14
435.239	9.34
435.442	9.4
435.645	9.57
435.847	9.6
436.05	9.86
436.253	10.12
436.455	10.06
436.658	9.96
436.861	10.29
437.063	10.4
437.266	10.3
437.468	10.67
437.671	10.91
437.874	10.96
438.076	10.71
438.279	11.21
438.481	11.27
438.684	11.87
438.886	11.49
439.089	11.84
439.291	11.79
439.494	12.05
439.696	12.19
439.899	12.79
440.101	13.09
440.303	13.15
440.506	13.99
440.708	13.64
440.91	13.95
441.113	14.03
441.315	14.39
441.517	14.07
441.72	14.5
441.922	14.21
442.124	14.2
442.326	14.38
442.529	14.79
442.731	14.77
442.933	14.94
443.135	14.76
443.337	14.89
443.539	15.25
443.742	14.96
443.944	15.56
444.146	15.27
444.348	15.4
444.55	15.22
444.752	15.44
444.954	15.49
445.156	15.4
445.358	15.72
445.56	15.87
445.762	15.76
445.964	16.04
446.166	15.74
446.368	15.8
446.57	15.84
446.772	15.49
446.974	15.26
447.175	15.57
447.377	15.36
447.579	15.67
447.781	15.42
447.983	15.37
448.184	14.9
448.386	15.22
448.588	14.81
448.79	14.83
448.991	15.1
449.193	14.96
449.395	14.44
449.597	14.16
449.798	14.05
450	13.71
450.202	13.78
450.403	13.66
450.605	13.52
450.806	13.34
451.008	13.12
451.21	12.91
451.411	12.55
451.613	11.98
451.814	12.09
452.016	12.15
452.217	11.48
452.419	11.48
452.62	11.3
452.821	11.07
453.023	10.86
453.224	10.68
453.426	10.22
453.627	9.54
453.828	9.77
454.03	9.72
454.231	9.75
454.432	9.54
454.634	9.36
454.835	9.07
455.036	8.91
455.238	8.71
455.439	8.43
455.64	8.23
455.841	8.03
456.042	8.18
456.244	7.88
456.445	7.68
456.646	7.34
456.847	7.37
457.048	7.32
457.249	7.32
457.45	7.02
457.651	6.55
457.852	6.53
458.054	6.14
458.255	6.25
458.456	6.32
458.657	6.19
458.858	5.87
459.058	5.67
459.259	5.81
459.46	5.55
459.661	5.44
459.862	5.58
460.063	5.46
460.264	5.28
460.465	5.05
460.666	5.21
460.866	4.95
461.067	4.78
461.268	4.73
461.469	4.73
461.67	4.64
461.87	4.44
462.071	4.46
462.272	4.4
462.473	4.27
462.673	4.44
462.874	4.37
463.075	4.4
463.275	4.34
463.476	4.35
463.676	4.35
463.877	4.19
464.078	4.23
464.278	4.27
464.479	4.09
464.679	4.05
464.88	3.99
465.08	3.98
465.281	3.88
465.481	3.73
465.682	3.51
465.882	3.55
466.083	3.49
466.283	3.46
466.483	3.3
466.684	3.16
466.884	3.09
467.085	3.17
467.285	3.2
467.485	3.07
467.686	3.03
467.886	2.9
468.086	2.89
468.286	2.88
468.487	2.91
468.687	2.82
468.887	2.79
469.087	2.87
469.287	2.85
469.488	2.59
469.688	2.73
469.888	2.68
470.088	2.65
470.288	2.62
470.488	2.55
470.688	2.37
470.888	2.41
471.088	2.32
471.288	2.41
471.488	2.4
471.688	2.33
471.888	2.25
472.088	2.39
472.288	2.28
472.488	2.22
472.688	2.19
472.888	2.17
473.088	2.18
473.288	2.13
473.488	2.01
473.688	2.23
473.887	2.1
474.087	2.04
474.287	2.08
474.487	2.04
474.687	2.05
474.886	2
475.086	1.94
475.286	2.04
475.486	1.94
475.685	1.93
475.885	1.86
476.085	1.93
476.284	1.95
476.484	1.93
476.684	1.88
476.883	1.94
477.083	1.86
477.282	1.78
477.482	1.85
477.681	1.81
477.881	1.71
478.08	1.76
478.28	1.7
478.479	1.82
478.679	1.85
478.878	1.75
479.078	1.75
479.277	1.74
479.477	1.76
479.676	1.68
479.875	1.71
480.075	1.66
480.274	1.72
480.473	1.75
480.673	1.7
480.872	1.78
481.071	1.72
481.271	1.75
481.47	1.68
481.669	1.72
481.868	1.67
482.067	1.68
482.267	1.64
482.466	1.63
482.665	1.63
482.864	1.63
483.063	1.62
483.262	1.69
483.461	1.72
483.661	1.73
483.86	1.66
484.059	1.72
484.258	1.73
484.457	1.7
484.656	1.69
484.855	1.76
485.054	1.65
485.253	1.71
485.452	1.65
485.651	1.7
485.849	1.74
486.048	1.67
486.247	1.67
486.446	1.72
486.645	1.68
486.844	1.78
487.043	1.71
487.241	1.78
487.44	1.74
487.639	1.81
487.838	1.81
488.037	1.8
488.235	1.92
488.434	1.83
488.633	1.73
488.831	1.91
489.03	1.84
489.229	1.87
489.427	1.87
489.626	1.92
489.825	1.94
490.023	1.96
490.222	1.93
490.42	1.96
490.619	2
490.817	2.01
491.016	2.01
491.214	2.07
491.413	2.03
491.611	1.99
491.81	2.02
492.008	2.09
492.207	2.13
492.405	2.13
492.604	2.09
492.802	2.17
493	2.23
493.199	2.21
493.397	2.21
493.595	2.27
493.794	2.28
493.992	2.35
494.19	2.29
494.388	2.41
494.587	2.33
494.785	2.37
494.983	2.29
495.181	2.41
495.379	2.46
495.578	2.52
495.776	2.52
495.974	2.48
496.172	2.54
496.37	2.61
496.568	2.67
496.766	2.61
496.964	2.7
497.162	2.69
497.36	2.72
497.558	2.82
497.756	2.82
497.954	2.77
498.152	2.87
498.35	2.92
498.548	2.88
498.746	2.91
498.944	2.9
499.142	2.93
499.34	2.98
499.538	3.08
499.736	2.99
499.933	3.07
500.131	3.12
500.329	3.26
500.527	3.19
500.725	3.28
500.922	3.33
501.12	3.34
501.318	3.36
501.516	3.34
501.713	3.42
501.911	3.33
502.109	3.35
502.306	3.48
502.504	3.42
502.701	3.51
502.899	3.51
