Data from Apollo_Calib_20240827__AbsoluteIrradiance__827__12-56-01-277.txt Node

Date: Wed Aug 28 12:56:01 BST 2024
User: biology
Spectrometer: FLMT08252
Trigger mode: 0
Integration Time (sec): 5.000000E-1
Scans to average: 5
Electric dark correction enabled: true
Nonlinearity correction enabled: false
Boxcar width: 0
XAxis mode: Wavelengths
Number of Pixels in Spectrum: 3648
>>>>>Begin Spectral Data<<<<<
179.588	-0
179.809	-0
180.03	-0
180.251	-0
180.473	-0
180.694	0
180.915	0
181.136	-0
181.357	0
181.578	-0
181.799	-0
182.02	-0
182.241	-0
182.462	-0
182.683	0
182.904	-0
183.125	-0
183.346	0
183.567	0
183.788	0
184.009	0
184.23	0
184.451	0
184.672	0
184.892	0
185.113	0
185.334	0
185.555	0
185.776	0
185.996	0
186.217	0
186.438	0
186.659	0
186.879	0
187.1	0
187.321	0
187.541	0
187.762	0
187.983	0
188.203	0
188.424	0
188.644	0
188.865	0
189.086	0
189.306	0
189.527	0
189.747	0
189.968	0
190.188	0
190.409	0
190.629	0
190.849	0
191.07	0
191.29	0
191.511	0
191.731	0
191.951	0
192.172	0
192.392	0
192.612	0
192.833	0
193.053	0
193.273	0
193.493	0
193.714	0
193.934	0
194.154	0
194.374	0
194.594	0
194.815	0
195.035	0
195.255	0
195.475	0
195.695	0
195.915	0
196.135	0
196.355	0
196.575	0
196.795	0
197.015	0
197.235	0
197.455	0
197.675	0
197.895	0
198.115	0
198.335	0
198.555	0
198.775	0
198.995	0
199.214	0
199.434	0
199.654	0
199.874	0
200.094	4.72
200.313	2.83
200.533	1.91
200.753	1.8
200.973	3.74
201.192	3.14
201.412	1.45
201.632	1.9
201.851	3.38
202.071	1.95
202.291	1.31
202.51	1.41
202.73	2.55
202.95	1.87
203.169	1.3
203.389	1.87
203.608	2.26
203.828	1.27
204.047	1.39
204.267	1.82
204.486	1.85
204.706	2.6
204.925	1.49
205.145	0.94
205.364	2.43
205.583	2.68
205.803	1.06
206.022	1.08
206.242	1.81
206.461	1.28
206.68	1.27
206.9	1.9
207.119	2.52
207.338	2.2
207.557	1.11
207.777	1.36
207.996	1.24
208.215	2.11
208.434	0.88
208.654	0.8
208.873	1.53
209.092	2.03
209.311	1
209.53	0.97
209.749	0.92
209.968	1.1
210.187	0.9
210.407	0.82
210.626	1.22
210.845	1.63
211.064	1.03
211.283	0.58
211.502	1.35
211.721	1.17
211.94	1.12
212.159	1.17
212.377	1.39
212.596	1.24
212.815	1.16
213.034	1.25
213.253	1.37
213.472	1.26
213.691	1.02
213.91	0.84
214.128	0.66
214.347	1.66
214.566	0.54
214.785	0.53
215.003	1.32
215.222	1.08
215.441	0.84
215.66	0.47
215.878	1.06
216.097	1.17
216.316	0.6
216.534	0.91
216.753	1.02
216.972	0.78
217.19	1.01
217.409	0.63
217.627	0.68
217.846	0.64
218.064	0.85
218.283	0.38
218.501	1.41
218.72	1.34
218.938	0.64
219.157	0.66
219.375	1.12
219.594	1.17
219.812	0.45
220.031	0.46
220.249	1.17
220.467	1.09
220.686	0.62
220.904	0.7
221.122	0.68
221.341	1.08
221.559	0.83
221.777	0.55
221.995	0.75
222.214	0.83
222.432	0.57
222.65	0.86
222.868	0.74
223.086	0.89
223.305	0.76
223.523	0.49
223.741	1.06
223.959	0.84
224.177	0.42
224.395	0.54
224.613	0.8
224.831	0.85
225.049	0.33
225.267	0.52
225.485	0.68
225.703	0.43
225.921	0.58
226.139	0.6
226.357	0.75
226.575	0.69
226.793	0.5
227.011	1.55
227.229	0.64
227.447	0.93
227.665	0.45
227.883	0.46
228.1	0.61
228.318	0.78
228.536	0.26
228.754	0.37
228.972	0.71
229.189	0.77
229.407	0.53
229.625	0.51
229.843	0.85
230.06	0.74
230.278	0.63
230.496	0.68
230.713	0.64
230.931	0.74
231.149	0.54
231.366	0.33
231.584	0.47
231.801	1.03
232.019	0.5
232.236	0.33
232.454	0.53
232.671	0.61
232.889	0.47
233.106	0.36
233.324	0.47
233.541	0.6
233.759	0.5
233.976	0.36
234.194	0.6
234.411	0.54
234.628	0.37
234.846	0.48
235.063	0.57
235.28	0.55
235.498	0.36
235.715	0.33
235.932	0.75
236.149	0.65
236.367	0.35
236.584	0.45
236.801	0.44
237.018	0.8
237.236	0.37
237.453	0.29
237.67	0.53
237.887	0.62
238.104	0.47
238.321	0.32
238.538	0.39
238.755	0.72
238.973	0.33
239.19	0.54
239.407	0.6
239.624	0.53
239.841	0.35
240.058	0.4
240.275	0.51
240.492	0.53
240.709	0.43
240.925	0.45
241.142	0.5
241.359	0.39
241.576	0.35
241.793	0.37
242.01	0.45
242.227	0.65
242.444	0.49
242.66	0.58
242.877	0.62
243.094	0.4
243.311	0.5
243.527	0.4
243.744	0.56
243.961	0.48
244.178	0.34
244.394	0.46
244.611	0.67
244.828	0.77
245.044	0.35
245.261	0.4
245.477	0.49
245.694	0.49
245.911	0.39
246.127	0.54
246.344	0.7
246.56	0.52
246.777	0.36
246.993	0.48
247.21	0.47
247.426	0.6
247.643	0.35
247.859	0.31
248.076	0.35
248.292	0.74
248.508	0.29
248.725	0.46
248.941	0.47
249.157	0.58
249.374	0.28
249.59	0.37
249.806	0.48
250.023	0.48
250.239	0.3
250.455	0.29
250.671	0.45
250.888	0.48
251.104	0.49
251.32	0.28
251.536	0.32
251.752	0.43
251.969	0.41
252.185	0.47
252.401	0.64
252.617	0.49
252.833	0.3
253.049	0.42
253.265	0.49
253.481	0.42
253.697	0.32
253.913	0.38
254.129	0.47
254.345	0.45
254.561	0.45
254.777	0.34
254.993	0.51
255.209	0.42
255.425	0.33
255.641	0.3
255.857	0.47
256.073	0.46
256.288	0.28
256.504	0.26
256.72	0.43
256.936	0.53
257.152	0.36
257.367	0.26
257.583	0.47
257.799	0.44
258.015	0.29
258.23	0.24
258.446	0.62
258.662	0.33
258.877	0.26
259.093	0.24
259.309	0.4
259.524	0.41
259.74	0.29
259.955	0.24
260.171	0.4
260.387	0.38
260.602	0.43
260.818	0.39
261.033	0.26
261.249	0.38
261.464	0.26
261.68	0.23
261.895	0.39
262.11	0.46
262.326	0.36
262.541	0.25
262.757	0.52
262.972	0.44
263.187	0.35
263.403	0.38
263.618	0.46
263.833	0.41
264.049	0.27
264.264	0.36
264.479	0.36
264.694	0.54
264.91	0.24
265.125	0.3
265.34	0.48
265.555	0.57
265.77	0.4
265.986	0.32
266.201	0.38
266.416	0.41
266.631	0.28
266.846	0.29
267.061	0.39
267.276	0.44
267.491	0.16
267.706	0.41
267.921	0.33
268.136	0.31
268.351	0.34
268.566	0.2
268.781	0.5
268.996	0.48
269.211	0.35
269.426	0.3
269.641	0.36
269.856	0.43
270.071	0.27
270.285	0.19
270.5	0.44
270.715	0.38
270.93	0.29
271.145	0.37
271.359	0.45
271.574	0.3
271.789	0.3
272.004	0.26
272.218	0.28
272.433	0.4
272.648	0.25
272.862	0.37
273.077	0.4
273.292	0.31
273.506	0.28
273.721	0.28
273.936	0.38
274.15	0.47
274.365	0.28
274.579	0.37
274.794	0.43
275.008	0.43
275.223	0.21
275.437	0.36
275.652	0.44
275.866	0.34
276.081	0.28
276.295	0.45
276.509	0.29
276.724	0.31
276.938	0.33
277.153	0.38
277.367	0.38
277.581	0.32
277.796	0.27
278.01	0.21
278.224	0.37
278.438	0.47
278.653	0.19
278.867	0.24
279.081	0.17
279.295	0.27
279.51	0.3
279.724	0.17
279.938	0.38
280.152	0.36
280.366	0.24
280.58	0.3
280.794	0.45
281.008	0.35
281.222	0.31
281.437	0.46
281.651	0.38
281.865	0.4
282.079	0.29
282.293	0.11
282.507	0.26
282.721	0.31
282.935	0.24
283.148	0.2
283.362	0.26
283.576	0.25
283.79	0.3
284.004	0.17
284.218	0.4
284.432	0.24
284.646	0.28
284.859	0.24
285.073	0.24
285.287	0.28
285.501	0.31
285.714	0.28
285.928	0.3
286.142	0.35
286.356	0.25
286.569	0.26
286.783	0.4
286.997	0.35
287.21	0.25
287.424	0.27
287.637	0.27
287.851	0.29
288.065	0.34
288.278	0.28
288.492	0.31
288.705	0.27
288.919	0.3
289.132	0.2
289.346	0.36
289.559	0.17
289.773	0.28
289.986	0.24
290.2	0.27
290.413	0.4
290.626	0.21
290.84	0.25
291.053	0.29
291.267	0.36
291.48	0.34
291.693	0.22
291.906	0.24
292.12	0.28
292.333	0.22
292.546	0.24
292.76	0.37
292.973	0.29
293.186	0.29
293.399	0.23
293.612	0.34
293.826	0.26
294.039	0.22
294.252	0.24
294.465	0.33
294.678	0.31
294.891	0.25
295.104	0.2
295.317	0.2
295.53	0.27
295.743	0.26
295.956	0.27
296.169	0.35
296.382	0.32
296.595	0.2
296.808	0.24
297.021	0.37
297.234	0.31
297.447	0.26
297.66	0.26
297.873	0.37
298.086	0.31
298.299	0.2
298.511	0.15
298.724	0.27
298.937	0.21
299.15	0.17
299.363	0.27
299.575	0.35
299.788	0.27
300.001	0.25
300.213	0.16
300.426	0.26
300.639	0.24
300.852	0.22
301.064	0.28
301.277	0.37
301.489	0.34
301.702	0.3
301.915	0.26
302.127	0.22
302.34	0.27
302.552	0.27
302.765	0.18
302.977	0.32
303.19	0.23
303.402	0.25
303.615	0.23
303.827	0.3
304.04	0.28
304.252	0.3
304.464	0.27
304.677	0.42
304.889	0.27
305.102	0.21
305.314	0.15
305.526	0.35
305.739	0.28
305.951	0.23
306.163	0.25
306.375	0.35
306.588	0.25
306.8	0.24
307.012	0.19
307.224	0.3
307.436	0.33
307.649	0.19
307.861	0.24
308.073	0.3
308.285	0.23
308.497	0.19
308.709	0.24
308.921	0.27
309.133	0.32
309.346	0.29
309.558	0.26
309.77	0.26
309.982	0.38
310.194	0.3
310.406	0.19
310.617	0.37
310.829	0.25
311.041	0.26
311.253	0.19
311.465	0.25
311.677	0.22
311.889	0.22
312.101	0.2
312.313	0.35
312.524	0.34
312.736	0.2
312.948	0.23
313.16	0.37
313.372	0.34
313.583	0.2
313.795	0.22
314.007	0.22
314.218	0.32
314.43	0.23
314.642	0.18
314.853	0.17
315.065	0.31
315.277	0.22
315.488	0.25
315.7	0.33
315.912	0.28
316.123	0.25
316.335	0.24
316.546	0.35
316.758	0.25
316.969	0.2
317.181	0.26
317.392	0.25
317.604	0.31
317.815	0.19
318.026	0.22
318.238	0.22
318.449	0.26
318.661	0.17
318.872	0.18
319.083	0.21
319.295	0.32
319.506	0.27
319.717	0.25
319.929	0.32
320.14	0.29
320.351	0.23
320.562	0.22
320.774	0.28
320.985	0.3
321.196	0.22
321.407	0.17
321.618	0.32
321.829	0.27
322.041	0.29
322.252	0.26
322.463	0.34
322.674	0.32
322.885	0.22
323.096	0.24
323.307	0.27
323.518	0.29
323.729	0.22
323.94	0.2
324.151	0.23
324.362	0.31
324.573	0.27
324.784	0.22
324.995	0.31
325.206	0.3
325.417	0.24
325.628	0.17
325.838	0.25
326.049	0.25
326.26	0.31
326.471	0.24
326.682	0.27
326.892	0.21
327.103	0.19
327.314	0.18
327.525	0.29
327.735	0.28
327.946	0.21
328.157	0.2
328.368	0.3
328.578	0.26
328.789	0.27
328.999	0.25
329.21	0.24
329.421	0.27
329.631	0.18
329.842	0.23
330.052	0.24
330.263	0.27
330.473	0.25
330.684	0.22
330.894	0.28
331.105	0.29
331.315	0.24
331.526	0.19
331.736	0.31
331.947	0.33
332.157	0.25
332.367	0.12
332.578	0.3
332.788	0.35
332.999	0.3
333.209	0.23
333.419	0.21
333.629	0.3
333.84	0.32
334.05	0.23
334.26	0.35
334.47	0.28
334.681	0.31
334.891	0.25
335.101	0.26
335.311	0.39
335.521	0.25
335.732	0.21
335.942	0.3
336.152	0.28
336.362	0.27
336.572	0.25
336.782	0.31
336.992	0.21
337.202	0.24
337.412	0.23
337.622	0.3
337.832	0.21
338.042	0.21
338.252	0.19
338.462	0.25
338.672	0.24
338.882	0.26
339.092	0.28
339.302	0.33
339.511	0.26
339.721	0.21
339.931	0.15
340.141	0.33
340.351	0.29
340.561	0.29
340.77	0.21
340.98	0.27
341.19	0.25
341.4	0.28
341.609	0.23
341.819	0.26
342.029	0.16
342.238	0.27
342.448	0.21
342.658	0.33
342.867	0.27
343.077	0.26
343.286	0.27
343.496	0.31
343.706	0.32
343.915	0.16
344.125	0.2
344.334	0.28
344.544	0.22
344.753	0.21
344.963	0.21
345.172	0.23
345.381	0.22
345.591	0.22
345.8	0.22
346.01	0.33
346.219	0.32
346.428	0.22
346.638	0.25
346.847	0.25
347.056	0.3
347.266	0.22
347.475	0.17
347.684	0.28
347.893	0.29
348.103	0.25
348.312	0.18
348.521	0.26
348.73	0.27
348.94	0.24
349.149	0.22
349.358	0.2
349.567	0.23
349.776	0.16
349.985	0.21
350.194	0.31
350.403	0.32
350.612	0.15
350.821	0.18
351.03	0.24
351.239	0.18
351.448	0.26
351.657	0.2
351.866	0.34
352.075	0.25
352.284	0.27
352.493	0.25
352.702	0.28
352.911	0.23
353.12	0.26
353.329	0.24
353.538	0.27
353.746	0.26
353.955	0.17
354.164	0.28
354.373	0.25
354.582	0.3
354.79	0.2
354.999	0.29
355.208	0.23
355.416	0.33
355.625	0.15
355.834	0.22
356.042	0.29
356.251	0.2
356.46	0.23
356.668	0.24
356.877	0.34
357.085	0.3
357.294	0.18
357.503	0.23
357.711	0.2
357.92	0.41
358.128	0.24
358.337	0.19
358.545	0.27
358.754	0.22
358.962	0.26
359.17	0.22
359.379	0.28
359.587	0.25
359.796	0.25
360.004	0.29
360.212	0.26
360.421	0.3
360.629	0.23
360.837	0.21
361.046	0.29
361.254	0.38
361.462	0.27
361.67	0.22
361.879	0.26
362.087	0.3
362.295	0.24
362.503	0.19
362.711	0.18
362.92	0.22
363.128	0.19
363.336	0.17
363.544	0.17
363.752	0.23
363.96	0.25
364.168	0.21
364.376	0.22
364.584	0.25
364.792	0.27
365	0.29
365.208	0.26
365.416	0.26
365.624	0.31
365.832	0.19
366.04	0.37
366.248	0.23
366.456	0.27
366.664	0.25
366.872	0.24
367.079	0.23
367.287	0.22
367.495	0.22
367.703	0.25
367.911	0.23
368.118	0.25
368.326	0.28
368.534	0.2
368.742	0.37
368.949	0.2
369.157	0.19
369.365	0.28
369.572	0.27
369.78	0.2
369.988	0.28
370.195	0.28
370.403	0.31
370.61	0.2
370.818	0.24
371.026	0.34
371.233	0.21
371.441	0.23
371.648	0.24
371.856	0.25
372.063	0.3
372.271	0.22
372.478	0.19
372.685	0.23
372.893	0.32
373.1	0.24
373.308	0.18
373.515	0.37
373.722	0.26
373.93	0.2
374.137	0.27
374.344	0.33
374.552	0.3
374.759	0.29
374.966	0.26
375.173	0.25
375.381	0.3
375.588	0.25
375.795	0.18
376.002	0.25
376.209	0.24
376.417	0.26
376.624	0.34
376.831	0.27
377.038	0.27
377.245	0.2
377.452	0.24
377.659	0.32
377.866	0.26
378.073	0.24
378.28	0.23
378.487	0.36
378.694	0.32
378.901	0.29
379.108	0.24
379.315	0.31
379.522	0.4
379.729	0.31
379.936	0.28
380.143	0.28
380.35	0.3
380.557	0.24
380.763	0.26
380.97	0.29
381.177	0.27
381.384	0.28
381.591	0.25
381.797	0.29
382.004	0.31
382.211	0.3
382.418	0.22
382.624	0.31
382.831	0.36
383.038	0.23
383.244	0.27
383.451	0.3
383.658	0.32
383.864	0.25
384.071	0.24
384.277	0.34
384.484	0.26
384.69	0.31
384.897	0.25
385.103	0.28
385.31	0.23
385.516	0.27
385.723	0.19
385.929	0.29
386.136	0.25
386.342	0.28
386.549	0.23
386.755	0.36
386.961	0.31
387.168	0.26
387.374	0.24
387.58	0.33
387.787	0.28
387.993	0.29
388.199	0.27
388.406	0.26
388.612	0.27
388.818	0.28
389.024	0.25
389.231	0.27
389.437	0.43
389.643	0.32
389.849	0.31
390.055	0.31
390.261	0.29
390.467	0.31
390.674	0.25
390.88	0.27
391.086	0.32
391.292	0.24
391.498	0.34
391.704	0.32
391.91	0.3
392.116	0.23
392.322	0.23
392.528	0.32
392.734	0.29
392.94	0.35
393.146	0.31
393.352	0.27
393.557	0.29
393.763	0.3
393.969	0.35
394.175	0.3
394.381	0.31
394.587	0.25
394.792	0.3
394.998	0.35
395.204	0.37
395.41	0.23
395.615	0.3
395.821	0.33
396.027	0.38
396.233	0.26
396.438	0.34
396.644	0.36
396.85	0.36
397.055	0.3
397.261	0.31
397.466	0.47
397.672	0.34
397.878	0.38
398.083	0.37
398.289	0.27
398.494	0.39
398.7	0.33
398.905	0.25
399.111	0.42
399.316	0.28
399.522	0.34
399.727	0.35
399.932	0.35
400.138	0.32
400.343	0.37
400.549	0.31
400.754	0.35
400.959	0.38
401.165	0.32
401.37	0.36
401.575	0.51
401.78	0.39
401.986	0.37
402.191	0.33
402.396	0.39
402.601	0.43
402.807	0.4
403.012	0.39
403.217	0.46
403.422	0.42
403.627	0.42
403.832	0.36
404.037	0.5
404.243	0.47
404.448	0.4
404.653	0.36
404.858	0.41
405.063	0.47
405.268	0.36
405.473	0.41
405.678	0.41
405.883	0.65
406.088	0.47
406.293	0.39
406.498	0.47
406.703	0.5
406.907	0.45
407.112	0.44
407.317	0.55
407.522	0.58
407.727	0.42
407.932	0.54
408.136	0.66
408.341	0.53
408.546	0.56
408.751	0.54
408.956	0.57
409.16	0.65
409.365	0.59
409.57	0.62
409.774	0.62
409.979	0.66
410.184	0.68
410.388	0.61
410.593	0.73
410.798	0.73
411.002	0.69
411.207	0.8
411.411	0.76
411.616	0.7
411.82	0.79
412.025	0.8
412.229	0.76
412.434	0.97
412.638	0.91
412.843	0.87
413.047	0.91
413.252	0.95
413.456	0.99
413.66	1.04
413.865	0.98
414.069	1.15
414.273	1.05
414.478	1.09
414.682	1.18
414.886	1.22
415.091	1.19
415.295	1.15
415.499	1.32
415.703	1.33
415.908	1.38
416.112	1.34
416.316	1.58
416.52	1.55
416.724	1.54
416.929	1.56
417.133	1.8
417.337	1.71
417.541	1.72
417.745	1.82
417.949	1.93
418.153	1.98
418.357	1.96
418.561	2.17
418.765	2.06
418.969	2.29
419.173	2.34
419.377	2.31
419.581	2.59
419.785	2.58
419.989	2.56
420.193	2.67
420.397	2.73
420.601	2.94
420.804	3.01
421.008	2.97
421.212	3.15
421.416	3.22
421.62	3.16
421.823	3.25
422.027	3.39
422.231	3.32
422.435	3.36
422.638	3.46
422.842	3.57
423.046	3.61
423.249	3.8
423.453	3.79
423.657	3.93
423.86	4.04
424.064	4.17
424.268	4.31
424.471	4.35
424.675	4.55
424.878	4.61
425.082	4.63
425.285	5.08
425.489	4.85
425.692	5.07
425.896	5.07
426.099	5.29
426.303	5.44
426.506	5.5
426.71	5.7
426.913	6.04
427.116	6.14
427.32	6.09
427.523	6.2
427.726	6.47
427.93	6.61
428.133	6.92
428.336	6.92
428.54	7.15
428.743	7.45
428.946	7.69
429.149	7.73
429.353	7.67
429.556	7.88
429.759	7.76
429.962	7.97
430.165	8.03
430.368	7.76
430.571	7.82
430.775	7.95
430.978	7.84
431.181	7.94
431.384	8.13
431.587	8.13
431.79	8.46
431.993	8.47
432.196	8.73
432.399	9.09
432.602	9.23
432.805	9.4
433.008	9.81
433.211	9.74
433.414	10.23
433.616	10.08
433.819	10.19
434.022	10.31
434.225	10.34
434.428	10.45
434.631	10.89
434.833	10.58
435.036	10.85
435.239	11.18
435.442	11.26
435.645	11.4
435.847	11.35
436.05	11.74
436.253	12.06
436.455	12
436.658	11.85
436.861	12.16
437.063	12.3
437.266	12.21
437.468	12.69
437.671	12.82
437.874	12.97
438.076	12.74
438.279	13.25
438.481	13.37
438.684	14.02
438.886	13.61
439.089	13.96
439.291	13.93
439.494	14.18
439.696	14.41
439.899	14.92
440.101	15.43
440.303	15.58
440.506	16.32
440.708	15.98
440.91	16.23
441.113	16.43
441.315	16.8
441.517	16.48
441.72	17.05
441.922	16.61
442.124	16.59
442.326	16.97
442.529	17.04
442.731	17.06
442.933	17.59
443.135	17.25
443.337	17.21
443.539	17.77
443.742	17.62
443.944	18.13
444.146	17.84
444.348	17.88
444.55	17.63
444.752	17.83
444.954	17.97
445.156	17.72
445.358	18.21
445.56	18.51
445.762	18.26
445.964	18.59
446.166	18.33
446.368	18.38
446.57	18.45
446.772	17.91
446.974	17.81
447.175	18.18
447.377	17.74
447.579	18.23
447.781	18
447.983	17.75
448.184	17.23
448.386	17.69
448.588	17.15
448.79	17.14
448.991	17.4
449.193	17.38
449.395	16.82
449.597	16.58
449.798	16.32
450	15.98
450.202	15.83
450.403	15.97
450.605	15.85
450.806	15.47
451.008	15.32
451.21	15.12
451.411	14.75
451.613	13.92
451.814	14.27
452.016	14.2
452.217	13.4
452.419	13.44
452.62	13.08
452.821	12.89
453.023	12.79
453.224	12.36
453.426	11.95
453.627	11.32
453.828	11.41
454.03	11.46
454.231	11.39
454.432	11.25
454.634	11.04
454.835	10.58
455.036	10.62
455.238	10.28
455.439	9.93
455.64	9.69
455.841	9.6
456.042	9.71
456.244	9.35
456.445	9.02
456.646	8.72
456.847	8.77
457.048	8.58
457.249	8.64
457.45	8.37
457.651	7.87
457.852	7.77
458.054	7.48
458.255	7.27
458.456	7.48
458.657	7.37
458.858	6.84
459.058	6.76
459.259	6.85
459.46	6.55
459.661	6.51
459.862	6.54
460.063	6.53
460.264	6.36
460.465	6.11
460.666	6.13
460.866	5.92
461.067	5.6
461.268	5.62
461.469	5.54
461.67	5.49
461.87	5.22
462.071	5.38
462.272	5.32
462.473	5.19
462.673	5.33
462.874	5.34
463.075	5.29
463.275	5.18
463.476	5.29
463.676	5.16
463.877	5.06
464.078	5.02
464.278	5.09
464.479	4.89
464.679	4.89
464.88	4.79
465.08	4.77
465.281	4.56
465.481	4.36
465.682	4.18
465.882	4.27
466.083	4.19
466.283	4.12
466.483	3.92
466.684	3.82
466.884	3.7
467.085	3.8
467.285	3.84
467.485	3.67
467.686	3.66
467.886	3.53
468.086	3.4
468.286	3.42
468.487	3.49
468.687	3.29
468.887	3.29
469.087	3.37
469.287	3.35
469.488	3.13
469.688	3.27
469.888	3.29
470.088	3.21
470.288	3.15
470.488	3.17
470.688	2.92
470.888	2.97
471.088	2.75
471.288	2.94
471.488	2.79
471.688	2.81
471.888	2.73
472.088	2.91
472.288	2.72
472.488	2.68
472.688	2.65
472.888	2.63
473.088	2.66
473.288	2.52
473.488	2.57
473.688	2.73
473.887	2.55
474.087	2.53
474.287	2.46
474.487	2.42
474.687	2.43
474.886	2.47
475.086	2.41
475.286	2.34
475.486	2.33
475.685	2.28
475.885	2.27
476.085	2.32
476.284	2.29
476.484	2.35
476.684	2.27
476.883	2.35
477.083	2.22
477.282	2.23
477.482	2.23
477.681	2.23
477.881	2.12
478.08	2.1
478.28	2.11
478.479	2.14
478.679	2.21
478.878	2.06
479.078	2.06
479.277	2.16
479.477	2.11
479.676	2.04
479.875	2.03
480.075	1.98
480.274	2.06
480.473	2.09
480.673	2.03
480.872	2.15
481.071	2.02
481.271	2.07
481.47	1.97
481.669	2.05
481.868	1.99
482.067	2
482.267	1.95
482.466	1.96
482.665	1.98
482.864	1.97
483.063	1.96
483.262	2.06
483.461	2.1
483.661	2.09
483.86	1.98
484.059	2.08
484.258	2.1
484.457	2.07
484.656	2
484.855	2.14
485.054	1.98
485.253	1.99
485.452	2
485.651	2.08
485.849	2.04
486.048	2.01
486.247	2.08
486.446	2.12
486.645	2.05
486.844	2.1
487.043	2.07
487.241	2.1
487.44	2.09
487.639	2.16
487.838	2.15
488.037	2.11
488.235	2.19
488.434	2.2
488.633	2.05
488.831	2.27
489.03	2.23
489.229	2.29
489.427	2.21
489.626	2.3
489.825	2.29
490.023	2.33
490.222	2.27
490.42	2.34
490.619	2.38
490.817	2.39
491.016	2.39
491.214	2.43
491.413	2.42
491.611	2.37
491.81	2.39
492.008	2.48
492.207	2.52
492.405	2.49
492.604	2.47
492.802	2.57
493	2.62
493.199	2.63
493.397	2.63
493.595	2.72
493.794	2.67
493.992	2.79
494.19	2.73
494.388	2.81
494.587	2.78
494.785	2.79
494.983	2.72
495.181	2.86
495.379	2.9
495.578	2.94
495.776	2.94
495.974	2.93
496.172	3.02
496.37	3.07
496.568	3.1
496.766	3.08
496.964	3.18
497.162	3.18
497.36	3.25
497.558	3.23
497.756	3.34
497.954	3.29
498.152	3.32
498.35	3.43
498.548	3.37
498.746	3.42
498.944	3.41
499.142	3.44
499.34	3.52
499.538	3.64
499.736	3.5
499.933	3.64
500.131	3.63
500.329	3.78
500.527	3.76
500.725	3.8
500.922	3.87
501.12	3.89
501.318	3.95
501.516	3.93
501.713	4.06
501.911	4.01
502.109	3.92
502.306	4.08
502.504	3.98
502.701	4.08
