Data from Apollo_Calib_20240827__AbsoluteIrradiance__861__13-30-02-799.txt Node

Date: Wed Aug 28 13:30:02 BST 2024
User: biology
Spectrometer: FLMT08252
Trigger mode: 0
Integration Time (sec): 5.000000E-1
Scans to average: 5
Electric dark correction enabled: true
Nonlinearity correction enabled: false
Boxcar width: 0
XAxis mode: Wavelengths
Number of Pixels in Spectrum: 3648
>>>>>Begin Spectral Data<<<<<
179.588	-0
179.809	-0
180.03	-0
180.251	-0
180.473	-0
180.694	0
180.915	0
181.136	-0
181.357	0
181.578	-0
181.799	-0
182.02	-0
182.241	-0
182.462	-0
182.683	0
182.904	-0
183.125	-0
183.346	0
183.567	0
183.788	0
184.009	0
184.23	0
184.451	0
184.672	0
184.892	0
185.113	0
185.334	0
185.555	0
185.776	0
185.996	0
186.217	0
186.438	0
186.659	0
186.879	0
187.1	0
187.321	0
187.541	0
187.762	0
187.983	0
188.203	0
188.424	0
188.644	0
188.865	0
189.086	0
189.306	0
189.527	0
189.747	0
189.968	0
190.188	0
190.409	0
190.629	0
190.849	0
191.07	0
191.29	0
191.511	0
191.731	0
191.951	0
192.172	0
192.392	0
192.612	0
192.833	0
193.053	0
193.273	0
193.493	0
193.714	0
193.934	0
194.154	0
194.374	0
194.594	0
194.815	0
195.035	0
195.255	0
195.475	0
195.695	0
195.915	0
196.135	0
196.355	0
196.575	0
196.795	0
197.015	0
197.235	0
197.455	0
197.675	0
197.895	0
198.115	0
198.335	0
198.555	0
198.775	0
198.995	0
199.214	0
199.434	0
199.654	0
199.874	0
200.094	3.99
200.313	2.05
200.533	1.81
200.753	1.28
200.973	3.33
201.192	3.24
201.412	1.13
201.632	0.97
201.851	3.8
202.071	1.95
202.291	1.4
202.51	1.11
202.73	2.6
202.95	1.56
203.169	1
203.389	1.35
203.608	2.28
203.828	1.7
204.047	1.2
204.267	2.03
204.486	1.77
204.706	2
204.925	1.72
205.145	1.53
205.364	2.07
205.583	2.84
205.803	1.37
206.022	1.07
206.242	1.73
206.461	1.83
206.68	1.21
206.9	1.18
207.119	2.78
207.338	2.37
207.557	1.16
207.777	1.36
207.996	1.25
208.215	2.17
208.434	1.06
208.654	0.85
208.873	1.38
209.092	2.02
209.311	0.98
209.53	1.01
209.749	1.33
209.968	0.86
210.187	1.1
210.407	0.48
210.626	1.22
210.845	1.61
211.064	1.15
211.283	0.75
211.502	1.66
211.721	1.13
211.94	0.73
212.159	1.32
212.377	1.44
212.596	1.56
212.815	1.24
213.034	1.12
213.253	1.52
213.472	1.26
213.691	0.95
213.91	0.68
214.128	0.63
214.347	1.55
214.566	0.56
214.785	0.58
215.003	1.41
215.222	1.11
215.441	0.79
215.66	0.41
215.878	0.91
216.097	1.32
216.316	0.67
216.534	0.93
216.753	1.11
216.972	1.05
217.19	0.88
217.409	0.53
217.627	0.82
217.846	0.92
218.064	0.89
218.283	0.72
218.501	1.33
218.72	1.14
218.938	0.53
219.157	0.61
219.375	0.98
219.594	0.96
219.812	0.38
220.031	0.45
220.249	1.11
220.467	1.23
220.686	0.7
220.904	0.38
221.122	0.53
221.341	1.21
221.559	0.7
221.777	0.49
221.995	0.72
222.214	0.81
222.432	0.62
222.65	0.75
222.868	0.5
223.086	0.87
223.305	0.95
223.523	0.64
223.741	1.03
223.959	0.55
224.177	0.41
224.395	0.67
224.613	0.87
224.831	1.03
225.049	0.41
225.267	0.6
225.485	0.98
225.703	0.68
225.921	0.54
226.139	0.4
226.357	0.92
226.575	0.73
226.793	0.43
227.011	1.57
227.229	0.68
227.447	0.85
227.665	0.49
227.883	0.28
228.1	0.71
228.318	0.65
228.536	0.3
228.754	0.56
228.972	0.74
229.189	0.82
229.407	0.56
229.625	0.58
229.843	0.73
230.06	0.82
230.278	0.47
230.496	0.54
230.713	0.58
230.931	0.93
231.149	0.35
231.366	0.29
231.584	0.61
231.801	1.05
232.019	0.51
232.236	0.33
232.454	0.37
232.671	0.71
232.889	0.43
233.106	0.33
233.324	0.61
233.541	0.54
233.759	0.52
233.976	0.52
234.194	0.59
234.411	0.55
234.628	0.45
234.846	0.46
235.063	0.51
235.28	0.54
235.498	0.64
235.715	0.34
235.932	0.77
236.149	0.54
236.367	0.41
236.584	0.47
236.801	0.42
237.018	0.65
237.236	0.55
237.453	0.19
237.67	0.7
237.887	0.49
238.104	0.53
238.321	0.41
238.538	0.44
238.755	0.66
238.973	0.4
239.19	0.41
239.407	0.61
239.624	0.49
239.841	0.29
240.058	0.36
240.275	0.52
240.492	0.51
240.709	0.47
240.925	0.37
241.142	0.4
241.359	0.36
241.576	0.35
241.793	0.39
242.01	0.52
242.227	0.59
242.444	0.44
242.66	0.62
242.877	0.47
243.094	0.43
243.311	0.39
243.527	0.4
243.744	0.46
243.961	0.48
244.178	0.31
244.394	0.44
244.611	0.62
244.828	0.69
245.044	0.27
245.261	0.38
245.477	0.47
245.694	0.49
245.911	0.33
246.127	0.36
246.344	0.7
246.56	0.55
246.777	0.44
246.993	0.41
247.21	0.54
247.426	0.6
247.643	0.31
247.859	0.32
248.076	0.28
248.292	0.69
248.508	0.35
248.725	0.45
248.941	0.5
249.157	0.6
249.374	0.33
249.59	0.39
249.806	0.45
250.023	0.59
250.239	0.33
250.455	0.39
250.671	0.32
250.888	0.41
251.104	0.44
251.32	0.29
251.536	0.4
251.752	0.36
251.969	0.39
252.185	0.42
252.401	0.7
252.617	0.52
252.833	0.28
253.049	0.4
253.265	0.4
253.481	0.44
253.697	0.34
253.913	0.29
254.129	0.47
254.345	0.47
254.561	0.35
254.777	0.34
254.993	0.49
255.209	0.34
255.425	0.28
255.641	0.31
255.857	0.46
256.073	0.47
256.288	0.26
256.504	0.35
256.72	0.41
256.936	0.56
257.152	0.31
257.367	0.28
257.583	0.45
257.799	0.47
258.015	0.31
258.23	0.37
258.446	0.61
258.662	0.37
258.877	0.29
259.093	0.26
259.309	0.35
259.524	0.39
259.74	0.27
259.955	0.23
260.171	0.43
260.387	0.42
260.602	0.43
260.818	0.45
261.033	0.23
261.249	0.38
261.464	0.31
261.68	0.28
261.895	0.4
262.11	0.46
262.326	0.34
262.541	0.21
262.757	0.5
262.972	0.5
263.187	0.37
263.403	0.33
263.618	0.48
263.833	0.38
264.049	0.26
264.264	0.3
264.479	0.45
264.694	0.51
264.91	0.23
265.125	0.31
265.34	0.41
265.555	0.56
265.77	0.42
265.986	0.27
266.201	0.39
266.416	0.46
266.631	0.24
266.846	0.31
267.061	0.42
267.276	0.4
267.491	0.19
267.706	0.39
267.921	0.4
268.136	0.41
268.351	0.34
268.566	0.19
268.781	0.46
268.996	0.48
269.211	0.32
269.426	0.24
269.641	0.33
269.856	0.45
270.071	0.28
270.285	0.24
270.5	0.38
270.715	0.43
270.93	0.35
271.145	0.39
271.359	0.42
271.574	0.29
271.789	0.34
272.004	0.34
272.218	0.29
272.433	0.37
272.648	0.28
272.862	0.33
273.077	0.3
273.292	0.41
273.506	0.26
273.721	0.33
273.936	0.39
274.15	0.42
274.365	0.28
274.579	0.39
274.794	0.42
275.008	0.41
275.223	0.17
275.437	0.27
275.652	0.48
275.866	0.34
276.081	0.26
276.295	0.32
276.509	0.39
276.724	0.3
276.938	0.3
277.153	0.35
277.367	0.39
277.581	0.22
277.796	0.24
278.01	0.25
278.224	0.39
278.438	0.44
278.653	0.24
278.867	0.25
279.081	0.42
279.295	0.31
279.51	0.34
279.724	0.21
279.938	0.39
280.152	0.33
280.366	0.27
280.58	0.31
280.794	0.38
281.008	0.34
281.222	0.29
281.437	0.46
281.651	0.3
281.865	0.41
282.079	0.34
282.293	0.18
282.507	0.22
282.721	0.3
282.935	0.3
283.148	0.23
283.362	0.28
283.576	0.22
283.79	0.33
284.004	0.28
284.218	0.35
284.432	0.26
284.646	0.28
284.859	0.27
285.073	0.27
285.287	0.32
285.501	0.29
285.714	0.22
285.928	0.3
286.142	0.33
286.356	0.2
286.569	0.21
286.783	0.42
286.997	0.38
287.21	0.32
287.424	0.27
287.637	0.28
287.851	0.28
288.065	0.36
288.278	0.24
288.492	0.3
288.705	0.3
288.919	0.31
289.132	0.19
289.346	0.35
289.559	0.22
289.773	0.25
289.986	0.25
290.2	0.25
290.413	0.33
290.626	0.22
290.84	0.23
291.053	0.28
291.267	0.41
291.48	0.28
291.693	0.27
291.906	0.3
292.12	0.33
292.333	0.21
292.546	0.19
292.76	0.35
292.973	0.32
293.186	0.3
293.399	0.26
293.612	0.32
293.826	0.26
294.039	0.29
294.252	0.22
294.465	0.32
294.678	0.32
294.891	0.27
295.104	0.19
295.317	0.26
295.53	0.27
295.743	0.27
295.956	0.24
296.169	0.33
296.382	0.33
296.595	0.24
296.808	0.23
297.021	0.39
297.234	0.33
297.447	0.23
297.66	0.29
297.873	0.35
298.086	0.31
298.299	0.24
298.511	0.13
298.724	0.28
298.937	0.24
299.15	0.18
299.363	0.21
299.575	0.33
299.788	0.33
300.001	0.27
300.213	0.23
300.426	0.23
300.639	0.22
300.852	0.21
301.064	0.27
301.277	0.34
301.489	0.3
301.702	0.29
301.915	0.23
302.127	0.29
302.34	0.28
302.552	0.3
302.765	0.21
302.977	0.32
303.19	0.18
303.402	0.24
303.615	0.25
303.827	0.22
304.04	0.26
304.252	0.3
304.464	0.23
304.677	0.41
304.889	0.26
305.102	0.23
305.314	0.19
305.526	0.31
305.739	0.29
305.951	0.19
306.163	0.25
306.375	0.36
306.588	0.23
306.8	0.22
307.012	0.18
307.224	0.23
307.436	0.34
307.649	0.19
307.861	0.25
308.073	0.27
308.285	0.21
308.497	0.18
308.709	0.2
308.921	0.23
309.133	0.36
309.346	0.25
309.558	0.23
309.77	0.29
309.982	0.31
310.194	0.3
310.406	0.15
310.617	0.36
310.829	0.26
311.041	0.3
311.253	0.21
311.465	0.24
311.677	0.27
311.889	0.27
312.101	0.23
312.313	0.33
312.524	0.36
312.736	0.2
312.948	0.25
313.16	0.4
313.372	0.27
313.583	0.25
313.795	0.27
314.007	0.29
314.218	0.31
314.43	0.25
314.642	0.23
314.853	0.21
315.065	0.3
315.277	0.24
315.488	0.31
315.7	0.29
315.912	0.32
316.123	0.21
316.335	0.22
316.546	0.38
316.758	0.23
316.969	0.25
317.181	0.23
317.392	0.29
317.604	0.36
317.815	0.22
318.026	0.21
318.238	0.24
318.449	0.32
318.661	0.17
318.872	0.16
319.083	0.2
319.295	0.28
319.506	0.2
319.717	0.23
319.929	0.33
320.14	0.25
320.351	0.21
320.562	0.21
320.774	0.31
320.985	0.26
321.196	0.2
321.407	0.16
321.618	0.26
321.829	0.24
322.041	0.3
322.252	0.28
322.463	0.32
322.674	0.29
322.885	0.21
323.096	0.24
323.307	0.3
323.518	0.25
323.729	0.22
323.94	0.22
324.151	0.24
324.362	0.3
324.573	0.21
324.784	0.24
324.995	0.3
325.206	0.26
325.417	0.19
325.628	0.18
325.838	0.24
326.049	0.32
326.26	0.29
326.471	0.2
326.682	0.29
326.892	0.28
327.103	0.19
327.314	0.24
327.525	0.32
327.735	0.24
327.946	0.28
328.157	0.18
328.368	0.29
328.578	0.28
328.789	0.3
328.999	0.26
329.21	0.23
329.421	0.3
329.631	0.23
329.842	0.19
330.052	0.28
330.263	0.29
330.473	0.3
330.684	0.23
330.894	0.26
331.105	0.26
331.315	0.26
331.526	0.16
331.736	0.35
331.947	0.29
332.157	0.28
332.367	0.18
332.578	0.28
332.788	0.33
332.999	0.27
333.209	0.24
333.419	0.16
333.629	0.31
333.84	0.25
334.05	0.26
334.26	0.41
334.47	0.26
334.681	0.27
334.891	0.21
335.101	0.3
335.311	0.31
335.521	0.23
335.732	0.2
335.942	0.35
336.152	0.27
336.362	0.29
336.572	0.26
336.782	0.32
336.992	0.25
337.202	0.23
337.412	0.19
337.622	0.29
337.832	0.27
338.042	0.26
338.252	0.23
338.462	0.23
338.672	0.21
338.882	0.18
339.092	0.25
339.302	0.34
339.511	0.3
339.721	0.19
339.931	0.17
340.141	0.31
340.351	0.33
340.561	0.27
340.77	0.27
340.98	0.27
341.19	0.29
341.4	0.22
341.609	0.21
341.819	0.23
342.029	0.18
342.238	0.21
342.448	0.23
342.658	0.29
342.867	0.23
343.077	0.22
343.286	0.26
343.496	0.29
343.706	0.33
343.915	0.2
344.125	0.23
344.334	0.27
344.544	0.2
344.753	0.24
344.963	0.21
345.172	0.21
345.381	0.23
345.591	0.2
345.8	0.23
346.01	0.34
346.219	0.26
346.428	0.1
346.638	0.25
346.847	0.28
347.056	0.31
347.266	0.18
347.475	0.23
347.684	0.34
347.893	0.29
348.103	0.28
348.312	0.26
348.521	0.27
348.73	0.26
348.94	0.24
349.149	0.19
349.358	0.23
349.567	0.21
349.776	0.17
349.985	0.19
350.194	0.31
350.403	0.34
350.612	0.14
350.821	0.19
351.03	0.29
351.239	0.15
351.448	0.28
351.657	0.18
351.866	0.32
352.075	0.24
352.284	0.32
352.493	0.18
352.702	0.31
352.911	0.23
353.12	0.26
353.329	0.24
353.538	0.28
353.746	0.27
353.955	0.18
354.164	0.23
354.373	0.24
354.582	0.32
354.79	0.24
354.999	0.25
355.208	0.23
355.416	0.35
355.625	0.15
355.834	0.19
356.042	0.29
356.251	0.2
356.46	0.21
356.668	0.28
356.877	0.33
357.085	0.32
357.294	0.12
357.503	0.24
357.711	0.24
357.92	0.43
358.128	0.28
358.337	0.22
358.545	0.28
358.754	0.19
358.962	0.27
359.17	0.25
359.379	0.26
359.587	0.27
359.796	0.24
360.004	0.29
360.212	0.26
360.421	0.32
360.629	0.23
360.837	0.2
361.046	0.29
361.254	0.38
361.462	0.2
361.67	0.23
361.879	0.27
362.087	0.3
362.295	0.21
362.503	0.21
362.711	0.21
362.92	0.21
363.128	0.17
363.336	0.23
363.544	0.18
363.752	0.26
363.96	0.22
364.168	0.26
364.376	0.25
364.584	0.25
364.792	0.33
365	0.23
365.208	0.29
365.416	0.27
365.624	0.31
365.832	0.25
366.04	0.35
366.248	0.25
366.456	0.24
366.664	0.24
366.872	0.22
367.079	0.25
367.287	0.19
367.495	0.23
367.703	0.26
367.911	0.24
368.118	0.28
368.326	0.26
368.534	0.22
368.742	0.35
368.949	0.19
369.157	0.21
369.365	0.28
369.572	0.25
369.78	0.21
369.988	0.28
370.195	0.27
370.403	0.29
370.61	0.18
370.818	0.27
371.026	0.4
371.233	0.2
371.441	0.22
371.648	0.2
371.856	0.23
372.063	0.28
372.271	0.23
372.478	0.21
372.685	0.2
372.893	0.32
373.1	0.24
373.308	0.2
373.515	0.38
373.722	0.3
373.93	0.21
374.137	0.27
374.344	0.31
374.552	0.33
374.759	0.29
374.966	0.22
375.173	0.2
375.381	0.32
375.588	0.21
375.795	0.21
376.002	0.27
376.209	0.27
376.417	0.26
376.624	0.3
376.831	0.3
377.038	0.26
377.245	0.17
377.452	0.23
377.659	0.26
377.866	0.22
378.073	0.22
378.28	0.23
378.487	0.31
378.694	0.31
378.901	0.23
379.108	0.24
379.315	0.33
379.522	0.36
379.729	0.27
379.936	0.28
380.143	0.29
380.35	0.27
380.557	0.25
380.763	0.24
380.97	0.26
381.177	0.28
381.384	0.27
381.591	0.19
381.797	0.29
382.004	0.3
382.211	0.29
382.418	0.19
382.624	0.29
382.831	0.31
383.038	0.24
383.244	0.3
383.451	0.28
383.658	0.27
383.864	0.25
384.071	0.24
384.277	0.36
384.484	0.27
384.69	0.34
384.897	0.23
385.103	0.3
385.31	0.22
385.516	0.25
385.723	0.2
385.929	0.3
386.136	0.26
386.342	0.26
386.549	0.26
386.755	0.36
386.961	0.28
387.168	0.25
387.374	0.27
387.58	0.34
387.787	0.27
387.993	0.3
388.199	0.27
388.406	0.25
388.612	0.24
388.818	0.25
389.024	0.21
389.231	0.27
389.437	0.36
389.643	0.3
389.849	0.27
390.055	0.35
390.261	0.31
390.467	0.33
390.674	0.26
390.88	0.29
391.086	0.38
391.292	0.22
391.498	0.33
391.704	0.29
391.91	0.33
392.116	0.27
392.322	0.18
392.528	0.33
392.734	0.3
392.94	0.3
393.146	0.3
393.352	0.36
393.557	0.3
393.763	0.25
393.969	0.34
394.175	0.3
394.381	0.31
394.587	0.29
394.792	0.31
394.998	0.38
395.204	0.38
395.41	0.29
395.615	0.29
395.821	0.31
396.027	0.35
396.233	0.26
396.438	0.39
396.644	0.37
396.85	0.31
397.055	0.35
397.261	0.36
397.466	0.43
397.672	0.35
397.878	0.39
398.083	0.38
398.289	0.32
398.494	0.41
398.7	0.37
398.905	0.2
399.111	0.44
399.316	0.29
399.522	0.36
399.727	0.32
399.932	0.29
400.138	0.34
400.343	0.4
400.549	0.34
400.754	0.37
400.959	0.41
401.165	0.32
401.37	0.38
401.575	0.34
401.78	0.41
401.986	0.33
402.191	0.32
402.396	0.4
402.601	0.4
402.807	0.39
403.012	0.37
403.217	0.4
403.422	0.43
403.627	0.44
403.832	0.34
404.037	0.45
404.243	0.44
404.448	0.35
404.653	0.43
404.858	0.45
405.063	0.45
405.268	0.4
405.473	0.4
405.678	0.46
405.883	0.7
406.088	0.47
406.293	0.4
406.498	0.44
406.703	0.52
406.907	0.51
407.112	0.43
407.317	0.51
407.522	0.61
407.727	0.42
407.932	0.54
408.136	0.65
408.341	0.53
408.546	0.59
408.751	0.58
408.956	0.59
409.16	0.66
409.365	0.63
409.57	0.62
409.774	0.63
409.979	0.66
410.184	0.69
410.388	0.61
410.593	0.77
410.798	0.73
411.002	0.73
411.207	0.84
411.411	0.8
411.616	0.78
411.82	0.82
412.025	0.86
412.229	0.81
412.434	0.95
412.638	0.88
412.843	0.92
413.047	1
413.252	0.97
413.456	1.02
413.66	1.04
413.865	1.07
414.069	1.22
414.273	1.06
414.478	1.1
414.682	1.12
414.886	1.19
415.091	1.18
415.295	1.21
415.499	1.44
415.703	1.34
415.908	1.45
416.112	1.34
416.316	1.54
416.52	1.6
416.724	1.55
416.929	1.61
417.133	1.84
417.337	1.65
417.541	1.72
417.745	1.81
417.949	2.01
418.153	1.94
418.357	2.03
418.561	2.26
418.765	2.21
418.969	2.4
419.173	2.44
419.377	2.38
419.581	2.64
419.785	2.58
419.989	2.67
420.193	2.75
420.397	2.85
420.601	2.99
420.804	3.08
421.008	3.06
421.212	3.21
421.416	3.23
421.62	3.28
421.823	3.32
422.027	3.55
422.231	3.51
422.435	3.5
422.638	3.54
422.842	3.71
423.046	3.74
423.249	3.91
423.453	3.96
423.657	4.13
423.86	4.18
424.064	4.29
424.268	4.55
424.471	4.45
424.675	4.71
424.878	4.73
425.082	4.83
425.285	5.17
425.489	5.14
425.692	5.23
425.896	5.23
426.099	5.41
426.303	5.56
426.506	5.64
426.71	5.92
426.913	6.23
427.116	6.27
427.32	6.35
427.523	6.41
427.726	6.61
427.93	6.77
428.133	7.21
428.336	7.26
428.54	7.33
428.743	7.65
428.946	7.76
429.149	7.9
429.353	7.94
429.556	8
429.759	8.1
429.962	8.13
430.165	8.35
430.368	7.92
430.571	8.02
430.775	8.13
430.978	8.04
431.181	8.16
431.384	8.29
431.587	8.32
431.79	8.74
431.993	8.66
432.196	8.92
432.399	9.22
432.602	9.54
432.805	9.55
433.008	10.01
433.211	9.85
433.414	10.24
433.616	10.32
433.819	10.28
434.022	10.45
434.225	10.61
434.428	10.64
434.631	11.01
434.833	10.72
435.036	11.05
435.239	11.28
435.442	11.36
435.645	11.52
435.847	11.43
436.05	11.84
436.253	12.02
436.455	12.1
436.658	11.97
436.861	12.37
437.063	12.51
437.266	12.37
437.468	12.79
437.671	13.05
437.874	13.12
438.076	12.86
438.279	13.43
438.481	13.44
438.684	14.25
438.886	13.76
439.089	14.11
439.291	14.14
439.494	14.55
439.696	14.64
439.899	15.24
440.101	15.69
440.303	15.73
440.506	16.59
440.708	16.28
440.91	16.51
441.113	16.73
441.315	16.93
441.517	16.7
441.72	17.19
441.922	16.82
442.124	16.79
442.326	17.11
442.529	17.42
442.731	17.36
442.933	17.65
443.135	17.45
443.337	17.43
443.539	17.99
443.742	17.55
443.944	18.32
444.146	18.01
444.348	17.92
444.55	17.88
444.752	18.16
444.954	18.16
445.156	18.04
445.358	18.47
445.56	18.7
445.762	18.58
445.964	18.73
446.166	18.59
446.368	18.62
446.57	18.54
446.772	18.02
446.974	17.98
447.175	18.29
447.377	17.93
447.579	18.33
447.781	18
447.983	17.8
448.184	17.38
448.386	17.7
448.588	17.25
448.79	17.17
448.991	17.43
449.193	17.48
449.395	16.74
449.597	16.36
449.798	16.43
450	15.93
450.202	15.76
450.403	15.93
450.605	15.83
450.806	15.32
451.008	15.12
451.21	14.98
451.411	14.54
451.613	13.79
451.814	14.08
452.016	14.01
452.217	13.25
452.419	13.42
452.62	12.97
452.821	12.77
453.023	12.57
453.224	12.28
453.426	11.96
453.627	11.23
453.828	11.3
454.03	11.22
454.231	11.27
454.432	11.11
454.634	10.88
454.835	10.48
455.036	10.32
455.238	10.04
455.439	9.82
455.64	9.49
455.841	9.42
456.042	9.62
456.244	9.19
456.445	8.96
456.646	8.65
456.847	8.56
457.048	8.43
457.249	8.46
457.45	8.32
457.651	7.65
457.852	7.56
458.054	7.25
458.255	7.11
458.456	7.25
458.657	7.14
458.858	6.7
459.058	6.64
459.259	6.71
459.46	6.42
459.661	6.32
459.862	6.55
460.063	6.38
460.264	6.28
460.465	6.03
460.666	6.04
460.866	5.73
461.067	5.43
461.268	5.56
461.469	5.42
461.67	5.35
461.87	5.24
462.071	5.23
462.272	5.13
462.473	5.04
462.673	5.3
462.874	5.13
463.075	5.08
463.275	5.1
463.476	5.21
463.676	5.13
463.877	4.91
464.078	4.98
464.278	4.96
464.479	4.81
464.679	4.82
464.88	4.7
465.08	4.73
465.281	4.58
465.481	4.28
465.682	4.12
465.882	4.13
466.083	4.13
466.283	4
466.483	3.89
466.684	3.73
466.884	3.62
467.085	3.71
467.285	3.74
467.485	3.63
467.686	3.54
467.886	3.48
468.086	3.39
468.286	3.33
468.487	3.37
468.687	3.28
468.887	3.18
469.087	3.36
469.287	3.26
469.488	3.05
469.688	3.17
469.888	3.17
470.088	3.15
470.288	3.06
470.488	3.06
470.688	2.88
470.888	2.91
471.088	2.71
471.288	2.82
471.488	2.77
471.688	2.77
471.888	2.69
472.088	2.84
472.288	2.75
472.488	2.61
472.688	2.53
472.888	2.61
473.088	2.59
473.288	2.55
473.488	2.42
473.688	2.59
473.887	2.49
474.087	2.44
474.287	2.49
474.487	2.4
474.687	2.45
474.886	2.36
475.086	2.29
475.286	2.34
475.486	2.29
475.685	2.28
475.885	2.25
476.085	2.29
476.284	2.27
476.484	2.25
476.684	2.22
476.883	2.3
477.083	2.2
477.282	2.18
477.482	2.22
477.681	2.11
477.881	2.08
478.08	2.08
478.28	2.07
478.479	2.08
478.679	2.14
478.878	2.03
479.078	2.03
479.277	2.11
479.477	2.09
479.676	2
479.875	1.99
480.075	1.96
480.274	2.04
480.473	2.07
480.673	2.07
480.872	2.1
481.071	2.09
481.271	2.04
481.47	1.99
481.669	1.97
481.868	1.95
482.067	1.99
482.267	1.92
482.466	1.91
482.665	1.93
482.864	1.93
483.063	1.94
483.262	1.98
483.461	2.03
483.661	2.04
483.86	2.02
484.059	2.07
484.258	2.01
484.457	2.02
484.656	2.01
484.855	2.13
485.054	1.95
485.253	1.98
485.452	1.94
485.651	2.1
485.849	2.04
486.048	2.01
486.247	1.99
486.446	2.1
486.645	2.02
486.844	2.1
487.043	2.06
487.241	2.1
487.44	2.05
487.639	2.14
487.838	2.11
488.037	2.11
488.235	2.19
488.434	2.19
488.633	2.04
488.831	2.21
489.03	2.24
489.229	2.25
489.427	2.22
489.626	2.29
489.825	2.29
490.023	2.32
490.222	2.25
490.42	2.33
490.619	2.32
490.817	2.34
491.016	2.35
491.214	2.4
491.413	2.4
491.611	2.34
491.81	2.38
492.008	2.5
492.207	2.57
492.405	2.5
492.604	2.48
492.802	2.53
493	2.62
493.199	2.61
493.397	2.6
493.595	2.72
493.794	2.7
493.992	2.82
494.19	2.7
494.388	2.82
494.587	2.76
494.785	2.77
494.983	2.76
495.181	2.87
495.379	2.93
495.578	2.98
495.776	2.96
495.974	2.95
496.172	2.97
496.37	3.09
496.568	3.07
496.766	3.1
496.964	3.19
497.162	3.15
497.36	3.17
497.558	3.25
497.756	3.3
497.954	3.31
498.152	3.36
498.35	3.42
498.548	3.35
498.746	3.4
498.944	3.42
499.142	3.46
499.34	3.52
499.538	3.63
499.736	3.47
499.933	3.68
500.131	3.68
500.329	3.79
500.527	3.71
500.725	3.87
500.922	3.86
501.12	3.87
501.318	3.95
501.516	3.95
501.713	4.01
501.911	3.97
502.109	3.89
502.306	4.09
502.504	4.03
502.701	4.08
