Data from Apollo_Calib_20240827__AbsoluteIrradiance__794__12-23-00-551.txt Node

Date: Wed Aug 28 12:23:00 BST 2024
User: biology
Spectrometer: FLMT08252
Trigger mode: 0
Integration Time (sec): 5.000000E-1
Scans to average: 5
Electric dark correction enabled: true
Nonlinearity correction enabled: false
Boxcar width: 0
XAxis mode: Wavelengths
Number of Pixels in Spectrum: 3648
>>>>>Begin Spectral Data<<<<<
179.588	-0
179.809	-0
180.03	-0
180.251	-0
180.473	-0
180.694	0
180.915	0
181.136	-0
181.357	0
181.578	-0
181.799	-0
182.02	-0
182.241	0
182.462	-0
182.683	0
182.904	-0
183.125	-0
183.346	0
183.567	0
183.788	0
184.009	0
184.23	0
184.451	0
184.672	0
184.892	0
185.113	0
185.334	0
185.555	0
185.776	0
185.996	0
186.217	0
186.438	0
186.659	0
186.879	0
187.1	0
187.321	0
187.541	0
187.762	0
187.983	0
188.203	0
188.424	0
188.644	0
188.865	0
189.086	0
189.306	0
189.527	0
189.747	0
189.968	0
190.188	0
190.409	0
190.629	0
190.849	0
191.07	0
191.29	0
191.511	0
191.731	0
191.951	0
192.172	0
192.392	0
192.612	0
192.833	0
193.053	0
193.273	0
193.493	0
193.714	0
193.934	0
194.154	0
194.374	0
194.594	0
194.815	0
195.035	0
195.255	0
195.475	0
195.695	0
195.915	0
196.135	0
196.355	0
196.575	0
196.795	0
197.015	0
197.235	0
197.455	0
197.675	0
197.895	0
198.115	0
198.335	0
198.555	0
198.775	0
198.995	0
199.214	0
199.434	0
199.654	0
199.874	0
200.094	3.65
200.313	2.79
200.533	1.81
200.753	2.22
200.973	3.72
201.192	3.27
201.412	1.17
201.632	2.04
201.851	3.67
202.071	2.12
202.291	1.66
202.51	1.07
202.73	2.52
202.95	1.95
203.169	1.05
203.389	1.66
203.608	1.85
203.828	1.71
204.047	1.85
204.267	2.17
204.486	1.9
204.706	2.21
204.925	1.89
205.145	1.65
205.364	2.82
205.583	2.35
205.803	1.58
206.022	0.92
206.242	1.6
206.461	1.32
206.68	1.41
206.9	1.78
207.119	2.5
207.338	2.23
207.557	1.33
207.777	1.07
207.996	1.46
208.215	2.47
208.434	0.78
208.654	0.88
208.873	1.74
209.092	2.27
209.311	1.14
209.53	1.15
209.749	0.99
209.968	0.85
210.187	1
210.407	0.71
210.626	1.13
210.845	1.62
211.064	1.43
211.283	0.78
211.502	1.58
211.721	1.37
211.94	0.86
212.159	1.5
212.377	1.63
212.596	1.65
212.815	1.34
213.034	1.01
213.253	1.34
213.472	1.52
213.691	0.7
213.91	0.79
214.128	1.02
214.347	1.4
214.566	0.75
214.785	0.56
215.003	1.31
215.222	1
215.441	0.77
215.66	0.45
215.878	1
216.097	1.15
216.316	0.77
216.534	0.93
216.753	1.15
216.972	0.94
217.19	0.63
217.409	0.59
217.627	0.69
217.846	0.91
218.064	0.78
218.283	0.44
218.501	1.43
218.72	1.15
218.938	0.39
219.157	0.62
219.375	1.12
219.594	1.12
219.812	0.64
220.031	0.55
220.249	1.29
220.467	1.2
220.686	0.72
220.904	0.46
221.122	0.72
221.341	1.12
221.559	0.69
221.777	0.43
221.995	0.83
222.214	0.9
222.432	0.56
222.65	0.85
222.868	0.72
223.086	1.05
223.305	0.84
223.523	0.59
223.741	1.03
223.959	0.78
224.177	0.36
224.395	0.51
224.613	0.59
224.831	0.77
225.049	0.49
225.267	0.66
225.485	0.78
225.703	0.68
225.921	0.59
226.139	0.51
226.357	0.91
226.575	0.81
226.793	0.56
227.011	1.48
227.229	0.81
227.447	0.86
227.665	0.45
227.883	0.27
228.1	0.69
228.318	0.78
228.536	0.25
228.754	0.46
228.972	0.75
229.189	0.74
229.407	0.57
229.625	0.59
229.843	0.92
230.06	0.73
230.278	0.43
230.496	0.61
230.713	0.65
230.931	0.79
231.149	0.43
231.366	0.29
231.584	0.61
231.801	1
232.019	0.57
232.236	0.4
232.454	0.55
232.671	0.68
232.889	0.5
233.106	0.39
233.324	0.47
233.541	0.68
233.759	0.66
233.976	0.42
234.194	0.5
234.411	0.6
234.628	0.27
234.846	0.48
235.063	0.48
235.28	0.62
235.498	0.51
235.715	0.37
235.932	0.75
236.149	0.44
236.367	0.36
236.584	0.58
236.801	0.51
237.018	0.69
237.236	0.49
237.453	0.25
237.67	0.62
237.887	0.46
238.104	0.45
238.321	0.45
238.538	0.37
238.755	0.64
238.973	0.26
239.19	0.48
239.407	0.57
239.624	0.55
239.841	0.3
240.058	0.36
240.275	0.48
240.492	0.52
240.709	0.55
240.925	0.27
241.142	0.55
241.359	0.4
241.576	0.32
241.793	0.42
242.01	0.49
242.227	0.56
242.444	0.47
242.66	0.58
242.877	0.47
243.094	0.49
243.311	0.45
243.527	0.32
243.744	0.45
243.961	0.67
244.178	0.38
244.394	0.4
244.611	0.58
244.828	0.7
245.044	0.39
245.261	0.39
245.477	0.5
245.694	0.72
245.911	0.36
246.127	0.44
246.344	0.67
246.56	0.5
246.777	0.36
246.993	0.49
247.21	0.51
247.426	0.56
247.643	0.34
247.859	0.39
248.076	0.31
248.292	0.74
248.508	0.31
248.725	0.46
248.941	0.5
249.157	0.52
249.374	0.35
249.59	0.29
249.806	0.47
250.023	0.46
250.239	0.31
250.455	0.35
250.671	0.4
250.888	0.52
251.104	0.55
251.32	0.37
251.536	0.35
251.752	0.45
251.969	0.36
252.185	0.38
252.401	0.66
252.617	0.44
252.833	0.37
253.049	0.35
253.265	0.38
253.481	0.36
253.697	0.32
253.913	0.29
254.129	0.44
254.345	0.4
254.561	0.33
254.777	0.35
254.993	0.49
255.209	0.48
255.425	0.35
255.641	0.28
255.857	0.45
256.073	0.43
256.288	0.26
256.504	0.32
256.72	0.46
256.936	0.55
257.152	0.32
257.367	0.32
257.583	0.41
257.799	0.48
258.015	0.37
258.23	0.33
258.446	0.6
258.662	0.34
258.877	0.29
259.093	0.27
259.309	0.36
259.524	0.42
259.74	0.32
259.955	0.21
260.171	0.4
260.387	0.4
260.602	0.39
260.818	0.43
261.033	0.25
261.249	0.36
261.464	0.32
261.68	0.3
261.895	0.4
262.11	0.41
262.326	0.32
262.541	0.26
262.757	0.5
262.972	0.46
263.187	0.4
263.403	0.42
263.618	0.49
263.833	0.43
264.049	0.27
264.264	0.31
264.479	0.39
264.694	0.5
264.91	0.32
265.125	0.32
265.34	0.36
265.555	0.5
265.77	0.36
265.986	0.31
266.201	0.38
266.416	0.5
266.631	0.3
266.846	0.31
267.061	0.42
267.276	0.41
267.491	0.24
267.706	0.4
267.921	0.41
268.136	0.39
268.351	0.32
268.566	0.22
268.781	0.44
268.996	0.41
269.211	0.31
269.426	0.19
269.641	0.35
269.856	0.44
270.071	0.33
270.285	0.26
270.5	0.38
270.715	0.47
270.93	0.34
271.145	0.33
271.359	0.38
271.574	0.37
271.789	0.31
272.004	0.33
272.218	0.31
272.433	0.36
272.648	0.21
272.862	0.36
273.077	0.31
273.292	0.28
273.506	0.26
273.721	0.27
273.936	0.32
274.15	0.42
274.365	0.37
274.579	0.35
274.794	0.39
275.008	0.39
275.223	0.23
275.437	0.3
275.652	0.39
275.866	0.39
276.081	0.3
276.295	0.39
276.509	0.3
276.724	0.36
276.938	0.35
277.153	0.31
277.367	0.41
277.581	0.33
277.796	0.29
278.01	0.28
278.224	0.48
278.438	0.43
278.653	0.25
278.867	0.25
279.081	0.18
279.295	0.31
279.51	0.32
279.724	0.15
279.938	0.35
280.152	0.34
280.366	0.28
280.58	0.29
280.794	0.44
281.008	0.39
281.222	0.32
281.437	0.48
281.651	0.36
281.865	0.38
282.079	0.26
282.293	0.13
282.507	0.26
282.721	0.29
282.935	0.32
283.148	0.19
283.362	0.3
283.576	0.25
283.79	0.33
284.004	0.22
284.218	0.43
284.432	0.26
284.646	0.29
284.859	0.25
285.073	0.3
285.287	0.3
285.501	0.32
285.714	0.26
285.928	0.32
286.142	0.32
286.356	0.21
286.569	0.24
286.783	0.42
286.997	0.31
287.21	0.31
287.424	0.23
287.637	0.26
287.851	0.26
288.065	0.3
288.278	0.22
288.492	0.33
288.705	0.3
288.919	0.25
289.132	0.15
289.346	0.34
289.559	0.22
289.773	0.19
289.986	0.23
290.2	0.26
290.413	0.39
290.626	0.21
290.84	0.21
291.053	0.27
291.267	0.37
291.48	0.27
291.693	0.28
291.906	0.26
292.12	0.26
292.333	0.28
292.546	0.27
292.76	0.39
292.973	0.32
293.186	0.32
293.399	0.21
293.612	0.32
293.826	0.29
294.039	0.25
294.252	0.25
294.465	0.36
294.678	0.31
294.891	0.27
295.104	0.22
295.317	0.26
295.53	0.31
295.743	0.27
295.956	0.26
296.169	0.38
296.382	0.31
296.595	0.25
296.808	0.21
297.021	0.34
297.234	0.38
297.447	0.31
297.66	0.28
297.873	0.36
298.086	0.32
298.299	0.23
298.511	0.17
298.724	0.27
298.937	0.19
299.15	0.19
299.363	0.26
299.575	0.35
299.788	0.28
300.001	0.22
300.213	0.23
300.426	0.29
300.639	0.22
300.852	0.18
301.064	0.37
301.277	0.36
301.489	0.35
301.702	0.26
301.915	0.24
302.127	0.24
302.34	0.34
302.552	0.29
302.765	0.21
302.977	0.31
303.19	0.21
303.402	0.2
303.615	0.25
303.827	0.26
304.04	0.24
304.252	0.29
304.464	0.26
304.677	0.39
304.889	0.29
305.102	0.23
305.314	0.19
305.526	0.3
305.739	0.32
305.951	0.21
306.163	0.19
306.375	0.33
306.588	0.23
306.8	0.28
307.012	0.17
307.224	0.32
307.436	0.3
307.649	0.17
307.861	0.25
308.073	0.29
308.285	0.2
308.497	0.19
308.709	0.23
308.921	0.26
309.133	0.29
309.346	0.25
309.558	0.22
309.77	0.31
309.982	0.36
310.194	0.26
310.406	0.18
310.617	0.34
310.829	0.25
311.041	0.3
311.253	0.18
311.465	0.25
311.677	0.26
311.889	0.21
312.101	0.19
312.313	0.31
312.524	0.36
312.736	0.17
312.948	0.21
313.16	0.32
313.372	0.32
313.583	0.27
313.795	0.23
314.007	0.28
314.218	0.37
314.43	0.25
314.642	0.24
314.853	0.2
315.065	0.27
315.277	0.24
315.488	0.26
315.7	0.31
315.912	0.27
316.123	0.27
316.335	0.19
316.546	0.37
316.758	0.25
316.969	0.23
317.181	0.24
317.392	0.26
317.604	0.33
317.815	0.21
318.026	0.22
318.238	0.22
318.449	0.29
318.661	0.16
318.872	0.18
319.083	0.25
319.295	0.32
319.506	0.22
319.717	0.28
319.929	0.28
320.14	0.29
320.351	0.27
320.562	0.22
320.774	0.29
320.985	0.27
321.196	0.24
321.407	0.16
321.618	0.32
321.829	0.29
322.041	0.32
322.252	0.2
322.463	0.29
322.674	0.31
322.885	0.23
323.096	0.23
323.307	0.28
323.518	0.26
323.729	0.23
323.94	0.17
324.151	0.23
324.362	0.28
324.573	0.23
324.784	0.25
324.995	0.33
325.206	0.3
325.417	0.25
325.628	0.22
325.838	0.26
326.049	0.26
326.26	0.27
326.471	0.24
326.682	0.28
326.892	0.29
327.103	0.18
327.314	0.21
327.525	0.33
327.735	0.26
327.946	0.25
328.157	0.21
328.368	0.32
328.578	0.23
328.789	0.33
328.999	0.21
329.21	0.25
329.421	0.33
329.631	0.2
329.842	0.2
330.052	0.29
330.263	0.3
330.473	0.31
330.684	0.23
330.894	0.3
331.105	0.24
331.315	0.25
331.526	0.19
331.736	0.35
331.947	0.28
332.157	0.26
332.367	0.19
332.578	0.32
332.788	0.31
332.999	0.26
333.209	0.26
333.419	0.18
333.629	0.3
333.84	0.28
334.05	0.25
334.26	0.33
334.47	0.3
334.681	0.31
334.891	0.2
335.101	0.29
335.311	0.36
335.521	0.28
335.732	0.21
335.942	0.31
336.152	0.26
336.362	0.25
336.572	0.23
336.782	0.31
336.992	0.23
337.202	0.21
337.412	0.2
337.622	0.3
337.832	0.27
338.042	0.29
338.252	0.2
338.462	0.2
338.672	0.28
338.882	0.2
339.092	0.28
339.302	0.31
339.511	0.33
339.721	0.21
339.931	0.19
340.141	0.32
340.351	0.3
340.561	0.23
340.77	0.26
340.98	0.27
341.19	0.28
341.4	0.25
341.609	0.19
341.819	0.24
342.029	0.18
342.238	0.26
342.448	0.19
342.658	0.26
342.867	0.24
343.077	0.25
343.286	0.24
343.496	0.29
343.706	0.33
343.915	0.22
344.125	0.25
344.334	0.28
344.544	0.24
344.753	0.2
344.963	0.17
345.172	0.21
345.381	0.24
345.591	0.18
345.8	0.27
346.01	0.36
346.219	0.35
346.428	0.12
346.638	0.27
346.847	0.25
347.056	0.32
347.266	0.25
347.475	0.22
347.684	0.36
347.893	0.31
348.103	0.27
348.312	0.19
348.521	0.24
348.73	0.27
348.94	0.27
349.149	0.23
349.358	0.24
349.567	0.23
349.776	0.19
349.985	0.21
350.194	0.34
350.403	0.29
350.612	0.18
350.821	0.19
351.03	0.24
351.239	0.18
351.448	0.29
351.657	0.21
351.866	0.34
352.075	0.29
352.284	0.21
352.493	0.19
352.702	0.27
352.911	0.26
353.12	0.26
353.329	0.24
353.538	0.3
353.746	0.24
353.955	0.16
354.164	0.25
354.373	0.26
354.582	0.28
354.79	0.24
354.999	0.29
355.208	0.29
355.416	0.36
355.625	0.19
355.834	0.23
356.042	0.29
356.251	0.22
356.46	0.2
356.668	0.25
356.877	0.37
357.085	0.28
357.294	0.16
357.503	0.28
357.711	0.24
357.92	0.41
358.128	0.25
358.337	0.21
358.545	0.28
358.754	0.22
358.962	0.31
359.17	0.2
359.379	0.26
359.587	0.27
359.796	0.24
360.004	0.31
360.212	0.32
360.421	0.3
360.629	0.23
360.837	0.22
361.046	0.34
361.254	0.38
361.462	0.24
361.67	0.23
361.879	0.27
362.087	0.32
362.295	0.28
362.503	0.22
362.711	0.18
362.92	0.24
363.128	0.21
363.336	0.2
363.544	0.2
363.752	0.23
363.96	0.22
364.168	0.2
364.376	0.22
364.584	0.27
364.792	0.28
365	0.27
365.208	0.23
365.416	0.31
365.624	0.28
365.832	0.23
366.04	0.31
366.248	0.27
366.456	0.31
366.664	0.26
366.872	0.27
367.079	0.23
367.287	0.21
367.495	0.26
367.703	0.25
367.911	0.26
368.118	0.25
368.326	0.24
368.534	0.19
368.742	0.31
368.949	0.2
369.157	0.17
369.365	0.26
369.572	0.25
369.78	0.21
369.988	0.31
370.195	0.25
370.403	0.34
370.61	0.21
370.818	0.26
371.026	0.38
371.233	0.24
371.441	0.27
371.648	0.23
371.856	0.25
372.063	0.25
372.271	0.23
372.478	0.24
372.685	0.23
372.893	0.29
373.1	0.22
373.308	0.26
373.515	0.37
373.722	0.33
373.93	0.29
374.137	0.24
374.344	0.32
374.552	0.32
374.759	0.28
374.966	0.22
375.173	0.28
375.381	0.33
375.588	0.24
375.795	0.15
376.002	0.29
376.209	0.24
376.417	0.26
376.624	0.28
376.831	0.3
377.038	0.25
377.245	0.18
377.452	0.26
377.659	0.25
377.866	0.2
378.073	0.26
378.28	0.26
378.487	0.32
378.694	0.35
378.901	0.26
379.108	0.24
379.315	0.33
379.522	0.35
379.729	0.29
379.936	0.29
380.143	0.27
380.35	0.3
380.557	0.26
380.763	0.23
380.97	0.3
381.177	0.27
381.384	0.3
381.591	0.19
381.797	0.29
382.004	0.29
382.211	0.28
382.418	0.26
382.624	0.31
382.831	0.39
383.038	0.26
383.244	0.26
383.451	0.29
383.658	0.33
383.864	0.25
384.071	0.22
384.277	0.36
384.484	0.25
384.69	0.35
384.897	0.24
385.103	0.28
385.31	0.27
385.516	0.25
385.723	0.24
385.929	0.27
386.136	0.26
386.342	0.29
386.549	0.26
386.755	0.36
386.961	0.26
387.168	0.33
387.374	0.25
387.58	0.27
387.787	0.29
387.993	0.3
388.199	0.26
388.406	0.2
388.612	0.28
388.818	0.24
389.024	0.22
389.231	0.35
389.437	0.37
389.643	0.32
389.849	0.27
390.055	0.31
390.261	0.27
390.467	0.34
390.674	0.26
390.88	0.3
391.086	0.32
391.292	0.25
391.498	0.3
391.704	0.31
391.91	0.28
392.116	0.25
392.322	0.19
392.528	0.34
392.734	0.31
392.94	0.27
393.146	0.33
393.352	0.31
393.557	0.24
393.763	0.28
393.969	0.33
394.175	0.28
394.381	0.35
394.587	0.32
394.792	0.3
394.998	0.41
395.204	0.37
395.41	0.29
395.615	0.35
395.821	0.32
396.027	0.35
396.233	0.27
396.438	0.33
396.644	0.34
396.85	0.34
397.055	0.35
397.261	0.31
397.466	0.41
397.672	0.34
397.878	0.31
398.083	0.35
398.289	0.27
398.494	0.42
398.7	0.36
398.905	0.25
399.111	0.45
399.316	0.27
399.522	0.36
399.727	0.31
399.932	0.34
400.138	0.29
400.343	0.4
400.549	0.35
400.754	0.35
400.959	0.39
401.165	0.34
401.37	0.34
401.575	0.37
401.78	0.38
401.986	0.34
402.191	0.31
402.396	0.41
402.601	0.42
402.807	0.38
403.012	0.36
403.217	0.48
403.422	0.4
403.627	0.39
403.832	0.42
404.037	0.48
404.243	0.45
404.448	0.39
404.653	0.45
404.858	0.49
405.063	0.49
405.268	0.35
405.473	0.38
405.678	0.39
405.883	0.68
406.088	0.5
406.293	0.39
406.498	0.43
406.703	0.51
406.907	0.46
407.112	0.43
407.317	0.47
407.522	0.6
407.727	0.46
407.932	0.54
408.136	0.64
408.341	0.5
408.546	0.51
408.751	0.52
408.956	0.54
409.16	0.68
409.365	0.62
409.57	0.59
409.774	0.62
409.979	0.7
410.184	0.64
410.388	0.59
410.593	0.71
410.798	0.71
411.002	0.7
411.207	0.76
411.411	0.81
411.616	0.72
411.82	0.79
412.025	0.84
412.229	0.86
412.434	0.89
412.638	0.88
412.843	0.9
413.047	0.92
413.252	0.87
413.456	0.96
413.66	1.03
413.865	0.93
414.069	1.1
414.273	1.02
414.478	1.06
414.682	1.11
414.886	1.15
415.091	1.17
415.295	1.15
415.499	1.33
415.703	1.26
415.908	1.33
416.112	1.23
416.316	1.46
416.52	1.46
416.724	1.44
416.929	1.47
417.133	1.75
417.337	1.62
417.541	1.62
417.745	1.76
417.949	1.82
418.153	1.87
418.357	1.92
418.561	2.1
418.765	2.03
418.969	2.19
419.173	2.32
419.377	2.17
419.581	2.45
419.785	2.39
419.989	2.44
420.193	2.57
420.397	2.63
420.601	2.74
420.804	2.88
421.008	2.86
421.212	3.01
421.416	3.02
421.62	2.99
421.823	3.13
422.027	3.28
422.231	3.22
422.435	3.2
422.638	3.24
422.842	3.37
423.046	3.37
423.249	3.6
423.453	3.66
423.657	3.75
423.86	3.9
424.064	4.02
424.268	4.14
424.471	4.13
424.675	4.38
424.878	4.43
425.082	4.52
425.285	4.82
425.489	4.73
425.692	4.78
425.896	4.77
426.099	5.04
426.303	5.2
426.506	5.26
426.71	5.5
426.913	5.76
427.116	5.88
427.32	5.86
427.523	5.98
427.726	6.25
427.93	6.22
428.133	6.65
428.336	6.82
428.54	6.88
428.743	7.17
428.946	7.29
429.149	7.36
429.353	7.37
429.556	7.47
429.759	7.53
429.962	7.64
430.165	7.78
430.368	7.48
430.571	7.56
430.775	7.58
430.978	7.58
431.181	7.7
431.384	7.75
431.587	7.85
431.79	8.2
431.993	8.23
432.196	8.4
432.399	8.87
432.602	8.97
432.805	9.14
433.008	9.56
433.211	9.34
433.414	9.8
433.616	9.85
433.819	9.72
434.022	9.99
434.225	9.95
434.428	10.13
434.631	10.5
434.833	10.34
435.036	10.55
435.239	10.82
435.442	10.85
435.645	11.01
435.847	11.05
436.05	11.4
436.253	11.69
436.455	11.67
436.658	11.46
436.861	11.69
437.063	11.98
437.266	11.84
437.468	12.29
437.671	12.62
437.874	12.66
438.076	12.42
438.279	12.92
438.481	12.91
438.684	13.74
438.886	13.28
439.089	13.51
439.291	13.54
439.494	13.87
439.696	14.02
439.899	14.56
440.101	15.01
440.303	15.23
440.506	15.82
440.708	15.58
440.91	15.71
441.113	15.99
441.315	16.3
441.517	16.04
441.72	16.61
441.922	16.16
442.124	16.08
442.326	16.48
442.529	16.71
442.731	16.78
442.933	17.07
443.135	16.74
443.337	16.85
443.539	17.3
443.742	17.08
443.944	17.72
444.146	17.49
444.348	17.51
444.55	17.36
444.752	17.56
444.954	17.63
445.156	17.42
445.358	17.72
445.56	18.24
445.762	18.1
445.964	18.4
446.166	18.02
446.368	18.24
446.57	18.13
446.772	17.66
446.974	17.58
447.175	17.93
447.377	17.42
447.579	17.93
447.781	17.69
447.983	17.45
448.184	17.1
448.386	17.48
448.588	17.06
448.79	17.07
448.991	17.38
449.193	17.58
449.395	16.72
449.597	16.38
449.798	16.34
450	15.99
450.202	15.91
450.403	15.95
450.605	15.84
450.806	15.45
451.008	15.44
451.21	15.12
451.411	14.74
451.613	14.03
451.814	14.29
452.016	14.24
452.217	13.62
452.419	13.64
452.62	13.26
452.821	13.14
453.023	12.9
453.224	12.55
453.426	12.15
453.627	11.4
453.828	11.51
454.03	11.73
454.231	11.57
454.432	11.55
454.634	11.27
454.835	10.87
455.036	10.82
455.238	10.42
455.439	10.27
455.64	9.97
455.841	9.8
456.042	9.83
456.244	9.45
456.445	9.34
456.646	9
456.847	8.93
457.048	8.95
457.249	8.8
457.45	8.64
457.651	8.19
457.852	7.87
458.054	7.66
458.255	7.59
458.456	7.56
458.657	7.5
458.858	7.04
459.058	6.91
459.259	6.96
459.46	6.74
459.661	6.68
459.862	6.74
460.063	6.57
460.264	6.56
460.465	6.25
460.666	6.39
460.866	6.04
461.067	5.75
461.268	5.86
461.469	5.8
461.67	5.71
461.87	5.4
462.071	5.5
462.272	5.31
462.473	5.37
462.673	5.5
462.874	5.44
463.075	5.3
463.275	5.35
463.476	5.34
463.676	5.3
463.877	5.16
464.078	5.28
464.278	5.23
464.479	5.06
464.679	4.91
464.88	4.95
465.08	4.93
465.281	4.66
465.481	4.47
465.682	4.33
465.882	4.41
466.083	4.3
466.283	4.23
466.483	4.04
466.684	3.92
466.884	3.77
467.085	3.92
467.285	3.97
467.485	3.78
467.686	3.73
467.886	3.58
468.086	3.51
468.286	3.57
468.487	3.59
468.687	3.45
468.887	3.41
469.087	3.52
469.287	3.42
469.488	3.26
469.688	3.36
469.888	3.33
470.088	3.23
470.288	3.21
470.488	3.17
470.688	3.12
470.888	3.08
471.088	2.82
471.288	2.91
471.488	2.89
471.688	2.92
471.888	2.81
472.088	2.98
472.288	2.85
472.488	2.73
472.688	2.69
472.888	2.79
473.088	2.73
473.288	2.65
473.488	2.61
473.688	2.76
473.887	2.59
474.087	2.55
474.287	2.57
474.487	2.47
474.687	2.55
474.886	2.47
475.086	2.44
475.286	2.46
475.486	2.36
475.685	2.33
475.885	2.28
476.085	2.33
476.284	2.39
476.484	2.37
476.684	2.29
476.883	2.35
477.083	2.29
477.282	2.24
477.482	2.28
477.681	2.27
477.881	2.14
478.08	2.19
478.28	2.14
478.479	2.22
478.679	2.2
478.878	2.15
479.078	2.09
479.277	2.17
479.477	2.12
479.676	2.09
479.875	2.09
480.075	2.03
480.274	2.1
480.473	2.13
480.673	2.08
480.872	2.15
481.071	2.07
481.271	2.11
481.47	2.05
481.669	2.07
481.868	2.02
482.067	2.06
482.267	1.98
482.466	1.96
482.665	2.02
482.864	2
483.063	2.03
483.262	2.05
483.461	2.11
483.661	2.15
483.86	2.03
484.059	2.11
484.258	2.1
484.457	2.05
484.656	2.08
484.855	2.13
485.054	1.95
485.253	2.05
485.452	1.98
485.651	2.1
485.849	2.03
486.048	2.05
486.247	2.12
486.446	2.16
486.645	2.07
486.844	2.14
487.043	2.1
487.241	2.15
487.44	2.11
487.639	2.18
487.838	2.15
488.037	2.18
488.235	2.31
488.434	2.22
488.633	2.1
488.831	2.25
489.03	2.28
489.229	2.24
489.427	2.21
489.626	2.28
489.825	2.32
490.023	2.33
490.222	2.32
490.42	2.33
490.619	2.4
490.817	2.39
491.016	2.36
491.214	2.47
491.413	2.43
491.611	2.39
491.81	2.42
492.008	2.49
492.207	2.54
492.405	2.55
492.604	2.49
492.802	2.56
493	2.63
493.199	2.62
493.397	2.66
493.595	2.72
493.794	2.66
493.992	2.82
494.19	2.73
494.388	2.83
494.587	2.74
494.785	2.81
494.983	2.69
495.181	2.88
495.379	2.92
495.578	2.95
495.776	2.96
495.974	2.93
496.172	2.95
496.37	3.07
496.568	3.07
496.766	3.07
496.964	3.16
497.162	3.19
497.36	3.21
497.558	3.22
497.756	3.3
497.954	3.3
498.152	3.33
498.35	3.44
498.548	3.34
498.746	3.39
498.944	3.41
499.142	3.43
499.34	3.54
499.538	3.59
499.736	3.47
499.933	3.63
500.131	3.64
500.329	3.73
500.527	3.76
500.725	3.87
500.922	3.83
501.12	3.85
501.318	3.86
501.516	3.88
501.713	3.98
501.911	3.94
502.109	3.97
502.306	4.04
502.504	3.97
