Data from Apollo_Calib_20240827__AbsoluteIrradiance__834__13-03-00-461.txt Node

Date: Wed Aug 28 13:03:00 BST 2024
User: biology
Spectrometer: FLMT08252
Trigger mode: 0
Integration Time (sec): 5.000000E-1
Scans to average: 5
Electric dark correction enabled: true
Nonlinearity correction enabled: false
Boxcar width: 0
XAxis mode: Wavelengths
Number of Pixels in Spectrum: 3648
>>>>>Begin Spectral Data<<<<<
179.588	-0
179.809	-0
180.03	-0
180.251	-0
180.473	-0
180.694	0
180.915	0
181.136	-0
181.357	0
181.578	-0
181.799	-0
182.02	0
182.241	-0
182.462	-0
182.683	0
182.904	-0
183.125	-0
183.346	0
183.567	0
183.788	0
184.009	0
184.23	0
184.451	0
184.672	0
184.892	0
185.113	0
185.334	0
185.555	0
185.776	0
185.996	0
186.217	0
186.438	0
186.659	0
186.879	0
187.1	0
187.321	0
187.541	0
187.762	0
187.983	0
188.203	0
188.424	0
188.644	0
188.865	0
189.086	0
189.306	0
189.527	0
189.747	0
189.968	0
190.188	0
190.409	0
190.629	0
190.849	0
191.07	0
191.29	0
191.511	0
191.731	0
191.951	0
192.172	0
192.392	0
192.612	0
192.833	0
193.053	0
193.273	0
193.493	0
193.714	0
193.934	0
194.154	0
194.374	0
194.594	0
194.815	0
195.035	0
195.255	0
195.475	0
195.695	0
195.915	0
196.135	0
196.355	0
196.575	0
196.795	0
197.015	0
197.235	0
197.455	0
197.675	0
197.895	0
198.115	0
198.335	0
198.555	0
198.775	0
198.995	0
199.214	0
199.434	0
199.654	0
199.874	0
200.094	3.88
200.313	2.28
200.533	1.51
200.753	1.63
200.973	3.52
201.192	3.5
201.412	1.72
201.632	1.56
201.851	3.26
202.071	2.03
202.291	1.47
202.51	1.52
202.73	2.5
202.95	1.58
203.169	1.55
203.389	1.59
203.608	2.04
203.828	1.56
204.047	1.47
204.267	2.34
204.486	2.32
204.706	2.21
204.925	1.85
205.145	1.5
205.364	2.2
205.583	2.65
205.803	1.16
206.022	1.16
206.242	1.58
206.461	1.77
206.68	1.28
206.9	1.42
207.119	2.5
207.338	2.16
207.557	1.04
207.777	1.24
207.996	1.54
208.215	2.23
208.434	1.33
208.654	1.08
208.873	1.53
209.092	2.12
209.311	1.23
209.53	1.02
209.749	1.23
209.968	1.37
210.187	0.93
210.407	0.85
210.626	1.1
210.845	1.52
211.064	0.95
211.283	0.83
211.502	1.56
211.721	1.23
211.94	0.9
212.159	1.5
212.377	1.63
212.596	1.77
212.815	1.21
213.034	1.27
213.253	1.38
213.472	1.53
213.691	1.01
213.91	0.74
214.128	0.79
214.347	1.54
214.566	0.63
214.785	0.49
215.003	1.36
215.222	1.18
215.441	0.87
215.66	0.65
215.878	1.18
216.097	1.39
216.316	0.61
216.534	1.04
216.753	1.01
216.972	0.75
217.19	0.85
217.409	0.77
217.627	0.58
217.846	0.75
218.064	0.96
218.283	0.57
218.501	1.34
218.72	1.27
218.938	0.53
219.157	0.72
219.375	1.09
219.594	1.06
219.812	0.57
220.031	0.49
220.249	1.17
220.467	1.03
220.686	0.52
220.904	0.42
221.122	0.72
221.341	1.18
221.559	0.95
221.777	0.57
221.995	0.91
222.214	0.93
222.432	0.52
222.65	0.84
222.868	0.79
223.086	0.79
223.305	0.93
223.523	0.58
223.741	1.09
223.959	0.97
224.177	0.35
224.395	0.66
224.613	0.76
224.831	0.86
225.049	0.41
225.267	0.57
225.485	0.85
225.703	0.56
225.921	0.63
226.139	0.66
226.357	0.87
226.575	0.77
226.793	0.62
227.011	1.56
227.229	0.78
227.447	0.82
227.665	0.5
227.883	0.51
228.1	0.58
228.318	0.8
228.536	0.33
228.754	0.41
228.972	0.68
229.189	0.79
229.407	0.53
229.625	0.66
229.843	0.83
230.06	0.93
230.278	0.6
230.496	0.5
230.713	0.67
230.931	0.85
231.149	0.52
231.366	0.33
231.584	0.51
231.801	1.05
232.019	0.48
232.236	0.37
232.454	0.53
232.671	0.58
232.889	0.45
233.106	0.39
233.324	0.72
233.541	0.58
233.759	0.6
233.976	0.37
234.194	0.58
234.411	0.67
234.628	0.34
234.846	0.55
235.063	0.56
235.28	0.77
235.498	0.5
235.715	0.25
235.932	0.81
236.149	0.52
236.367	0.34
236.584	0.58
236.801	0.47
237.018	0.61
237.236	0.54
237.453	0.35
237.67	0.67
237.887	0.56
238.104	0.44
238.321	0.34
238.538	0.46
238.755	0.77
238.973	0.3
239.19	0.46
239.407	0.61
239.624	0.51
239.841	0.24
240.058	0.37
240.275	0.54
240.492	0.48
240.709	0.42
240.925	0.49
241.142	0.55
241.359	0.44
241.576	0.27
241.793	0.36
242.01	0.4
242.227	0.65
242.444	0.55
242.66	0.66
242.877	0.49
243.094	0.51
243.311	0.47
243.527	0.44
243.744	0.54
243.961	0.49
244.178	0.4
244.394	0.41
244.611	0.6
244.828	0.62
245.044	0.38
245.261	0.4
245.477	0.49
245.694	0.48
245.911	0.33
246.127	0.48
246.344	0.66
246.56	0.59
246.777	0.39
246.993	0.4
247.21	0.46
247.426	0.54
247.643	0.3
247.859	0.32
248.076	0.3
248.292	0.68
248.508	0.41
248.725	0.47
248.941	0.48
249.157	0.64
249.374	0.33
249.59	0.42
249.806	0.47
250.023	0.5
250.239	0.4
250.455	0.3
250.671	0.4
250.888	0.49
251.104	0.49
251.32	0.32
251.536	0.39
251.752	0.38
251.969	0.42
252.185	0.3
252.401	0.68
252.617	0.47
252.833	0.33
253.049	0.39
253.265	0.42
253.481	0.46
253.697	0.35
253.913	0.27
254.129	0.5
254.345	0.43
254.561	0.31
254.777	0.28
254.993	0.47
255.209	0.54
255.425	0.4
255.641	0.31
255.857	0.52
256.073	0.53
256.288	0.28
256.504	0.28
256.72	0.53
256.936	0.68
257.152	0.36
257.367	0.3
257.583	0.39
257.799	0.48
258.015	0.36
258.23	0.3
258.446	0.59
258.662	0.41
258.877	0.22
259.093	0.3
259.309	0.45
259.524	0.42
259.74	0.35
259.955	0.3
260.171	0.39
260.387	0.4
260.602	0.46
260.818	0.39
261.033	0.28
261.249	0.37
261.464	0.26
261.68	0.28
261.895	0.47
262.11	0.48
262.326	0.36
262.541	0.26
262.757	0.51
262.972	0.5
263.187	0.38
263.403	0.42
263.618	0.47
263.833	0.38
264.049	0.29
264.264	0.37
264.479	0.39
264.694	0.54
264.91	0.26
265.125	0.37
265.34	0.55
265.555	0.57
265.77	0.36
265.986	0.34
266.201	0.39
266.416	0.51
266.631	0.33
266.846	0.34
267.061	0.49
267.276	0.46
267.491	0.22
267.706	0.33
267.921	0.45
268.136	0.42
268.351	0.32
268.566	0.15
268.781	0.46
268.996	0.46
269.211	0.31
269.426	0.25
269.641	0.32
269.856	0.46
270.071	0.28
270.285	0.21
270.5	0.49
270.715	0.44
270.93	0.31
271.145	0.4
271.359	0.44
271.574	0.3
271.789	0.35
272.004	0.25
272.218	0.31
272.433	0.4
272.648	0.32
272.862	0.42
273.077	0.41
273.292	0.34
273.506	0.25
273.721	0.3
273.936	0.39
274.15	0.44
274.365	0.32
274.579	0.35
274.794	0.42
275.008	0.42
275.223	0.2
275.437	0.32
275.652	0.43
275.866	0.39
276.081	0.32
276.295	0.41
276.509	0.36
276.724	0.36
276.938	0.33
277.153	0.4
277.367	0.43
277.581	0.27
277.796	0.27
278.01	0.23
278.224	0.39
278.438	0.45
278.653	0.25
278.867	0.23
279.081	0.18
279.295	0.35
279.51	0.33
279.724	0.22
279.938	0.38
280.152	0.32
280.366	0.24
280.58	0.33
280.794	0.47
281.008	0.36
281.222	0.29
281.437	0.48
281.651	0.36
281.865	0.42
282.079	0.3
282.293	0.16
282.507	0.3
282.721	0.28
282.935	0.29
283.148	0.18
283.362	0.28
283.576	0.23
283.79	0.32
284.004	0.26
284.218	0.4
284.432	0.25
284.646	0.3
284.859	0.25
285.073	0.29
285.287	0.31
285.501	0.29
285.714	0.3
285.928	0.33
286.142	0.34
286.356	0.25
286.569	0.25
286.783	0.46
286.997	0.41
287.21	0.3
287.424	0.27
287.637	0.29
287.851	0.26
288.065	0.37
288.278	0.27
288.492	0.28
288.705	0.28
288.919	0.36
289.132	0.22
289.346	0.37
289.559	0.23
289.773	0.22
289.986	0.31
290.2	0.27
290.413	0.39
290.626	0.25
290.84	0.27
291.053	0.29
291.267	0.36
291.48	0.26
291.693	0.25
291.906	0.29
292.12	0.3
292.333	0.23
292.546	0.27
292.76	0.34
292.973	0.33
293.186	0.31
293.399	0.22
293.612	0.38
293.826	0.27
294.039	0.3
294.252	0.26
294.465	0.34
294.678	0.26
294.891	0.33
295.104	0.22
295.317	0.24
295.53	0.27
295.743	0.28
295.956	0.23
296.169	0.39
296.382	0.36
296.595	0.24
296.808	0.23
297.021	0.39
297.234	0.36
297.447	0.27
297.66	0.29
297.873	0.39
298.086	0.38
298.299	0.19
298.511	0.15
298.724	0.32
298.937	0.23
299.15	0.21
299.363	0.23
299.575	0.33
299.788	0.31
300.001	0.23
300.213	0.22
300.426	0.26
300.639	0.19
300.852	0.23
301.064	0.31
301.277	0.34
301.489	0.28
301.702	0.27
301.915	0.28
302.127	0.28
302.34	0.29
302.552	0.28
302.765	0.21
302.977	0.35
303.19	0.21
303.402	0.21
303.615	0.23
303.827	0.26
304.04	0.27
304.252	0.3
304.464	0.23
304.677	0.4
304.889	0.29
305.102	0.21
305.314	0.21
305.526	0.31
305.739	0.28
305.951	0.2
306.163	0.23
306.375	0.37
306.588	0.26
306.8	0.21
307.012	0.23
307.224	0.27
307.436	0.31
307.649	0.2
307.861	0.25
308.073	0.32
308.285	0.26
308.497	0.24
308.709	0.23
308.921	0.27
309.133	0.34
309.346	0.28
309.558	0.21
309.77	0.3
309.982	0.42
310.194	0.32
310.406	0.19
310.617	0.34
310.829	0.27
311.041	0.29
311.253	0.22
311.465	0.23
311.677	0.25
311.889	0.25
312.101	0.25
312.313	0.3
312.524	0.36
312.736	0.2
312.948	0.21
313.16	0.37
313.372	0.3
313.583	0.28
313.795	0.27
314.007	0.22
314.218	0.28
314.43	0.24
314.642	0.23
314.853	0.18
315.065	0.34
315.277	0.24
315.488	0.24
315.7	0.28
315.912	0.3
316.123	0.23
316.335	0.27
316.546	0.42
316.758	0.29
316.969	0.22
317.181	0.27
317.392	0.27
317.604	0.36
317.815	0.19
318.026	0.25
318.238	0.25
318.449	0.31
318.661	0.14
318.872	0.17
319.083	0.23
319.295	0.31
319.506	0.27
319.717	0.25
319.929	0.31
320.14	0.26
320.351	0.23
320.562	0.24
320.774	0.27
320.985	0.25
321.196	0.22
321.407	0.17
321.618	0.31
321.829	0.33
322.041	0.27
322.252	0.3
322.463	0.3
322.674	0.29
322.885	0.18
323.096	0.28
323.307	0.29
323.518	0.29
323.729	0.22
323.94	0.21
324.151	0.24
324.362	0.3
324.573	0.28
324.784	0.24
324.995	0.33
325.206	0.31
325.417	0.26
325.628	0.24
325.838	0.23
326.049	0.28
326.26	0.25
326.471	0.23
326.682	0.3
326.892	0.26
327.103	0.18
327.314	0.21
327.525	0.34
327.735	0.28
327.946	0.25
328.157	0.2
328.368	0.34
328.578	0.27
328.789	0.31
328.999	0.24
329.21	0.26
329.421	0.32
329.631	0.23
329.842	0.2
330.052	0.3
330.263	0.31
330.473	0.3
330.684	0.22
330.894	0.29
331.105	0.3
331.315	0.31
331.526	0.18
331.736	0.36
331.947	0.28
332.157	0.26
332.367	0.17
332.578	0.32
332.788	0.33
332.999	0.29
333.209	0.26
333.419	0.18
333.629	0.33
333.84	0.28
334.05	0.31
334.26	0.38
334.47	0.29
334.681	0.29
334.891	0.2
335.101	0.37
335.311	0.35
335.521	0.24
335.732	0.23
335.942	0.32
336.152	0.33
336.362	0.3
336.572	0.27
336.782	0.31
336.992	0.25
337.202	0.22
337.412	0.23
337.622	0.33
337.832	0.28
338.042	0.24
338.252	0.22
338.462	0.23
338.672	0.29
338.882	0.27
339.092	0.27
339.302	0.35
339.511	0.31
339.721	0.24
339.931	0.22
340.141	0.36
340.351	0.34
340.561	0.32
340.77	0.27
340.98	0.28
341.19	0.28
341.4	0.28
341.609	0.24
341.819	0.23
342.029	0.16
342.238	0.26
342.448	0.22
342.658	0.28
342.867	0.23
343.077	0.27
343.286	0.29
343.496	0.31
343.706	0.34
343.915	0.19
344.125	0.24
344.334	0.28
344.544	0.18
344.753	0.29
344.963	0.19
345.172	0.24
345.381	0.23
345.591	0.23
345.8	0.24
346.01	0.32
346.219	0.33
346.428	0.1
346.638	0.26
346.847	0.26
347.056	0.34
347.266	0.24
347.475	0.22
347.684	0.31
347.893	0.2
348.103	0.26
348.312	0.2
348.521	0.29
348.73	0.24
348.94	0.26
349.149	0.21
349.358	0.24
349.567	0.2
349.776	0.22
349.985	0.2
350.194	0.3
350.403	0.33
350.612	0.17
350.821	0.2
351.03	0.25
351.239	0.24
351.448	0.24
351.657	0.2
351.866	0.35
352.075	0.26
352.284	0.31
352.493	0.24
352.702	0.34
352.911	0.27
353.12	0.27
353.329	0.26
353.538	0.29
353.746	0.26
353.955	0.17
354.164	0.29
354.373	0.22
354.582	0.33
354.79	0.27
354.999	0.29
355.208	0.23
355.416	0.34
355.625	0.18
355.834	0.22
356.042	0.29
356.251	0.25
356.46	0.18
356.668	0.3
356.877	0.35
357.085	0.31
357.294	0.15
357.503	0.26
357.711	0.27
357.92	0.48
358.128	0.26
358.337	0.17
358.545	0.28
358.754	0.25
358.962	0.26
359.17	0.22
359.379	0.25
359.587	0.25
359.796	0.21
360.004	0.29
360.212	0.3
360.421	0.34
360.629	0.25
360.837	0.28
361.046	0.35
361.254	0.4
361.462	0.23
361.67	0.3
361.879	0.29
362.087	0.3
362.295	0.22
362.503	0.27
362.711	0.2
362.92	0.2
363.128	0.21
363.336	0.2
363.544	0.18
363.752	0.27
363.96	0.17
364.168	0.22
364.376	0.25
364.584	0.25
364.792	0.36
365	0.31
365.208	0.28
365.416	0.33
365.624	0.33
365.832	0.19
366.04	0.37
366.248	0.27
366.456	0.26
366.664	0.25
366.872	0.23
367.079	0.26
367.287	0.25
367.495	0.26
367.703	0.28
367.911	0.25
368.118	0.24
368.326	0.23
368.534	0.21
368.742	0.34
368.949	0.17
369.157	0.21
369.365	0.27
369.572	0.2
369.78	0.2
369.988	0.28
370.195	0.29
370.403	0.32
370.61	0.23
370.818	0.21
371.026	0.32
371.233	0.27
371.441	0.26
371.648	0.24
371.856	0.27
372.063	0.27
372.271	0.22
372.478	0.24
372.685	0.21
372.893	0.33
373.1	0.22
373.308	0.26
373.515	0.38
373.722	0.37
373.93	0.24
374.137	0.29
374.344	0.32
374.552	0.33
374.759	0.29
374.966	0.2
375.173	0.25
375.381	0.35
375.588	0.23
375.795	0.17
376.002	0.23
376.209	0.21
376.417	0.26
376.624	0.28
376.831	0.3
377.038	0.31
377.245	0.2
377.452	0.24
377.659	0.25
377.866	0.26
378.073	0.26
378.28	0.3
378.487	0.29
378.694	0.33
378.901	0.21
379.108	0.23
379.315	0.31
379.522	0.38
379.729	0.3
379.936	0.23
380.143	0.3
380.35	0.29
380.557	0.25
380.763	0.28
380.97	0.27
381.177	0.33
381.384	0.27
381.591	0.19
381.797	0.27
382.004	0.34
382.211	0.31
382.418	0.22
382.624	0.34
382.831	0.36
383.038	0.31
383.244	0.3
383.451	0.25
383.658	0.33
383.864	0.26
384.071	0.21
384.277	0.36
384.484	0.24
384.69	0.35
384.897	0.24
385.103	0.29
385.31	0.25
385.516	0.26
385.723	0.19
385.929	0.29
386.136	0.28
386.342	0.3
386.549	0.27
386.755	0.38
386.961	0.35
387.168	0.26
387.374	0.27
387.58	0.35
387.787	0.29
387.993	0.32
388.199	0.3
388.406	0.26
388.612	0.3
388.818	0.27
389.024	0.23
389.231	0.29
389.437	0.4
389.643	0.31
389.849	0.29
390.055	0.3
390.261	0.29
390.467	0.33
390.674	0.26
390.88	0.27
391.086	0.34
391.292	0.26
391.498	0.31
391.704	0.33
391.91	0.32
392.116	0.29
392.322	0.22
392.528	0.32
392.734	0.31
392.94	0.33
393.146	0.31
393.352	0.35
393.557	0.29
393.763	0.27
393.969	0.33
394.175	0.32
394.381	0.34
394.587	0.29
394.792	0.35
394.998	0.39
395.204	0.36
395.41	0.31
395.615	0.36
395.821	0.34
396.027	0.38
396.233	0.3
396.438	0.36
396.644	0.4
396.85	0.29
397.055	0.31
397.261	0.35
397.466	0.43
397.672	0.41
397.878	0.35
398.083	0.37
398.289	0.31
398.494	0.39
398.7	0.35
398.905	0.24
399.111	0.45
399.316	0.27
399.522	0.38
399.727	0.32
399.932	0.33
400.138	0.37
400.343	0.39
400.549	0.32
400.754	0.37
400.959	0.37
401.165	0.38
401.37	0.37
401.575	0.48
401.78	0.38
401.986	0.34
402.191	0.36
402.396	0.39
402.601	0.4
402.807	0.42
403.012	0.4
403.217	0.45
403.422	0.41
403.627	0.43
403.832	0.4
404.037	0.49
404.243	0.44
404.448	0.41
404.653	0.35
404.858	0.43
405.063	0.45
405.268	0.39
405.473	0.35
405.678	0.43
405.883	0.68
406.088	0.52
406.293	0.43
406.498	0.47
406.703	0.47
406.907	0.48
407.112	0.44
407.317	0.58
407.522	0.62
407.727	0.49
407.932	0.56
408.136	0.68
408.341	0.51
408.546	0.58
408.751	0.6
408.956	0.6
409.16	0.67
409.365	0.59
409.57	0.59
409.774	0.67
409.979	0.73
410.184	0.69
410.388	0.6
410.593	0.79
410.798	0.71
411.002	0.72
411.207	0.83
411.411	0.83
411.616	0.83
411.82	0.84
412.025	0.84
412.229	0.88
412.434	0.97
412.638	0.94
412.843	0.91
413.047	0.99
413.252	0.95
413.456	1.05
413.66	1.07
413.865	1.03
414.069	1.16
414.273	1.09
414.478	1.07
414.682	1.25
414.886	1.23
415.091	1.16
415.295	1.25
415.499	1.4
415.703	1.35
415.908	1.45
416.112	1.4
416.316	1.64
416.52	1.61
416.724	1.53
416.929	1.64
417.133	1.85
417.337	1.73
417.541	1.78
417.745	1.92
417.949	1.98
418.153	2.01
418.357	2.02
418.561	2.25
418.765	2.3
418.969	2.37
419.173	2.47
419.377	2.47
419.581	2.72
419.785	2.64
419.989	2.64
420.193	2.78
420.397	2.92
420.601	3.11
420.804	3.21
421.008	3.17
421.212	3.31
421.416	3.33
421.62	3.28
421.823	3.42
422.027	3.56
422.231	3.56
422.435	3.53
422.638	3.56
422.842	3.73
423.046	3.77
423.249	3.91
423.453	4.01
423.657	4.23
423.86	4.25
424.064	4.45
424.268	4.6
424.471	4.52
424.675	4.75
424.878	4.83
425.082	4.96
425.285	5.27
425.489	5.17
425.692	5.31
425.896	5.32
426.099	5.49
426.303	5.72
426.506	5.73
426.71	6.1
426.913	6.28
427.116	6.43
427.32	6.36
427.523	6.56
427.726	6.78
427.93	6.94
428.133	7.21
428.336	7.31
428.54	7.45
428.743	7.75
428.946	8.03
429.149	7.93
429.353	7.96
429.556	8.05
429.759	8.16
429.962	8.28
430.165	8.47
430.368	8.05
430.571	8.05
430.775	8.12
430.978	8.27
431.181	8.16
431.384	8.27
431.587	8.4
431.79	8.79
431.993	8.64
432.196	9.06
432.399	9.29
432.602	9.61
432.805	9.5
433.008	10.16
433.211	9.98
433.414	10.33
433.616	10.43
433.819	10.28
434.022	10.44
434.225	10.7
434.428	10.7
434.631	11.16
434.833	10.84
435.036	11.15
435.239	11.37
435.442	11.39
435.645	11.52
435.847	11.73
436.05	12
436.253	12.16
436.455	12.21
436.658	12.06
436.861	12.35
437.063	12.56
437.266	12.57
437.468	12.97
437.671	13.18
437.874	13.26
438.076	13.03
438.279	13.5
438.481	13.58
438.684	14.33
438.886	13.9
439.089	14.14
439.291	14.31
439.494	14.52
439.696	14.79
439.899	15.34
440.101	15.68
440.303	15.93
440.506	16.67
440.708	16.39
440.91	16.56
441.113	16.81
441.315	17.03
441.517	16.93
441.72	17.29
441.922	16.98
442.124	16.88
442.326	17.34
442.529	17.49
442.731	17.41
442.933	17.71
443.135	17.6
443.337	17.47
443.539	18.11
443.742	17.64
443.944	18.63
444.146	18.02
444.348	18.1
444.55	18.07
444.752	18.14
444.954	18.24
445.156	18.07
445.358	18.5
445.56	18.67
445.762	18.41
445.964	18.76
446.166	18.6
446.368	18.66
446.57	18.68
446.772	18.18
446.974	17.98
447.175	18.48
447.377	17.92
447.579	18.3
447.781	17.87
447.983	17.82
448.184	17.46
448.386	17.76
448.588	17.16
448.79	17.1
448.991	17.52
449.193	17.47
449.395	16.72
449.597	16.44
449.798	16.48
450	15.95
450.202	15.8
450.403	15.97
450.605	15.71
450.806	15.33
451.008	15.12
451.21	14.96
451.411	14.55
451.613	13.74
451.814	14.06
452.016	14.05
452.217	13.26
452.419	13.39
452.62	12.98
452.821	12.76
453.023	12.53
453.224	12.22
453.426	11.84
453.627	11.03
453.828	11.11
454.03	11.15
454.231	11.21
454.432	11.06
454.634	10.76
454.835	10.5
455.036	10.29
455.238	10.12
455.439	9.72
455.64	9.45
455.841	9.39
456.042	9.61
456.244	9.14
456.445	8.88
456.646	8.52
456.847	8.54
457.048	8.38
457.249	8.45
457.45	8.35
457.651	7.73
457.852	7.62
458.054	7.23
458.255	7.23
458.456	7.15
458.657	7.12
458.858	6.77
459.058	6.68
459.259	6.64
459.46	6.43
459.661	6.38
459.862	6.42
460.063	6.25
460.264	6.18
460.465	5.94
460.666	6
460.866	5.81
461.067	5.48
461.268	5.52
461.469	5.47
461.67	5.34
461.87	5.15
462.071	5.26
462.272	5.15
462.473	5.13
462.673	5.25
462.874	5.14
463.075	5.09
463.275	5.09
463.476	5.1
463.676	5.08
463.877	4.89
464.078	4.96
464.278	5
464.479	4.82
464.679	4.73
464.88	4.67
465.08	4.67
465.281	4.48
465.481	4.27
465.682	4.14
465.882	4.08
466.083	4.1
466.283	4.08
466.483	3.98
466.684	3.7
466.884	3.64
467.085	3.71
467.285	3.73
467.485	3.55
467.686	3.53
467.886	3.37
468.086	3.39
468.286	3.34
468.487	3.39
468.687	3.29
468.887	3.15
469.087	3.37
469.287	3.3
469.488	3.05
469.688	3.2
469.888	3.16
470.088	3.09
470.288	3.05
470.488	3.04
470.688	2.91
470.888	2.8
471.088	2.71
471.288	2.81
471.488	2.75
471.688	2.7
471.888	2.69
472.088	2.8
472.288	2.71
472.488	2.6
472.688	2.52
472.888	2.62
473.088	2.57
473.288	2.48
473.488	2.43
473.688	2.62
473.887	2.5
474.087	2.33
474.287	2.44
474.487	2.44
474.687	2.42
474.886	2.34
475.086	2.3
475.286	2.35
475.486	2.3
475.685	2.23
475.885	2.18
476.085	2.31
476.284	2.29
476.484	2.25
476.684	2.22
476.883	2.31
477.083	2.17
477.282	2.15
477.482	2.17
477.681	2.07
477.881	2.07
478.08	2.1
478.28	2.08
478.479	2.11
478.679	2.13
478.878	2.05
479.078	2.03
479.277	2.08
479.477	2.1
479.676	2.07
479.875	2
480.075	1.99
480.274	2.03
480.473	2.08
480.673	1.99
480.872	2.05
481.071	2.09
481.271	2.02
481.47	1.98
481.669	2.01
481.868	1.97
482.067	2
482.267	1.91
482.466	1.94
482.665	1.94
482.864	1.93
483.063	1.93
483.262	2.02
483.461	2.08
483.661	2.08
483.86	2.02
484.059	2.08
484.258	2.02
484.457	1.98
484.656	2.04
484.855	2.14
485.054	1.89
485.253	1.94
485.452	1.93
485.651	2.05
485.849	2.01
486.048	1.98
486.247	2.05
486.446	2.1
486.645	2
486.844	2.07
487.043	2.08
487.241	2.11
487.44	2.06
487.639	2.13
487.838	2.12
488.037	2.1
488.235	2.24
488.434	2.18
488.633	2.06
488.831	2.25
489.03	2.25
489.229	2.2
489.427	2.21
489.626	2.29
489.825	2.32
490.023	2.3
490.222	2.28
490.42	2.32
490.619	2.34
490.817	2.35
491.016	2.39
491.214	2.42
491.413	2.4
491.611	2.41
491.81	2.38
492.008	2.49
492.207	2.54
492.405	2.54
492.604	2.46
492.802	2.6
493	2.58
493.199	2.63
493.397	2.63
493.595	2.69
493.794	2.66
493.992	2.78
494.19	2.76
494.388	2.82
494.587	2.76
494.785	2.78
494.983	2.71
495.181	2.85
495.379	2.9
495.578	2.99
495.776	2.99
495.974	2.9
496.172	2.98
496.37	3.12
496.568	3.1
496.766	3.11
496.964	3.18
497.162	3.22
497.36	3.21
497.558	3.23
497.756	3.31
497.954	3.31
498.152	3.4
498.35	3.43
498.548	3.37
498.746	3.42
498.944	3.42
499.142	3.42
499.34	3.53
499.538	3.61
499.736	3.48
499.933	3.66
500.131	3.69
500.329	3.76
500.527	3.77
500.725	3.9
500.922	3.9
501.12	3.88
501.318	3.94
501.516	3.91
501.713	4.03
501.911	4.03
502.109	3.96
502.306	4.09
502.504	4.01
502.701	4.07
502.899	4.2
