Data from Apollo_Calib_20240827__AbsoluteIrradiance__891__14-00-01-132.txt Node

Date: Wed Aug 28 14:00:01 BST 2024
User: biology
Spectrometer: FLMT08252
Trigger mode: 0
Integration Time (sec): 5.000000E-1
Scans to average: 5
Electric dark correction enabled: true
Nonlinearity correction enabled: false
Boxcar width: 0
XAxis mode: Wavelengths
Number of Pixels in Spectrum: 3648
>>>>>Begin Spectral Data<<<<<
179.588	-0
179.809	-0
180.03	-0
180.251	-0
180.473	-0
180.694	0
180.915	0
181.136	-0
181.357	0
181.578	-0
181.799	-0
182.02	-0
182.241	-0
182.462	-0
182.683	0
182.904	-0
183.125	-0
183.346	0
183.567	0
183.788	0
184.009	0
184.23	0
184.451	0
184.672	0
184.892	0
185.113	0
185.334	0
185.555	0
185.776	0
185.996	0
186.217	0
186.438	0
186.659	0
186.879	0
187.1	0
187.321	0
187.541	0
187.762	0
187.983	0
188.203	0
188.424	0
188.644	0
188.865	0
189.086	0
189.306	0
189.527	0
189.747	0
189.968	0
190.188	0
190.409	0
190.629	0
190.849	0
191.07	0
191.29	0
191.511	0
191.731	0
191.951	0
192.172	0
192.392	0
192.612	0
192.833	0
193.053	0
193.273	0
193.493	0
193.714	0
193.934	0
194.154	0
194.374	0
194.594	0
194.815	0
195.035	0
195.255	0
195.475	0
195.695	0
195.915	0
196.135	0
196.355	0
196.575	0
196.795	0
197.015	0
197.235	0
197.455	0
197.675	0
197.895	0
198.115	0
198.335	0
198.555	0
198.775	0
198.995	0
199.214	0
199.434	0
199.654	0
199.874	0
200.094	4.06
200.313	1.97
200.533	2.07
200.753	1.3
200.973	3.66
201.192	2.96
201.412	1.53
201.632	1.83
201.851	3.32
202.071	1.51
202.291	1.93
202.51	1.54
202.73	2.68
202.95	1.94
203.169	1.29
203.389	1.62
203.608	2.35
203.828	1.66
204.047	1.53
204.267	2.15
204.486	2.45
204.706	2.4
204.925	1.73
205.145	1.35
205.364	2.17
205.583	2.65
205.803	1.24
206.022	1.11
206.242	1.75
206.461	1.88
206.68	1.44
206.9	1.67
207.119	2.44
207.338	1.95
207.557	1.15
207.777	1.47
207.996	1.38
208.215	2.38
208.434	1.21
208.654	0.51
208.873	1.49
209.092	1.89
209.311	1.19
209.53	0.83
209.749	1.34
209.968	1.1
210.187	0.99
210.407	0.74
210.626	1.16
210.845	1.67
211.064	0.98
211.283	0.79
211.502	1.76
211.721	1.19
211.94	0.91
212.159	1.23
212.377	1.41
212.596	1.51
212.815	1.14
213.034	1.41
213.253	1.47
213.472	1.34
213.691	0.97
213.91	0.67
214.128	0.64
214.347	1.68
214.566	0.49
214.785	0.45
215.003	1.39
215.222	1.07
215.441	0.77
215.66	0.48
215.878	1.11
216.097	1.33
216.316	0.61
216.534	0.74
216.753	1.2
216.972	0.74
217.19	0.8
217.409	0.6
217.627	0.75
217.846	0.93
218.064	0.77
218.283	0.49
218.501	1.65
218.72	1.12
218.938	0.62
219.157	0.63
219.375	1.14
219.594	1.09
219.812	0.52
220.031	0.46
220.249	1.39
220.467	1.29
220.686	0.56
220.904	0.49
221.122	0.61
221.341	1.22
221.559	0.94
221.777	0.55
221.995	0.91
222.214	1.13
222.432	0.63
222.65	1
222.868	0.86
223.086	0.97
223.305	0.94
223.523	0.66
223.741	1.18
223.959	0.78
224.177	0.32
224.395	0.48
224.613	0.75
224.831	0.98
225.049	0.5
225.267	0.63
225.485	0.81
225.703	0.61
225.921	0.48
226.139	0.57
226.357	0.85
226.575	0.92
226.793	0.31
227.011	1.67
227.229	0.76
227.447	0.96
227.665	0.57
227.883	0.45
228.1	0.66
228.318	0.81
228.536	0.29
228.754	0.51
228.972	0.68
229.189	0.81
229.407	0.47
229.625	0.52
229.843	0.96
230.06	0.89
230.278	0.49
230.496	0.68
230.713	0.68
230.931	0.85
231.149	0.53
231.366	0.36
231.584	0.6
231.801	1.15
232.019	0.57
232.236	0.39
232.454	0.37
232.671	0.66
232.889	0.45
233.106	0.44
233.324	0.61
233.541	0.52
233.759	0.56
233.976	0.36
234.194	0.65
234.411	0.61
234.628	0.35
234.846	0.41
235.063	0.53
235.28	0.62
235.498	0.5
235.715	0.36
235.932	0.83
236.149	0.57
236.367	0.26
236.584	0.59
236.801	0.54
237.018	0.63
237.236	0.56
237.453	0.24
237.67	0.74
237.887	0.45
238.104	0.59
238.321	0.39
238.538	0.35
238.755	0.69
238.973	0.23
239.19	0.46
239.407	0.63
239.624	0.6
239.841	0.36
240.058	0.39
240.275	0.58
240.492	0.48
240.709	0.42
240.925	0.44
241.142	0.52
241.359	0.41
241.576	0.41
241.793	0.35
242.01	0.43
242.227	0.7
242.444	0.5
242.66	0.56
242.877	0.58
243.094	0.45
243.311	0.47
243.527	0.39
243.744	0.59
243.961	0.54
244.178	0.37
244.394	0.43
244.611	0.64
244.828	0.68
245.044	0.4
245.261	0.41
245.477	0.52
245.694	0.6
245.911	0.36
246.127	0.47
246.344	0.64
246.56	0.44
246.777	0.37
246.993	0.37
247.21	0.53
247.426	0.53
247.643	0.31
247.859	0.37
248.076	0.48
248.292	0.73
248.508	0.4
248.725	0.43
248.941	0.46
249.157	0.62
249.374	0.27
249.59	0.4
249.806	0.45
250.023	0.46
250.239	0.31
250.455	0.28
250.671	0.38
250.888	0.41
251.104	0.44
251.32	0.37
251.536	0.39
251.752	0.37
251.969	0.45
252.185	0.29
252.401	0.62
252.617	0.54
252.833	0.38
253.049	0.37
253.265	0.45
253.481	0.48
253.697	0.35
253.913	0.33
254.129	0.47
254.345	0.5
254.561	0.41
254.777	0.38
254.993	0.53
255.209	0.51
255.425	0.38
255.641	0.33
255.857	0.52
256.073	0.47
256.288	0.23
256.504	0.28
256.72	0.4
256.936	0.61
257.152	0.4
257.367	0.24
257.583	0.38
257.799	0.51
258.015	0.23
258.23	0.32
258.446	0.64
258.662	0.38
258.877	0.33
259.093	0.28
259.309	0.42
259.524	0.43
259.74	0.32
259.955	0.26
260.171	0.39
260.387	0.42
260.602	0.5
260.818	0.46
261.033	0.25
261.249	0.41
261.464	0.31
261.68	0.31
261.895	0.45
262.11	0.53
262.326	0.35
262.541	0.21
262.757	0.5
262.972	0.47
263.187	0.36
263.403	0.41
263.618	0.52
263.833	0.37
264.049	0.27
264.264	0.29
264.479	0.37
264.694	0.53
264.91	0.23
265.125	0.34
265.34	0.49
265.555	0.6
265.77	0.32
265.986	0.22
266.201	0.4
266.416	0.53
266.631	0.31
266.846	0.3
267.061	0.45
267.276	0.44
267.491	0.19
267.706	0.44
267.921	0.37
268.136	0.42
268.351	0.29
268.566	0.22
268.781	0.55
268.996	0.44
269.211	0.37
269.426	0.24
269.641	0.32
269.856	0.41
270.071	0.29
270.285	0.22
270.5	0.44
270.715	0.43
270.93	0.3
271.145	0.37
271.359	0.46
271.574	0.34
271.789	0.29
272.004	0.3
272.218	0.27
272.433	0.42
272.648	0.3
272.862	0.39
273.077	0.36
273.292	0.41
273.506	0.23
273.721	0.32
273.936	0.42
274.15	0.41
274.365	0.26
274.579	0.3
274.794	0.4
275.008	0.44
275.223	0.22
275.437	0.32
275.652	0.42
275.866	0.37
276.081	0.32
276.295	0.36
276.509	0.35
276.724	0.35
276.938	0.34
277.153	0.31
277.367	0.41
277.581	0.28
277.796	0.28
278.01	0.25
278.224	0.38
278.438	0.49
278.653	0.27
278.867	0.21
279.081	0.48
279.295	0.35
279.51	0.3
279.724	0.21
279.938	0.4
280.152	0.37
280.366	0.33
280.58	0.36
280.794	0.46
281.008	0.44
281.222	0.32
281.437	0.56
281.651	0.35
281.865	0.47
282.079	0.3
282.293	0.15
282.507	0.23
282.721	0.32
282.935	0.25
283.148	0.16
283.362	0.33
283.576	0.24
283.79	0.25
284.004	0.24
284.218	0.44
284.432	0.3
284.646	0.3
284.859	0.25
285.073	0.28
285.287	0.32
285.501	0.32
285.714	0.23
285.928	0.28
286.142	0.41
286.356	0.3
286.569	0.24
286.783	0.4
286.997	0.35
287.21	0.34
287.424	0.3
287.637	0.28
287.851	0.28
288.065	0.37
288.278	0.24
288.492	0.35
288.705	0.26
288.919	0.33
289.132	0.19
289.346	0.34
289.559	0.2
289.773	0.24
289.986	0.28
290.2	0.23
290.413	0.37
290.626	0.25
290.84	0.24
291.053	0.33
291.267	0.37
291.48	0.27
291.693	0.22
291.906	0.24
292.12	0.27
292.333	0.22
292.546	0.21
292.76	0.41
292.973	0.31
293.186	0.34
293.399	0.29
293.612	0.34
293.826	0.32
294.039	0.25
294.252	0.25
294.465	0.32
294.678	0.33
294.891	0.28
295.104	0.26
295.317	0.27
295.53	0.29
295.743	0.28
295.956	0.2
296.169	0.39
296.382	0.3
296.595	0.24
296.808	0.25
297.021	0.34
297.234	0.35
297.447	0.25
297.66	0.26
297.873	0.36
298.086	0.34
298.299	0.21
298.511	0.15
298.724	0.25
298.937	0.18
299.15	0.18
299.363	0.24
299.575	0.32
299.788	0.38
300.001	0.26
300.213	0.2
300.426	0.26
300.639	0.23
300.852	0.22
301.064	0.3
301.277	0.38
301.489	0.32
301.702	0.27
301.915	0.28
302.127	0.31
302.34	0.28
302.552	0.31
302.765	0.22
302.977	0.34
303.19	0.2
303.402	0.2
303.615	0.22
303.827	0.25
304.04	0.26
304.252	0.3
304.464	0.25
304.677	0.43
304.889	0.39
305.102	0.23
305.314	0.25
305.526	0.3
305.739	0.29
305.951	0.21
306.163	0.22
306.375	0.38
306.588	0.25
306.8	0.2
307.012	0.2
307.224	0.3
307.436	0.35
307.649	0.14
307.861	0.25
308.073	0.29
308.285	0.24
308.497	0.17
308.709	0.17
308.921	0.29
309.133	0.34
309.346	0.24
309.558	0.26
309.77	0.33
309.982	0.37
310.194	0.26
310.406	0.18
310.617	0.37
310.829	0.32
311.041	0.28
311.253	0.18
311.465	0.28
311.677	0.27
311.889	0.23
312.101	0.18
312.313	0.35
312.524	0.37
312.736	0.18
312.948	0.22
313.16	0.35
313.372	0.37
313.583	0.25
313.795	0.22
314.007	0.25
314.218	0.35
314.43	0.24
314.642	0.23
314.853	0.15
315.065	0.33
315.277	0.25
315.488	0.27
315.7	0.34
315.912	0.27
316.123	0.25
316.335	0.23
316.546	0.39
316.758	0.26
316.969	0.26
317.181	0.28
317.392	0.24
317.604	0.32
317.815	0.22
318.026	0.21
318.238	0.24
318.449	0.29
318.661	0.2
318.872	0.22
319.083	0.22
319.295	0.34
319.506	0.25
319.717	0.22
319.929	0.35
320.14	0.29
320.351	0.27
320.562	0.24
320.774	0.35
320.985	0.29
321.196	0.19
321.407	0.16
321.618	0.28
321.829	0.31
322.041	0.3
322.252	0.26
322.463	0.3
322.674	0.29
322.885	0.26
323.096	0.21
323.307	0.26
323.518	0.32
323.729	0.23
323.94	0.19
324.151	0.26
324.362	0.28
324.573	0.26
324.784	0.18
324.995	0.35
325.206	0.31
325.417	0.22
325.628	0.25
325.838	0.25
326.049	0.3
326.26	0.24
326.471	0.2
326.682	0.29
326.892	0.28
327.103	0.15
327.314	0.18
327.525	0.34
327.735	0.28
327.946	0.3
328.157	0.23
328.368	0.31
328.578	0.28
328.789	0.31
328.999	0.26
329.21	0.25
329.421	0.33
329.631	0.21
329.842	0.21
330.052	0.27
330.263	0.28
330.473	0.31
330.684	0.25
330.894	0.28
331.105	0.3
331.315	0.24
331.526	0.17
331.736	0.37
331.947	0.32
332.157	0.28
332.367	0.19
332.578	0.3
332.788	0.35
332.999	0.31
333.209	0.24
333.419	0.2
333.629	0.32
333.84	0.29
334.05	0.27
334.26	0.36
334.47	0.32
334.681	0.31
334.891	0.28
335.101	0.35
335.311	0.34
335.521	0.29
335.732	0.18
335.942	0.34
336.152	0.29
336.362	0.25
336.572	0.29
336.782	0.31
336.992	0.24
337.202	0.25
337.412	0.26
337.622	0.28
337.832	0.23
338.042	0.24
338.252	0.2
338.462	0.24
338.672	0.32
338.882	0.25
339.092	0.29
339.302	0.37
339.511	0.29
339.721	0.27
339.931	0.17
340.141	0.31
340.351	0.35
340.561	0.28
340.77	0.3
340.98	0.3
341.19	0.31
341.4	0.24
341.609	0.2
341.819	0.28
342.029	0.22
342.238	0.27
342.448	0.22
342.658	0.3
342.867	0.25
343.077	0.28
343.286	0.29
343.496	0.29
343.706	0.35
343.915	0.24
344.125	0.22
344.334	0.31
344.544	0.19
344.753	0.23
344.963	0.24
345.172	0.18
345.381	0.21
345.591	0.21
345.8	0.29
346.01	0.33
346.219	0.32
346.428	0.12
346.638	0.25
346.847	0.27
347.056	0.32
347.266	0.21
347.475	0.23
347.684	0.33
347.893	0.29
348.103	0.28
348.312	0.22
348.521	0.23
348.73	0.24
348.94	0.25
349.149	0.22
349.358	0.25
349.567	0.23
349.776	0.18
349.985	0.2
350.194	0.29
350.403	0.3
350.612	0.18
350.821	0.17
351.03	0.28
351.239	0.2
351.448	0.29
351.657	0.19
351.866	0.36
352.075	0.22
352.284	0.31
352.493	0.2
352.702	0.32
352.911	0.27
353.12	0.22
353.329	0.25
353.538	0.25
353.746	0.23
353.955	0.21
354.164	0.28
354.373	0.25
354.582	0.29
354.79	0.27
354.999	0.28
355.208	0.24
355.416	0.31
355.625	0.21
355.834	0.24
356.042	0.26
356.251	0.24
356.46	0.19
356.668	0.25
356.877	0.34
357.085	0.28
357.294	0.15
357.503	0.23
357.711	0.25
357.92	0.44
358.128	0.26
358.337	0.21
358.545	0.27
358.754	0.21
358.962	0.28
359.17	0.22
359.379	0.29
359.587	0.26
359.796	0.23
360.004	0.32
360.212	0.27
360.421	0.33
360.629	0.23
360.837	0.21
361.046	0.29
361.254	0.43
361.462	0.22
361.67	0.22
361.879	0.29
362.087	0.32
362.295	0.24
362.503	0.24
362.711	0.2
362.92	0.23
363.128	0.23
363.336	0.21
363.544	0.23
363.752	0.27
363.96	0.19
364.168	0.19
364.376	0.24
364.584	0.31
364.792	0.34
365	0.24
365.208	0.27
365.416	0.27
365.624	0.31
365.832	0.21
366.04	0.36
366.248	0.28
366.456	0.26
366.664	0.29
366.872	0.24
367.079	0.29
367.287	0.26
367.495	0.28
367.703	0.26
367.911	0.25
368.118	0.26
368.326	0.29
368.534	0.2
368.742	0.35
368.949	0.18
369.157	0.21
369.365	0.25
369.572	0.28
369.78	0.21
369.988	0.31
370.195	0.29
370.403	0.31
370.61	0.25
370.818	0.25
371.026	0.35
371.233	0.23
371.441	0.29
371.648	0.22
371.856	0.33
372.063	0.28
372.271	0.27
372.478	0.21
372.685	0.21
372.893	0.31
373.1	0.23
373.308	0.23
373.515	0.39
373.722	0.33
373.93	0.26
374.137	0.26
374.344	0.34
374.552	0.26
374.759	0.31
374.966	0.3
375.173	0.23
375.381	0.37
375.588	0.29
375.795	0.21
376.002	0.26
376.209	0.21
376.417	0.24
376.624	0.3
376.831	0.31
377.038	0.23
377.245	0.13
377.452	0.28
377.659	0.26
377.866	0.23
378.073	0.23
378.28	0.28
378.487	0.34
378.694	0.31
378.901	0.3
379.108	0.23
379.315	0.31
379.522	0.36
379.729	0.27
379.936	0.25
380.143	0.28
380.35	0.27
380.557	0.24
380.763	0.23
380.97	0.28
381.177	0.31
381.384	0.27
381.591	0.25
381.797	0.28
382.004	0.34
382.211	0.3
382.418	0.2
382.624	0.31
382.831	0.36
383.038	0.26
383.244	0.27
383.451	0.31
383.658	0.31
383.864	0.24
384.071	0.22
384.277	0.37
384.484	0.24
384.69	0.33
384.897	0.23
385.103	0.26
385.31	0.27
385.516	0.25
385.723	0.22
385.929	0.26
386.136	0.27
386.342	0.29
386.549	0.25
386.755	0.33
386.961	0.36
387.168	0.23
387.374	0.28
387.58	0.32
387.787	0.28
387.993	0.3
388.199	0.29
388.406	0.29
388.612	0.28
388.818	0.3
389.024	0.26
389.231	0.28
389.437	0.39
389.643	0.29
389.849	0.31
390.055	0.27
390.261	0.29
390.467	0.35
390.674	0.21
390.88	0.27
391.086	0.35
391.292	0.24
391.498	0.29
391.704	0.32
391.91	0.31
392.116	0.28
392.322	0.18
392.528	0.34
392.734	0.27
392.94	0.32
393.146	0.34
393.352	0.34
393.557	0.31
393.763	0.27
393.969	0.34
394.175	0.34
394.381	0.34
394.587	0.23
394.792	0.3
394.998	0.42
395.204	0.41
395.41	0.31
395.615	0.34
395.821	0.4
396.027	0.35
396.233	0.27
396.438	0.37
396.644	0.36
396.85	0.37
397.055	0.34
397.261	0.32
397.466	0.39
397.672	0.36
397.878	0.38
398.083	0.36
398.289	0.36
398.494	0.43
398.7	0.35
398.905	0.28
399.111	0.41
399.316	0.29
399.522	0.36
399.727	0.34
399.932	0.31
400.138	0.32
400.343	0.4
400.549	0.34
400.754	0.32
400.959	0.39
401.165	0.3
401.37	0.38
401.575	0.48
401.78	0.42
401.986	0.36
402.191	0.34
402.396	0.37
402.601	0.43
402.807	0.41
403.012	0.39
403.217	0.45
403.422	0.38
403.627	0.42
403.832	0.42
404.037	0.47
404.243	0.41
404.448	0.39
404.653	0.44
404.858	0.42
405.063	0.48
405.268	0.45
405.473	0.38
405.678	0.41
405.883	0.69
406.088	0.49
406.293	0.39
406.498	0.46
406.703	0.56
406.907	0.43
407.112	0.44
407.317	0.54
407.522	0.56
407.727	0.5
407.932	0.6
408.136	0.68
408.341	0.54
408.546	0.56
408.751	0.58
408.956	0.62
409.16	0.63
409.365	0.63
409.57	0.56
409.774	0.63
409.979	0.7
410.184	0.72
410.388	0.61
410.593	0.78
410.798	0.75
411.002	0.75
411.207	0.79
411.411	0.85
411.616	0.74
411.82	0.85
412.025	0.86
412.229	0.87
412.434	0.93
412.638	0.88
412.843	0.91
413.047	0.98
413.252	0.93
413.456	1.04
413.66	1.08
413.865	1.05
414.069	1.2
414.273	1.07
414.478	1.08
414.682	1.19
414.886	1.2
415.091	1.19
415.295	1.21
415.499	1.39
415.703	1.36
415.908	1.51
416.112	1.37
416.316	1.61
416.52	1.59
416.724	1.52
416.929	1.56
417.133	1.94
417.337	1.78
417.541	1.84
417.745	1.83
417.949	1.95
418.153	1.93
418.357	1.99
418.561	2.27
418.765	2.22
418.969	2.37
419.173	2.42
419.377	2.36
419.581	2.63
419.785	2.66
419.989	2.62
420.193	2.7
420.397	2.86
420.601	3.01
420.804	3.11
421.008	3.05
421.212	3.27
421.416	3.32
421.62	3.26
421.823	3.34
422.027	3.53
422.231	3.5
422.435	3.45
422.638	3.52
422.842	3.68
423.046	3.8
423.249	3.91
423.453	3.92
423.657	4.08
423.86	4.18
424.064	4.29
424.268	4.44
424.471	4.39
424.675	4.67
424.878	4.76
425.082	4.81
425.285	5.12
425.489	5.02
425.692	5.26
425.896	5.16
426.099	5.47
426.303	5.66
426.506	5.57
426.71	5.87
426.913	6.15
427.116	6.34
427.32	6.35
427.523	6.33
427.726	6.71
427.93	6.78
428.133	7.04
428.336	7.11
428.54	7.32
428.743	7.56
428.946	7.88
429.149	7.79
429.353	7.87
429.556	7.97
429.759	8.03
429.962	8.14
430.165	8.29
430.368	7.91
430.571	7.93
430.775	8.04
430.978	8
431.181	8.06
431.384	8.21
431.587	8.29
431.79	8.79
431.993	8.67
432.196	8.88
432.399	9.26
432.602	9.43
432.805	9.51
433.008	9.96
433.211	9.96
433.414	10.34
433.616	10.3
433.819	10.15
434.022	10.34
434.225	10.54
434.428	10.67
434.631	11.14
434.833	10.77
435.036	11.06
435.239	11.31
435.442	11.29
435.645	11.52
435.847	11.62
436.05	11.85
436.253	11.89
436.455	12.07
436.658	11.95
436.861	12.35
437.063	12.42
437.266	12.46
437.468	12.71
437.671	13.1
437.874	13.11
438.076	12.88
438.279	13.39
438.481	13.5
438.684	14.14
438.886	13.86
439.089	14.17
439.291	14.1
439.494	14.44
439.696	14.63
439.899	15.14
440.101	15.51
440.303	15.73
440.506	16.38
440.708	16.18
440.91	16.5
441.113	16.65
441.315	16.96
441.517	16.65
441.72	17.27
441.922	16.82
442.124	16.72
442.326	17.12
442.529	17.4
442.731	17.35
442.933	17.66
443.135	17.33
443.337	17.39
443.539	17.88
443.742	17.67
443.944	18.33
444.146	18.02
444.348	17.96
444.55	17.79
444.752	18.07
444.954	18.01
445.156	17.93
445.358	18.33
445.56	18.65
445.762	18.41
445.964	18.78
446.166	18.48
446.368	18.53
446.57	18.67
446.772	18.17
446.974	17.88
447.175	18.25
447.377	17.82
447.579	18.25
447.781	17.93
447.983	17.79
448.184	17.29
448.386	17.71
448.588	17.16
448.79	17.18
448.991	17.52
449.193	17.51
449.395	16.94
449.597	16.45
449.798	16.23
450	15.95
450.202	15.88
450.403	15.74
450.605	15.73
450.806	15.33
451.008	15.14
451.21	14.94
451.411	14.6
451.613	13.84
451.814	14.08
452.016	13.96
452.217	13.3
452.419	13.31
452.62	12.87
452.821	12.59
453.023	12.6
453.224	12.29
453.426	11.84
453.627	11.22
453.828	11.34
454.03	11.36
454.231	11.25
454.432	11.05
454.634	10.83
454.835	10.51
455.036	10.42
455.238	10.02
455.439	9.91
455.64	9.58
455.841	9.45
456.042	9.6
456.244	9.19
456.445	8.89
456.646	8.65
456.847	8.62
457.048	8.47
457.249	8.58
457.45	8.45
457.651	7.85
457.852	7.6
458.054	7.3
458.255	7.17
458.456	7.22
458.657	7.26
458.858	6.69
459.058	6.71
459.259	6.74
459.46	6.45
459.661	6.44
459.862	6.49
460.063	6.4
460.264	6.3
460.465	6.04
460.666	6.11
460.866	5.75
461.067	5.57
461.268	5.6
461.469	5.54
461.67	5.37
461.87	5.25
462.071	5.25
462.272	5.12
462.473	5.19
462.673	5.37
462.874	5.2
463.075	5.21
463.275	5.1
463.476	5.2
463.676	5.06
463.877	4.92
464.078	4.98
464.278	4.99
464.479	4.91
464.679	4.74
464.88	4.71
465.08	4.72
465.281	4.48
465.481	4.37
465.682	4.11
465.882	4.26
466.083	4.13
466.283	4.07
466.483	3.93
466.684	3.8
466.884	3.62
467.085	3.67
467.285	3.81
467.485	3.65
467.686	3.54
467.886	3.47
468.086	3.37
468.286	3.39
468.487	3.46
468.687	3.3
468.887	3.25
469.087	3.34
469.287	3.29
469.488	3.11
469.688	3.24
469.888	3.23
470.088	3.19
470.288	3.06
470.488	3.11
470.688	2.86
470.888	2.89
471.088	2.69
471.288	2.86
471.488	2.79
471.688	2.75
471.888	2.67
472.088	2.8
472.288	2.76
472.488	2.64
472.688	2.57
472.888	2.61
473.088	2.6
473.288	2.48
473.488	2.43
473.688	2.65
473.887	2.49
474.087	2.52
474.287	2.46
474.487	2.43
474.687	2.47
474.886	2.37
475.086	2.32
475.286	2.35
475.486	2.3
475.685	2.26
475.885	2.21
476.085	2.33
476.284	2.29
476.484	2.29
476.684	2.22
476.883	2.33
477.083	2.19
477.282	2.14
477.482	2.24
477.681	2.18
477.881	2.08
478.08	2.12
478.28	2.05
478.479	2.11
478.679	2.19
478.878	2.04
479.078	2.06
479.277	2.11
479.477	2.08
479.676	2.1
479.875	2.01
480.075	1.95
480.274	2.05
480.473	2.04
480.673	2.03
480.872	2.09
481.071	2.02
481.271	2.03
481.47	1.98
481.669	2.04
481.868	2.01
482.067	2.04
482.267	1.93
482.466	1.97
482.665	1.95
482.864	1.95
483.063	1.91
483.262	2.07
483.461	2.07
483.661	2.08
483.86	2.03
484.059	2.06
484.258	2.04
484.457	2.06
484.656	1.99
484.855	2.09
485.054	1.93
485.253	2
485.452	1.96
485.651	2.07
485.849	2.04
486.048	2.05
486.247	2.03
486.446	2.12
486.645	2.06
486.844	2.11
487.043	2.06
487.241	2.1
487.44	2.05
487.639	2.14
487.838	2.17
488.037	2.1
488.235	2.22
488.434	2.18
488.633	2.08
488.831	2.26
489.03	2.22
489.229	2.24
489.427	2.22
489.626	2.3
489.825	2.32
490.023	2.31
490.222	2.3
490.42	2.3
490.619	2.39
490.817	2.41
491.016	2.38
491.214	2.42
491.413	2.44
491.611	2.41
491.81	2.43
492.008	2.47
492.207	2.57
492.405	2.53
492.604	2.44
492.802	2.56
493	2.62
493.199	2.65
493.397	2.64
493.595	2.74
493.794	2.67
493.992	2.8
494.19	2.71
494.388	2.83
494.587	2.76
494.785	2.79
494.983	2.74
495.181	2.89
495.379	2.92
495.578	2.95
495.776	2.96
495.974	2.97
496.172	2.95
496.37	3.07
496.568	3.1
496.766	3.07
496.964	3.22
497.162	3.15
497.36	3.22
497.558	3.26
497.756	3.35
497.954	3.26
498.152	3.35
498.35	3.46
498.548	3.38
498.746	3.44
498.944	3.42
499.142	3.44
499.34	3.55
499.538	3.63
499.736	3.52
499.933	3.67
500.131	3.67
500.329	3.78
500.527	3.77
500.725	3.88
500.922	3.88
501.12	3.85
501.318	3.93
501.516	3.93
501.713	4.04
501.911	4.02
502.109	3.99
502.306	4.11
