Data from Apollo_Calib_20240827__AbsoluteIrradiance__745__11-34-03-064.txt Node

Date: Wed Aug 28 11:34:03 BST 2024
User: biology
Spectrometer: FLMT08252
Trigger mode: 0
Integration Time (sec): 5.000000E-1
Scans to average: 5
Electric dark correction enabled: true
Nonlinearity correction enabled: false
Boxcar width: 0
XAxis mode: Wavelengths
Number of Pixels in Spectrum: 3648
>>>>>Begin Spectral Data<<<<<
179.588	-0
179.809	-0
180.03	-0
180.251	-0
180.473	-0
180.694	0
180.915	0
181.136	-0
181.357	0
181.578	-0
181.799	-0
182.02	-0
182.241	0
182.462	-0
182.683	0
182.904	-0
183.125	-0
183.346	0
183.567	0
183.788	0
184.009	0
184.23	0
184.451	0
184.672	0
184.892	0
185.113	0
185.334	0
185.555	0
185.776	0
185.996	0
186.217	0
186.438	0
186.659	0
186.879	0
187.1	0
187.321	0
187.541	0
187.762	0
187.983	0
188.203	0
188.424	0
188.644	0
188.865	0
189.086	0
189.306	0
189.527	0
189.747	0
189.968	0
190.188	0
190.409	0
190.629	0
190.849	0
191.07	0
191.29	0
191.511	0
191.731	0
191.951	0
192.172	0
192.392	0
192.612	0
192.833	0
193.053	0
193.273	0
193.493	0
193.714	0
193.934	0
194.154	0
194.374	0
194.594	0
194.815	0
195.035	0
195.255	0
195.475	0
195.695	0
195.915	0
196.135	0
196.355	0
196.575	0
196.795	0
197.015	0
197.235	0
197.455	0
197.675	0
197.895	0
198.115	0
198.335	0
198.555	0
198.775	0
198.995	0
199.214	0
199.434	0
199.654	0
199.874	0
200.094	2.21
200.313	1.11
200.533	0.67
200.753	0.16
200.973	2.41
201.192	2.38
201.412	0.17
201.632	1.11
201.851	2.38
202.071	1.02
202.291	0.31
202.51	0.63
202.73	1.49
202.95	1.19
203.169	0.57
203.389	0.85
203.608	1.21
203.828	0.86
204.047	0.81
204.267	1.22
204.486	1.21
204.706	1.42
204.925	0.89
205.145	0.56
205.364	1.52
205.583	1.58
205.803	1.18
206.022	0.49
206.242	0.96
206.461	1.27
206.68	0.51
206.9	1.14
207.119	1.59
207.338	1.43
207.557	0.65
207.777	0.5
207.996	0.74
208.215	1.47
208.434	0.37
208.654	0.41
208.873	1.07
209.092	1.02
209.311	0.7
209.53	0.59
209.749	0.71
209.968	0.59
210.187	0.73
210.407	0.31
210.626	0.62
210.845	1.04
211.064	0.71
211.283	0.3
211.502	1.08
211.721	0.54
211.94	0.59
212.159	0.85
212.377	0.75
212.596	1.07
212.815	0.69
213.034	0.7
213.253	0.88
213.472	0.74
213.691	0.47
213.91	0.23
214.128	0.28
214.347	0.98
214.566	0.18
214.785	0.34
215.003	0.74
215.222	0.6
215.441	0.43
215.66	0.19
215.878	0.49
216.097	0.84
216.316	0.13
216.534	0.51
216.753	0.7
216.972	0.45
217.19	0.45
217.409	0.24
217.627	0.35
217.846	0.32
218.064	0.5
218.283	0.32
218.501	0.96
218.72	0.72
218.938	0.31
219.157	0.3
219.375	0.77
219.594	0.53
219.812	0.09
220.031	0.23
220.249	0.96
220.467	0.86
220.686	0.37
220.904	0.3
221.122	0.27
221.341	0.86
221.559	0.49
221.777	0.19
221.995	0.53
222.214	0.56
222.432	0.39
222.65	0.61
222.868	0.53
223.086	0.46
223.305	0.69
223.523	0.38
223.741	0.8
223.959	0.42
224.177	0.12
224.395	0.34
224.613	0.52
224.831	0.7
225.049	0.18
225.267	0.29
225.485	0.57
225.703	0.46
225.921	0.26
226.139	0.3
226.357	0.56
226.575	0.39
226.793	0.32
227.011	1.02
227.229	0.42
227.447	0.57
227.665	0.3
227.883	0.16
228.1	0.46
228.318	0.45
228.536	0.2
228.754	0.24
228.972	0.41
229.189	0.51
229.407	0.27
229.625	0.32
229.843	0.53
230.06	0.53
230.278	0.26
230.496	0.46
230.713	0.35
230.931	0.53
231.149	0.33
231.366	0.07
231.584	0.38
231.801	0.76
232.019	0.2
232.236	0.21
232.454	0.14
232.671	0.35
232.889	0.33
233.106	0.26
233.324	0.36
233.541	0.35
233.759	0.36
233.976	0.27
234.194	0.35
234.411	0.39
234.628	0.23
234.846	0.35
235.063	0.27
235.28	0.37
235.498	0.18
235.715	0.24
235.932	0.43
236.149	0.23
236.367	0.09
236.584	0.25
236.801	0.32
237.018	0.38
237.236	0.34
237.453	0.12
237.67	0.47
237.887	0.22
238.104	0.32
238.321	0.19
238.538	0.25
238.755	0.55
238.973	0.06
239.19	0.35
239.407	0.42
239.624	0.39
239.841	0.19
240.058	0.24
240.275	0.3
240.492	0.24
240.709	0.33
240.925	0.32
241.142	0.35
241.359	0.23
241.576	0.2
241.793	0.2
242.01	0.25
242.227	0.44
242.444	0.32
242.66	0.48
242.877	0.3
243.094	0.19
243.311	0.28
243.527	0.22
243.744	0.35
243.961	0.4
244.178	0.23
244.394	0.27
244.611	0.45
244.828	0.43
245.044	0.2
245.261	0.2
245.477	0.27
245.694	0.48
245.911	0.19
246.127	0.31
246.344	0.48
246.56	0.36
246.777	0.19
246.993	0.24
247.21	0.3
247.426	0.4
247.643	0.15
247.859	0.23
248.076	0.17
248.292	0.53
248.508	0.28
248.725	0.33
248.941	0.3
249.157	0.36
249.374	0.14
249.59	0.24
249.806	0.25
250.023	0.38
250.239	0.12
250.455	0.23
250.671	0.28
250.888	0.34
251.104	0.28
251.32	0.15
251.536	0.23
251.752	0.23
251.969	0.29
252.185	0.15
252.401	0.47
252.617	0.34
252.833	0.19
253.049	0.27
253.265	0.31
253.481	0.26
253.697	0.21
253.913	0.16
254.129	0.33
254.345	0.35
254.561	0.22
254.777	0.18
254.993	0.33
255.209	0.23
255.425	0.17
255.641	0.23
255.857	0.35
256.073	0.25
256.288	0.12
256.504	0.2
256.72	0.31
256.936	0.41
257.152	0.2
257.367	0.15
257.583	0.22
257.799	0.35
258.015	0.19
258.23	0.14
258.446	0.36
258.662	0.2
258.877	0.14
259.093	0.16
259.309	0.25
259.524	0.29
259.74	0.14
259.955	0.14
260.171	0.24
260.387	0.22
260.602	0.27
260.818	0.25
261.033	0.17
261.249	0.25
261.464	0.18
261.68	0.13
261.895	0.32
262.11	0.3
262.326	0.15
262.541	0.12
262.757	0.29
262.972	0.27
263.187	0.26
263.403	0.2
263.618	0.32
263.833	0.23
264.049	0.14
264.264	0.21
264.479	0.15
264.694	0.35
264.91	0.13
265.125	0.2
265.34	0.24
265.555	0.37
265.77	0.27
265.986	0.18
266.201	0.26
266.416	0.23
266.631	0.18
266.846	0.24
267.061	0.22
267.276	0.29
267.491	0.08
267.706	0.23
267.921	0.27
268.136	0.2
268.351	0.15
268.566	0.1
268.781	0.33
268.996	0.27
269.211	0.27
269.426	0.15
269.641	0.18
269.856	0.31
270.071	0.19
270.285	0.16
270.5	0.25
270.715	0.3
270.93	0.21
271.145	0.18
271.359	0.31
271.574	0.17
271.789	0.17
272.004	0.15
272.218	0.16
272.433	0.29
272.648	0.13
272.862	0.23
273.077	0.18
273.292	0.21
273.506	0.13
273.721	0.2
273.936	0.23
274.15	0.26
274.365	0.15
274.579	0.27
274.794	0.15
275.008	0.24
275.223	0.07
275.437	0.19
275.652	0.33
275.866	0.23
276.081	0.22
276.295	0.22
276.509	0.15
276.724	0.17
276.938	0.2
277.153	0.22
277.367	0.28
277.581	0.18
277.796	0.15
278.01	0.12
278.224	0.23
278.438	0.3
278.653	0.15
278.867	0.13
279.081	0.01
279.295	0.17
279.51	0.2
279.724	0.09
279.938	0.2
280.152	0.25
280.366	0.15
280.58	0.15
280.794	0.24
281.008	0.24
281.222	0.17
281.437	0.35
281.651	0.22
281.865	0.26
282.079	0.17
282.293	0.06
282.507	0.07
282.721	0.17
282.935	0.17
283.148	0.06
283.362	0.11
283.576	0.12
283.79	0.14
284.004	0.1
284.218	0.24
284.432	0.15
284.646	0.18
284.859	0.14
285.073	0.16
285.287	0.17
285.501	0.19
285.714	0.11
285.928	0.2
286.142	0.19
286.356	0.12
286.569	0.14
286.783	0.28
286.997	0.17
287.21	0.22
287.424	0.16
287.637	0.17
287.851	0.16
288.065	0.22
288.278	0.16
288.492	0.15
288.705	0.17
288.919	0.22
289.132	0.12
289.346	0.25
289.559	0.08
289.773	0.09
289.986	0.13
290.2	0.14
290.413	0.25
290.626	0.1
290.84	0.13
291.053	0.16
291.267	0.23
291.48	0.22
291.693	0.16
291.906	0.11
292.12	0.16
292.333	0.09
292.546	0.13
292.76	0.28
292.973	0.17
293.186	0.17
293.399	0.13
293.612	0.23
293.826	0.15
294.039	0.19
294.252	0.14
294.465	0.2
294.678	0.18
294.891	0.18
295.104	0.07
295.317	0.15
295.53	0.16
295.743	0.17
295.956	0.18
296.169	0.27
296.382	0.22
296.595	0.13
296.808	0.1
297.021	0.24
297.234	0.23
297.447	0.19
297.66	0.22
297.873	0.27
298.086	0.19
298.299	0.11
298.511	0.1
298.724	0.14
298.937	0.12
299.15	0.13
299.363	0.17
299.575	0.18
299.788	0.19
300.001	0.15
300.213	0.12
300.426	0.14
300.639	0.1
300.852	0.15
301.064	0.22
301.277	0.21
301.489	0.19
301.702	0.18
301.915	0.16
302.127	0.12
302.34	0.18
302.552	0.24
302.765	0.11
302.977	0.16
303.19	0.15
303.402	0.13
303.615	0.15
303.827	0.12
304.04	0.13
304.252	0.2
304.464	0.12
304.677	0.25
304.889	0.2
305.102	0.1
305.314	0.14
305.526	0.2
305.739	0.18
305.951	0.09
306.163	0.12
306.375	0.22
306.588	0.13
306.8	0.12
307.012	0.1
307.224	0.19
307.436	0.2
307.649	0.08
307.861	0.19
308.073	0.2
308.285	0.14
308.497	0.08
308.709	0.14
308.921	0.22
309.133	0.22
309.346	0.13
309.558	0.14
309.77	0.16
309.982	0.18
310.194	0.21
310.406	0.12
310.617	0.24
310.829	0.15
311.041	0.18
311.253	0.11
311.465	0.12
311.677	0.16
311.889	0.14
312.101	0.17
312.313	0.21
312.524	0.21
312.736	0.13
312.948	0.13
313.16	0.24
313.372	0.16
313.583	0.19
313.795	0.14
314.007	0.12
314.218	0.2
314.43	0.17
314.642	0.14
314.853	0.11
315.065	0.18
315.277	0.14
315.488	0.17
315.7	0.22
315.912	0.16
316.123	0.14
316.335	0.17
316.546	0.25
316.758	0.12
316.969	0.14
317.181	0.17
317.392	0.16
317.604	0.22
317.815	0.12
318.026	0.15
318.238	0.15
318.449	0.18
318.661	0.1
318.872	0.12
319.083	0.12
319.295	0.22
319.506	0.14
319.717	0.17
319.929	0.16
320.14	0.19
320.351	0.15
320.562	0.12
320.774	0.18
320.985	0.13
321.196	0.1
321.407	0.09
321.618	0.2
321.829	0.18
322.041	0.15
322.252	0.17
322.463	0.19
322.674	0.2
322.885	0.13
323.096	0.11
323.307	0.12
323.518	0.18
323.729	0.14
323.94	0.11
324.151	0.12
324.362	0.2
324.573	0.17
324.784	0.11
324.995	0.18
325.206	0.16
325.417	0.15
325.628	0.14
325.838	0.13
326.049	0.19
326.26	0.19
326.471	0.14
326.682	0.19
326.892	0.16
327.103	0.06
327.314	0.1
327.525	0.24
327.735	0.17
327.946	0.16
328.157	0.07
328.368	0.21
328.578	0.12
328.789	0.18
328.999	0.19
329.21	0.12
329.421	0.23
329.631	0.15
329.842	0.11
330.052	0.19
330.263	0.16
330.473	0.15
330.684	0.14
330.894	0.13
331.105	0.17
331.315	0.2
331.526	0.08
331.736	0.23
331.947	0.17
332.157	0.19
332.367	0.11
332.578	0.19
332.788	0.23
332.999	0.17
333.209	0.14
333.419	0.09
333.629	0.17
333.84	0.17
334.05	0.17
334.26	0.23
334.47	0.14
334.681	0.22
334.891	0.14
335.101	0.18
335.311	0.25
335.521	0.18
335.732	0.11
335.942	0.22
336.152	0.17
336.362	0.17
336.572	0.14
336.782	0.22
336.992	0.11
337.202	0.1
337.412	0.15
337.622	0.2
337.832	0.14
338.042	0.19
338.252	0.11
338.462	0.11
338.672	0.2
338.882	0.13
339.092	0.13
339.302	0.23
339.511	0.19
339.721	0.14
339.931	0.07
340.141	0.24
340.351	0.23
340.561	0.17
340.77	0.19
340.98	0.15
341.19	0.17
341.4	0.13
341.609	0.12
341.819	0.14
342.029	0.12
342.238	0.17
342.448	0.08
342.658	0.15
342.867	0.11
343.077	0.14
343.286	0.17
343.496	0.16
343.706	0.24
343.915	0.12
344.125	0.12
344.334	0.2
344.544	0.08
344.753	0.14
344.963	0.13
345.172	0.1
345.381	0.12
345.591	0.1
345.8	0.12
346.01	0.19
346.219	0.19
346.428	0
346.638	0.13
346.847	0.08
347.056	0.23
347.266	0.12
347.475	0.12
347.684	0.16
347.893	0.16
348.103	0.15
348.312	0.13
348.521	0.15
348.73	0.15
348.94	0.13
349.149	0.17
349.358	0.16
349.567	0.15
349.776	0.07
349.985	0.09
350.194	0.22
350.403	0.2
350.612	0.1
350.821	0.12
351.03	0.12
351.239	0.1
351.448	0.14
351.657	0.12
351.866	0.21
352.075	0.16
352.284	0.2
352.493	0.11
352.702	0.22
352.911	0.13
353.12	0.17
353.329	0.08
353.538	0.17
353.746	0.15
353.955	0.11
354.164	0.18
354.373	0.14
354.582	0.17
354.79	0.18
354.999	0.17
355.208	0.14
355.416	0.2
355.625	0.1
355.834	0.09
356.042	0.17
356.251	0.16
356.46	0.11
356.668	0.12
356.877	0.23
357.085	0.17
357.294	0.05
357.503	0.16
357.711	0.15
357.92	0.32
358.128	0.19
358.337	0.13
358.545	0.17
358.754	0.08
358.962	0.2
359.17	0.14
359.379	0.15
359.587	0.16
359.796	0.15
360.004	0.19
360.212	0.22
360.421	0.23
360.629	0.16
360.837	0.12
361.046	0.15
361.254	0.26
361.462	0.15
361.67	0.12
361.879	0.15
362.087	0.17
362.295	0.17
362.503	0.11
362.711	0.07
362.92	0.13
363.128	0.14
363.336	0.11
363.544	0.08
363.752	0.14
363.96	0.12
364.168	0.12
364.376	0.15
364.584	0.16
364.792	0.22
365	0.17
365.208	0.16
365.416	0.21
365.624	0.18
365.832	0.11
366.04	0.24
366.248	0.14
366.456	0.15
366.664	0.15
366.872	0.13
367.079	0.16
367.287	0.15
367.495	0.15
367.703	0.17
367.911	0.17
368.118	0.15
368.326	0.12
368.534	0.11
368.742	0.2
368.949	0.08
369.157	0.12
369.365	0.19
369.572	0.13
369.78	0.1
369.988	0.2
370.195	0.2
370.403	0.2
370.61	0.13
370.818	0.15
371.026	0.21
371.233	0.12
371.441	0.13
371.648	0.14
371.856	0.17
372.063	0.15
372.271	0.11
372.478	0.1
372.685	0.14
372.893	0.24
373.1	0.15
373.308	0.12
373.515	0.24
373.722	0.17
373.93	0.14
374.137	0.18
374.344	0.23
374.552	0.17
374.759	0.18
374.966	0.16
375.173	0.13
375.381	0.18
375.588	0.12
375.795	0.06
376.002	0.14
376.209	0.14
376.417	0.15
376.624	0.12
376.831	0.2
377.038	0.13
377.245	0.07
377.452	0.13
377.659	0.18
377.866	0.13
378.073	0.16
378.28	0.16
378.487	0.21
378.694	0.21
378.901	0.16
379.108	0.17
379.315	0.18
379.522	0.25
379.729	0.15
379.936	0.12
380.143	0.21
380.35	0.16
380.557	0.18
380.763	0.15
380.97	0.16
381.177	0.18
381.384	0.14
381.591	0.18
381.797	0.16
382.004	0.18
382.211	0.2
382.418	0.1
382.624	0.17
382.831	0.23
383.038	0.14
383.244	0.17
383.451	0.17
383.658	0.18
383.864	0.13
384.071	0.11
384.277	0.24
384.484	0.16
384.69	0.22
384.897	0.14
385.103	0.15
385.31	0.12
385.516	0.15
385.723	0.12
385.929	0.15
386.136	0.16
386.342	0.2
386.549	0.11
386.755	0.24
386.961	0.22
387.168	0.15
387.374	0.16
387.58	0.21
387.787	0.15
387.993	0.23
388.199	0.16
388.406	0.16
388.612	0.14
388.818	0.12
389.024	0.11
389.231	0.14
389.437	0.24
389.643	0.23
389.849	0.19
390.055	0.19
390.261	0.17
390.467	0.17
390.674	0.14
390.88	0.19
391.086	0.17
391.292	0.16
391.498	0.19
391.704	0.18
391.91	0.17
392.116	0.17
392.322	0.09
392.528	0.21
392.734	0.16
392.94	0.18
393.146	0.16
393.352	0.17
393.557	0.19
393.763	0.22
393.969	0.19
394.175	0.19
394.381	0.2
394.587	0.14
394.792	0.18
394.998	0.24
395.204	0.25
395.41	0.17
395.615	0.16
395.821	0.25
396.027	0.24
396.233	0.15
396.438	0.21
396.644	0.23
396.85	0.23
397.055	0.14
397.261	0.18
397.466	0.3
397.672	0.22
397.878	0.23
398.083	0.22
398.289	0.16
398.494	0.25
398.7	0.25
398.905	0.14
399.111	0.27
399.316	0.13
399.522	0.19
399.727	0.23
399.932	0.21
400.138	0.2
400.343	0.26
400.549	0.19
400.754	0.19
400.959	0.21
401.165	0.22
401.37	0.24
401.575	0.31
401.78	0.24
401.986	0.16
402.191	0.21
402.396	0.21
402.601	0.27
402.807	0.29
403.012	0.23
403.217	0.26
403.422	0.22
403.627	0.26
403.832	0.21
404.037	0.25
404.243	0.3
404.448	0.23
404.653	0.22
404.858	0.3
405.063	0.33
405.268	0.23
405.473	0.24
405.678	0.23
405.883	0.39
406.088	0.31
406.293	0.22
406.498	0.25
406.703	0.27
406.907	0.31
407.112	0.24
407.317	0.29
407.522	0.32
407.727	0.25
407.932	0.35
408.136	0.41
408.341	0.28
408.546	0.31
408.751	0.37
408.956	0.31
409.16	0.37
409.365	0.34
409.57	0.28
409.774	0.35
409.979	0.44
410.184	0.36
410.388	0.32
410.593	0.46
410.798	0.42
411.002	0.36
411.207	0.47
411.411	0.44
411.616	0.39
411.82	0.45
412.025	0.48
412.229	0.42
412.434	0.58
412.638	0.49
412.843	0.48
413.047	0.52
413.252	0.48
413.456	0.57
413.66	0.59
413.865	0.55
414.069	0.7
414.273	0.59
414.478	0.54
414.682	0.66
414.886	0.64
415.091	0.62
415.295	0.67
415.499	0.76
415.703	0.73
415.908	0.81
416.112	0.64
416.316	0.92
416.52	0.85
416.724	0.83
416.929	0.85
417.133	1.03
417.337	0.94
417.541	0.98
417.745	1.02
417.949	1.14
418.153	1.09
418.357	1.06
418.561	1.32
418.765	1.19
418.969	1.38
419.173	1.39
419.377	1.33
419.581	1.47
419.785	1.43
419.989	1.44
420.193	1.52
420.397	1.57
420.601	1.69
420.804	1.72
421.008	1.68
421.212	1.82
421.416	1.85
421.62	1.8
421.823	1.84
422.027	2.04
422.231	2
422.435	1.96
422.638	2.03
422.842	2.08
423.046	2.05
423.249	2.25
423.453	2.26
423.657	2.35
423.86	2.36
424.064	2.46
424.268	2.61
424.471	2.48
424.675	2.69
424.878	2.75
425.082	2.72
425.285	2.98
425.489	2.93
425.692	2.98
425.896	2.93
426.099	3.1
426.303	3.12
426.506	3.2
426.71	3.44
426.913	3.58
427.116	3.59
427.32	3.59
427.523	3.62
427.726	3.92
427.93	3.86
428.133	3.99
428.336	4.08
428.54	4.28
428.743	4.41
428.946	4.44
429.149	4.51
429.353	4.5
429.556	4.63
429.759	4.59
429.962	4.63
430.165	4.74
430.368	4.56
430.571	4.63
430.775	4.63
430.978	4.6
431.181	4.67
431.384	4.75
431.587	4.74
431.79	4.94
431.993	5
432.196	5.05
432.399	5.3
432.602	5.43
432.805	5.42
433.008	5.74
433.211	5.55
433.414	5.92
433.616	5.93
433.819	5.88
434.022	5.95
434.225	6.04
434.428	6.11
434.631	6.47
434.833	6.26
435.036	6.44
435.239	6.5
435.442	6.56
435.645	6.61
435.847	6.65
436.05	6.9
436.253	6.98
436.455	7.06
436.658	7.01
436.861	7.22
437.063	7.26
437.266	7.24
437.468	7.48
437.671	7.75
437.874	7.73
438.076	7.52
438.279	7.91
438.481	7.93
438.684	8.4
438.886	8.14
439.089	8.3
439.291	8.36
439.494	8.54
439.696	8.72
439.899	8.98
440.101	9.18
440.303	9.38
440.506	9.8
440.708	9.73
440.91	9.8
441.113	9.99
441.315	10.22
441.517	10.07
441.72	10.37
441.922	10.06
442.124	10.07
442.326	10.36
442.529	10.59
442.731	10.58
442.933	10.76
443.135	10.61
443.337	10.59
443.539	11
443.742	10.82
443.944	11.24
444.146	11.23
444.348	11.05
444.55	11.04
444.752	11.22
444.954	11.22
445.156	11.07
445.358	11.48
445.56	11.72
445.762	11.49
445.964	11.76
446.166	11.53
446.368	11.67
446.57	11.65
446.772	11.53
446.974	11.42
447.175	11.56
447.377	11.32
447.579	11.68
447.781	11.43
447.983	11.43
448.184	11.1
448.386	11.22
448.588	10.99
448.79	10.9
448.991	11.24
449.193	11.19
449.395	10.79
449.597	10.56
449.798	10.64
450	10.18
450.202	10.2
450.403	10.19
450.605	10.2
450.806	9.96
451.008	9.72
451.21	9.75
451.411	9.45
451.613	8.97
451.814	9.13
452.016	9
452.217	8.56
452.419	8.61
452.62	8.36
452.821	8.29
453.023	8.25
453.224	7.95
453.426	7.64
453.627	7.17
453.828	7.2
454.03	7.27
454.231	7.29
454.432	7.07
454.634	7.01
454.835	6.75
455.036	6.66
455.238	6.45
455.439	6.27
455.64	6.13
455.841	6
456.042	6.06
456.244	5.89
456.445	5.78
456.646	5.46
456.847	5.41
457.048	5.39
457.249	5.48
457.45	5.3
457.651	4.91
457.852	4.8
458.054	4.62
458.255	4.57
458.456	4.61
458.657	4.48
458.858	4.3
459.058	4.11
459.259	4.25
459.46	4.13
459.661	4.04
459.862	4.2
460.063	3.94
460.264	4
460.465	3.81
460.666	3.84
460.866	3.63
461.067	3.42
461.268	3.48
461.469	3.47
461.67	3.38
461.87	3.35
462.071	3.3
462.272	3.26
462.473	3.24
462.673	3.3
462.874	3.26
463.075	3.27
463.275	3.19
463.476	3.3
463.676	3.21
463.877	3.07
464.078	3.06
464.278	3.15
464.479	3.05
464.679	2.97
464.88	2.97
465.08	2.91
465.281	2.83
465.481	2.71
465.682	2.59
465.882	2.6
466.083	2.59
466.283	2.53
466.483	2.42
466.684	2.4
466.884	2.3
467.085	2.28
467.285	2.31
467.485	2.23
467.686	2.23
467.886	2.16
468.086	2.07
468.286	2.07
468.487	2.18
468.687	2.02
468.887	2
469.087	2.13
469.287	2.06
469.488	1.88
469.688	2.01
469.888	1.98
470.088	1.94
470.288	1.93
470.488	1.83
470.688	1.76
470.888	1.78
471.088	1.63
471.288	1.73
471.488	1.72
471.688	1.7
471.888	1.65
472.088	1.77
472.288	1.73
472.488	1.61
472.688	1.56
472.888	1.63
473.088	1.61
473.288	1.52
473.488	1.5
473.688	1.65
473.887	1.53
474.087	1.48
474.287	1.52
474.487	1.41
474.687	1.52
474.886	1.42
475.086	1.36
475.286	1.44
475.486	1.45
475.685	1.4
475.885	1.39
476.085	1.41
476.284	1.37
476.484	1.36
476.684	1.35
476.883	1.44
477.083	1.35
477.282	1.27
477.482	1.38
477.681	1.36
477.881	1.29
478.08	1.26
478.28	1.27
478.479	1.29
478.679	1.34
478.878	1.27
479.078	1.21
479.277	1.28
479.477	1.27
479.676	1.28
479.875	1.22
480.075	1.18
480.274	1.24
480.473	1.27
480.673	1.19
480.872	1.34
481.071	1.22
481.271	1.25
481.47	1.21
481.669	1.22
481.868	1.2
482.067	1.2
482.267	1.18
482.466	1.18
482.665	1.15
482.864	1.2
483.063	1.14
483.262	1.22
483.461	1.26
483.661	1.28
483.86	1.24
484.059	1.25
484.258	1.24
484.457	1.23
484.656	1.26
484.855	1.27
485.054	1.16
485.253	1.21
485.452	1.19
485.651	1.27
485.849	1.25
486.048	1.2
486.247	1.23
486.446	1.27
486.645	1.21
486.844	1.23
487.043	1.22
487.241	1.29
487.44	1.26
487.639	1.32
487.838	1.33
488.037	1.28
488.235	1.36
488.434	1.3
488.633	1.24
488.831	1.36
489.03	1.37
489.229	1.38
489.427	1.33
489.626	1.42
489.825	1.44
490.023	1.44
490.222	1.4
490.42	1.43
490.619	1.44
490.817	1.46
491.016	1.43
491.214	1.52
491.413	1.49
491.611	1.43
491.81	1.48
492.008	1.53
492.207	1.54
492.405	1.54
492.604	1.49
492.802	1.56
493	1.6
493.199	1.61
493.397	1.61
493.595	1.65
493.794	1.62
493.992	1.76
494.19	1.67
494.388	1.76
494.587	1.71
494.785	1.71
494.983	1.67
495.181	1.78
495.379	1.76
495.578	1.84
495.776	1.83
495.974	1.82
496.172	1.83
496.37	1.9
496.568	1.93
496.766	1.93
496.964	2
497.162	1.99
497.36	2
497.558	2.03
497.756	2.06
497.954	2.06
498.152	2.09
498.35	2.16
498.548	2.07
498.746	2.12
498.944	2.12
499.142	2.18
499.34	2.18
499.538	2.28
499.736	2.22
499.933	2.33
500.131	2.28
500.329	2.37
500.527	2.39
500.725	2.41
500.922	2.42
501.12	2.41
501.318	2.51
501.516	2.43
501.713	2.51
501.911	2.53
502.109	2.46
502.306	2.53
502.504	2.47
502.701	2.56
502.899	2.6
503.097	2.73
503.294	2.66
503.492	2.76
503.689	2.75
