Data from Apollo_Calib_20240827__AbsoluteIrradiance__819__12-48-01-296.txt Node

Date: Wed Aug 28 12:48:01 BST 2024
User: biology
Spectrometer: FLMT08252
Trigger mode: 0
Integration Time (sec): 5.000000E-1
Scans to average: 5
Electric dark correction enabled: true
Nonlinearity correction enabled: false
Boxcar width: 0
XAxis mode: Wavelengths
Number of Pixels in Spectrum: 3648
>>>>>Begin Spectral Data<<<<<
179.588	-0
179.809	-0
180.03	-0
180.251	-0
180.473	-0
180.694	0
180.915	0
181.136	-0
181.357	0
181.578	-0
181.799	-0
182.02	-0
182.241	-0
182.462	-0
182.683	0
182.904	-0
183.125	-0
183.346	0
183.567	0
183.788	0
184.009	0
184.23	0
184.451	0
184.672	0
184.892	0
185.113	0
185.334	0
185.555	0
185.776	0
185.996	0
186.217	0
186.438	0
186.659	0
186.879	0
187.1	0
187.321	0
187.541	0
187.762	0
187.983	0
188.203	0
188.424	0
188.644	0
188.865	0
189.086	0
189.306	0
189.527	0
189.747	0
189.968	0
190.188	0
190.409	0
190.629	0
190.849	0
191.07	0
191.29	0
191.511	0
191.731	0
191.951	0
192.172	0
192.392	0
192.612	0
192.833	0
193.053	0
193.273	0
193.493	0
193.714	0
193.934	0
194.154	0
194.374	0
194.594	0
194.815	0
195.035	0
195.255	0
195.475	0
195.695	0
195.915	0
196.135	0
196.355	0
196.575	0
196.795	0
197.015	0
197.235	0
197.455	0
197.675	0
197.895	0
198.115	0
198.335	0
198.555	0
198.775	0
198.995	0
199.214	0
199.434	0
199.654	0
199.874	0
200.094	3.31
200.313	1.88
200.533	1.96
200.753	1.69
200.973	3.97
201.192	3.48
201.412	1.4
201.632	1.45
201.851	3.24
202.071	1.73
202.291	1.65
202.51	1.77
202.73	2.56
202.95	1.39
203.169	0.97
203.389	1.77
203.608	2.27
203.828	1.71
204.047	1.57
204.267	2.41
204.486	2.11
204.706	2.21
204.925	1.65
205.145	1.34
205.364	2.12
205.583	2.34
205.803	1.5
206.022	0.92
206.242	1.69
206.461	1.87
206.68	1.19
206.9	1.5
207.119	2.61
207.338	2.1
207.557	1.01
207.777	1.21
207.996	1.28
208.215	2.33
208.434	0.9
208.654	0.88
208.873	1.42
209.092	2.21
209.311	1.17
209.53	1.08
209.749	0.9
209.968	1.1
210.187	1.01
210.407	0.54
210.626	1.21
210.845	1.44
211.064	1.11
211.283	0.96
211.502	1.43
211.721	1.06
211.94	0.97
212.159	1.46
212.377	1.25
212.596	1.23
212.815	1.3
213.034	0.98
213.253	1.35
213.472	1.27
213.691	0.68
213.91	0.54
214.128	0.83
214.347	1.18
214.566	0.46
214.785	0.37
215.003	1.21
215.222	1.29
215.441	0.83
215.66	0.71
215.878	0.84
216.097	1.23
216.316	0.64
216.534	0.87
216.753	1.05
216.972	0.8
217.19	0.72
217.409	0.74
217.627	0.69
217.846	0.94
218.064	0.82
218.283	0.5
218.501	1.14
218.72	1.13
218.938	0.57
219.157	0.6
219.375	1.2
219.594	1.11
219.812	0.64
220.031	0.47
220.249	1.2
220.467	1.18
220.686	0.69
220.904	0.44
221.122	0.62
221.341	1.13
221.559	0.68
221.777	0.4
221.995	0.79
222.214	0.97
222.432	0.6
222.65	0.8
222.868	0.75
223.086	0.91
223.305	0.9
223.523	0.59
223.741	1.2
223.959	0.71
224.177	0.37
224.395	0.57
224.613	0.73
224.831	0.96
225.049	0.38
225.267	0.58
225.485	0.74
225.703	0.66
225.921	0.72
226.139	0.47
226.357	0.99
226.575	0.87
226.793	0.6
227.011	1.65
227.229	0.66
227.447	0.71
227.665	0.38
227.883	0.28
228.1	0.65
228.318	0.79
228.536	0.36
228.754	0.38
228.972	0.8
229.189	0.72
229.407	0.6
229.625	0.57
229.843	0.84
230.06	0.91
230.278	0.53
230.496	0.65
230.713	0.58
230.931	0.86
231.149	0.52
231.366	0.29
231.584	0.68
231.801	1.05
232.019	0.51
232.236	0.37
232.454	0.45
232.671	0.57
232.889	0.49
233.106	0.33
233.324	0.56
233.541	0.5
233.759	0.56
233.976	0.42
234.194	0.5
234.411	0.56
234.628	0.45
234.846	0.44
235.063	0.53
235.28	0.44
235.498	0.46
235.715	0.31
235.932	0.63
236.149	0.58
236.367	0.37
236.584	0.47
236.801	0.42
237.018	0.65
237.236	0.48
237.453	0.24
237.67	0.59
237.887	0.54
238.104	0.41
238.321	0.3
238.538	0.4
238.755	0.75
238.973	0.24
239.19	0.47
239.407	0.51
239.624	0.43
239.841	0.38
240.058	0.37
240.275	0.52
240.492	0.48
240.709	0.44
240.925	0.45
241.142	0.55
241.359	0.38
241.576	0.34
241.793	0.44
242.01	0.51
242.227	0.63
242.444	0.46
242.66	0.57
242.877	0.47
243.094	0.44
243.311	0.39
243.527	0.37
243.744	0.5
243.961	0.5
244.178	0.41
244.394	0.53
244.611	0.53
244.828	0.73
245.044	0.29
245.261	0.32
245.477	0.53
245.694	0.51
245.911	0.3
246.127	0.37
246.344	0.65
246.56	0.51
246.777	0.35
246.993	0.41
247.21	0.49
247.426	0.59
247.643	0.36
247.859	0.33
248.076	0.29
248.292	0.64
248.508	0.29
248.725	0.48
248.941	0.51
249.157	0.57
249.374	0.36
249.59	0.3
249.806	0.43
250.023	0.5
250.239	0.34
250.455	0.36
250.671	0.43
250.888	0.52
251.104	0.53
251.32	0.31
251.536	0.37
251.752	0.4
251.969	0.4
252.185	0.43
252.401	0.66
252.617	0.51
252.833	0.29
253.049	0.43
253.265	0.43
253.481	0.42
253.697	0.34
253.913	0.37
254.129	0.5
254.345	0.44
254.561	0.34
254.777	0.34
254.993	0.45
255.209	0.44
255.425	0.33
255.641	0.28
255.857	0.42
256.073	0.46
256.288	0.25
256.504	0.35
256.72	0.48
256.936	0.57
257.152	0.38
257.367	0.31
257.583	0.4
257.799	0.53
258.015	0.31
258.23	0.32
258.446	0.6
258.662	0.42
258.877	0.31
259.093	0.22
259.309	0.46
259.524	0.44
259.74	0.28
259.955	0.22
260.171	0.38
260.387	0.41
260.602	0.44
260.818	0.39
261.033	0.3
261.249	0.38
261.464	0.31
261.68	0.2
261.895	0.42
262.11	0.45
262.326	0.31
262.541	0.26
262.757	0.41
262.972	0.44
263.187	0.38
263.403	0.33
263.618	0.42
263.833	0.39
264.049	0.31
264.264	0.32
264.479	0.39
264.694	0.41
264.91	0.24
265.125	0.27
265.34	0.43
265.555	0.55
265.77	0.27
265.986	0.22
266.201	0.37
266.416	0.45
266.631	0.25
266.846	0.36
267.061	0.43
267.276	0.42
267.491	0.2
267.706	0.39
267.921	0.46
268.136	0.35
268.351	0.34
268.566	0.22
268.781	0.47
268.996	0.46
269.211	0.34
269.426	0.25
269.641	0.34
269.856	0.45
270.071	0.29
270.285	0.24
270.5	0.45
270.715	0.44
270.93	0.34
271.145	0.39
271.359	0.42
271.574	0.29
271.789	0.27
272.004	0.24
272.218	0.39
272.433	0.39
272.648	0.27
272.862	0.38
273.077	0.39
273.292	0.36
273.506	0.23
273.721	0.28
273.936	0.37
274.15	0.46
274.365	0.24
274.579	0.38
274.794	0.4
275.008	0.43
275.223	0.19
275.437	0.31
275.652	0.42
275.866	0.36
276.081	0.4
276.295	0.38
276.509	0.32
276.724	0.33
276.938	0.3
277.153	0.33
277.367	0.42
277.581	0.28
277.796	0.27
278.01	0.26
278.224	0.34
278.438	0.38
278.653	0.26
278.867	0.25
279.081	0.15
279.295	0.31
279.51	0.29
279.724	0.24
279.938	0.4
280.152	0.32
280.366	0.23
280.58	0.34
280.794	0.49
281.008	0.28
281.222	0.37
281.437	0.41
281.651	0.3
281.865	0.42
282.079	0.3
282.293	0.18
282.507	0.22
282.721	0.31
282.935	0.31
283.148	0.18
283.362	0.24
283.576	0.23
283.79	0.27
284.004	0.2
284.218	0.4
284.432	0.28
284.646	0.26
284.859	0.28
285.073	0.3
285.287	0.3
285.501	0.33
285.714	0.27
285.928	0.28
286.142	0.28
286.356	0.22
286.569	0.27
286.783	0.38
286.997	0.36
287.21	0.27
287.424	0.26
287.637	0.26
287.851	0.29
288.065	0.34
288.278	0.26
288.492	0.3
288.705	0.3
288.919	0.3
289.132	0.23
289.346	0.41
289.559	0.2
289.773	0.23
289.986	0.29
290.2	0.28
290.413	0.35
290.626	0.22
290.84	0.26
291.053	0.29
291.267	0.38
291.48	0.3
291.693	0.25
291.906	0.2
292.12	0.27
292.333	0.22
292.546	0.29
292.76	0.34
292.973	0.28
293.186	0.28
293.399	0.26
293.612	0.36
293.826	0.28
294.039	0.24
294.252	0.22
294.465	0.37
294.678	0.27
294.891	0.26
295.104	0.23
295.317	0.22
295.53	0.3
295.743	0.23
295.956	0.2
296.169	0.39
296.382	0.38
296.595	0.22
296.808	0.22
297.021	0.36
297.234	0.37
297.447	0.26
297.66	0.3
297.873	0.3
298.086	0.33
298.299	0.19
298.511	0.17
298.724	0.26
298.937	0.21
299.15	0.22
299.363	0.24
299.575	0.33
299.788	0.27
300.001	0.22
300.213	0.16
300.426	0.25
300.639	0.25
300.852	0.2
301.064	0.32
301.277	0.37
301.489	0.33
301.702	0.27
301.915	0.22
302.127	0.25
302.34	0.3
302.552	0.3
302.765	0.2
302.977	0.33
303.19	0.23
303.402	0.23
303.615	0.21
303.827	0.23
304.04	0.23
304.252	0.26
304.464	0.22
304.677	0.4
304.889	0.3
305.102	0.23
305.314	0.22
305.526	0.31
305.739	0.33
305.951	0.18
306.163	0.26
306.375	0.34
306.588	0.23
306.8	0.22
307.012	0.18
307.224	0.3
307.436	0.29
307.649	0.15
307.861	0.26
308.073	0.33
308.285	0.22
308.497	0.19
308.709	0.25
308.921	0.3
309.133	0.35
309.346	0.2
309.558	0.24
309.77	0.3
309.982	0.37
310.194	0.29
310.406	0.2
310.617	0.31
310.829	0.3
311.041	0.31
311.253	0.17
311.465	0.21
311.677	0.25
311.889	0.25
312.101	0.2
312.313	0.27
312.524	0.38
312.736	0.14
312.948	0.17
313.16	0.35
313.372	0.31
313.583	0.25
313.795	0.2
314.007	0.24
314.218	0.36
314.43	0.21
314.642	0.23
314.853	0.16
315.065	0.28
315.277	0.23
315.488	0.26
315.7	0.32
315.912	0.31
316.123	0.27
316.335	0.27
316.546	0.37
316.758	0.26
316.969	0.19
317.181	0.23
317.392	0.28
317.604	0.33
317.815	0.17
318.026	0.21
318.238	0.26
318.449	0.27
318.661	0.15
318.872	0.22
319.083	0.18
319.295	0.32
319.506	0.24
319.717	0.26
319.929	0.27
320.14	0.26
320.351	0.25
320.562	0.22
320.774	0.28
320.985	0.23
321.196	0.22
321.407	0.15
321.618	0.28
321.829	0.3
322.041	0.26
322.252	0.26
322.463	0.31
322.674	0.28
322.885	0.19
323.096	0.24
323.307	0.25
323.518	0.29
323.729	0.22
323.94	0.21
324.151	0.21
324.362	0.28
324.573	0.19
324.784	0.23
324.995	0.3
325.206	0.26
325.417	0.25
325.628	0.17
325.838	0.25
326.049	0.27
326.26	0.25
326.471	0.2
326.682	0.31
326.892	0.28
327.103	0.17
327.314	0.17
327.525	0.35
327.735	0.28
327.946	0.28
328.157	0.18
328.368	0.3
328.578	0.26
328.789	0.29
328.999	0.21
329.21	0.21
329.421	0.32
329.631	0.22
329.842	0.2
330.052	0.28
330.263	0.29
330.473	0.24
330.684	0.22
330.894	0.24
331.105	0.28
331.315	0.25
331.526	0.16
331.736	0.36
331.947	0.3
332.157	0.29
332.367	0.18
332.578	0.33
332.788	0.35
332.999	0.27
333.209	0.26
333.419	0.15
333.629	0.3
333.84	0.29
334.05	0.25
334.26	0.33
334.47	0.27
334.681	0.27
334.891	0.26
335.101	0.31
335.311	0.34
335.521	0.24
335.732	0.21
335.942	0.34
336.152	0.28
336.362	0.25
336.572	0.28
336.782	0.27
336.992	0.22
337.202	0.22
337.412	0.19
337.622	0.27
337.832	0.26
338.042	0.24
338.252	0.2
338.462	0.21
338.672	0.26
338.882	0.22
339.092	0.28
339.302	0.33
339.511	0.3
339.721	0.23
339.931	0.18
340.141	0.32
340.351	0.31
340.561	0.25
340.77	0.24
340.98	0.26
341.19	0.27
341.4	0.17
341.609	0.17
341.819	0.24
342.029	0.17
342.238	0.21
342.448	0.21
342.658	0.25
342.867	0.22
343.077	0.18
343.286	0.23
343.496	0.26
343.706	0.32
343.915	0.2
344.125	0.22
344.334	0.29
344.544	0.19
344.753	0.2
344.963	0.22
345.172	0.24
345.381	0.24
345.591	0.18
345.8	0.24
346.01	0.31
346.219	0.3
346.428	0.27
346.638	0.25
346.847	0.23
347.056	0.34
347.266	0.22
347.475	0.22
347.684	0.28
347.893	0.31
348.103	0.28
348.312	0.21
348.521	0.27
348.73	0.27
348.94	0.25
349.149	0.22
349.358	0.25
349.567	0.25
349.776	0.21
349.985	0.21
350.194	0.34
350.403	0.36
350.612	0.14
350.821	0.23
351.03	0.26
351.239	0.2
351.448	0.26
351.657	0.24
351.866	0.31
352.075	0.25
352.284	0.18
352.493	0.19
352.702	0.31
352.911	0.25
353.12	0.29
353.329	0.22
353.538	0.26
353.746	0.24
353.955	0.18
354.164	0.26
354.373	0.24
354.582	0.32
354.79	0.22
354.999	0.26
355.208	0.23
355.416	0.35
355.625	0.18
355.834	0.2
356.042	0.26
356.251	0.2
356.46	0.15
356.668	0.23
356.877	0.36
357.085	0.3
357.294	0.15
357.503	0.27
357.711	0.27
357.92	0.39
358.128	0.24
358.337	0.24
358.545	0.26
358.754	0.18
358.962	0.25
359.17	0.2
359.379	0.26
359.587	0.26
359.796	0.23
360.004	0.32
360.212	0.32
360.421	0.33
360.629	0.18
360.837	0.23
361.046	0.31
361.254	0.38
361.462	0.22
361.67	0.18
361.879	0.28
362.087	0.36
362.295	0.23
362.503	0.21
362.711	0.18
362.92	0.22
363.128	0.21
363.336	0.22
363.544	0.17
363.752	0.22
363.96	0.23
364.168	0.21
364.376	0.25
364.584	0.27
364.792	0.3
365	0.25
365.208	0.24
365.416	0.3
365.624	0.29
365.832	0.22
366.04	0.32
366.248	0.29
366.456	0.24
366.664	0.23
366.872	0.25
367.079	0.25
367.287	0.23
367.495	0.26
367.703	0.25
367.911	0.25
368.118	0.22
368.326	0.24
368.534	0.22
368.742	0.34
368.949	0.2
369.157	0.2
369.365	0.28
369.572	0.25
369.78	0.18
369.988	0.29
370.195	0.3
370.403	0.33
370.61	0.25
370.818	0.27
371.026	0.32
371.233	0.23
371.441	0.24
371.648	0.22
371.856	0.25
372.063	0.27
372.271	0.24
372.478	0.21
372.685	0.19
372.893	0.31
373.1	0.19
373.308	0.2
373.515	0.37
373.722	0.32
373.93	0.2
374.137	0.29
374.344	0.33
374.552	0.33
374.759	0.29
374.966	0.23
375.173	0.21
375.381	0.33
375.588	0.24
375.795	0.16
376.002	0.22
376.209	0.2
376.417	0.27
376.624	0.32
376.831	0.25
377.038	0.26
377.245	0.15
377.452	0.24
377.659	0.26
377.866	0.23
378.073	0.27
378.28	0.23
378.487	0.34
378.694	0.3
378.901	0.28
379.108	0.22
379.315	0.34
379.522	0.38
379.729	0.26
379.936	0.21
380.143	0.27
380.35	0.33
380.557	0.26
380.763	0.29
380.97	0.31
381.177	0.28
381.384	0.27
381.591	0.26
381.797	0.29
382.004	0.29
382.211	0.3
382.418	0.24
382.624	0.24
382.831	0.35
383.038	0.24
383.244	0.3
383.451	0.27
383.658	0.31
383.864	0.26
384.071	0.21
384.277	0.37
384.484	0.25
384.69	0.32
384.897	0.27
385.103	0.23
385.31	0.25
385.516	0.22
385.723	0.23
385.929	0.3
386.136	0.28
386.342	0.3
386.549	0.24
386.755	0.32
386.961	0.31
387.168	0.26
387.374	0.27
387.58	0.3
387.787	0.29
387.993	0.31
388.199	0.25
388.406	0.24
388.612	0.3
388.818	0.25
389.024	0.25
389.231	0.23
389.437	0.36
389.643	0.31
389.849	0.26
390.055	0.32
390.261	0.29
390.467	0.27
390.674	0.26
390.88	0.29
391.086	0.35
391.292	0.2
391.498	0.28
391.704	0.32
391.91	0.25
392.116	0.27
392.322	0.15
392.528	0.33
392.734	0.28
392.94	0.3
393.146	0.25
393.352	0.31
393.557	0.32
393.763	0.29
393.969	0.3
394.175	0.29
394.381	0.33
394.587	0.22
394.792	0.33
394.998	0.38
395.204	0.37
395.41	0.31
395.615	0.31
395.821	0.31
396.027	0.37
396.233	0.26
396.438	0.38
396.644	0.38
396.85	0.34
397.055	0.34
397.261	0.36
397.466	0.38
397.672	0.31
397.878	0.35
398.083	0.38
398.289	0.34
398.494	0.38
398.7	0.35
398.905	0.22
399.111	0.44
399.316	0.26
399.522	0.33
399.727	0.29
399.932	0.33
400.138	0.33
400.343	0.37
400.549	0.32
400.754	0.37
400.959	0.37
401.165	0.34
401.37	0.38
401.575	0.38
401.78	0.38
401.986	0.34
402.191	0.29
402.396	0.35
402.601	0.43
402.807	0.37
403.012	0.38
403.217	0.4
403.422	0.39
403.627	0.38
403.832	0.38
404.037	0.46
404.243	0.43
404.448	0.38
404.653	0.37
404.858	0.38
405.063	0.45
405.268	0.43
405.473	0.34
405.678	0.41
405.883	0.64
406.088	0.52
406.293	0.4
406.498	0.44
406.703	0.49
406.907	0.43
407.112	0.42
407.317	0.54
407.522	0.62
407.727	0.46
407.932	0.54
408.136	0.65
408.341	0.53
408.546	0.59
408.751	0.6
408.956	0.57
409.16	0.68
409.365	0.56
409.57	0.61
409.774	0.6
409.979	0.62
410.184	0.59
410.388	0.59
410.593	0.75
410.798	0.69
411.002	0.73
411.207	0.75
411.411	0.8
411.616	0.75
411.82	0.78
412.025	0.82
412.229	0.82
412.434	0.95
412.638	0.86
412.843	0.89
413.047	0.91
413.252	0.89
413.456	0.97
413.66	0.97
413.865	1.03
414.069	1.09
414.273	1.1
414.478	1.07
414.682	1.11
414.886	1.15
415.091	1.17
415.295	1.19
415.499	1.36
415.703	1.29
415.908	1.38
416.112	1.34
416.316	1.47
416.52	1.44
416.724	1.5
416.929	1.5
417.133	1.79
417.337	1.63
417.541	1.67
417.745	1.78
417.949	1.84
418.153	1.92
418.357	1.91
418.561	2.18
418.765	2.1
418.969	2.27
419.173	2.29
419.377	2.28
419.581	2.59
419.785	2.46
419.989	2.51
420.193	2.66
420.397	2.76
420.601	2.86
420.804	2.91
421.008	2.95
421.212	3.08
421.416	3.05
421.62	3.15
421.823	3.16
422.027	3.32
422.231	3.32
422.435	3.24
422.638	3.4
422.842	3.46
423.046	3.61
423.249	3.73
423.453	3.79
423.657	3.86
423.86	3.99
424.064	4.09
424.268	4.3
424.471	4.26
424.675	4.46
424.878	4.44
425.082	4.58
425.285	5.01
425.489	4.78
425.692	5.06
425.896	4.94
426.099	5.28
426.303	5.32
426.506	5.41
426.71	5.64
426.913	5.87
427.116	6.02
427.32	6
427.523	6.16
427.726	6.45
427.93	6.52
428.133	6.83
428.336	7.01
428.54	7.08
428.743	7.31
428.946	7.52
429.149	7.6
429.353	7.55
429.556	7.75
429.759	7.8
429.962	7.82
430.165	8.03
430.368	7.6
430.571	7.76
430.775	7.85
430.978	7.76
431.181	7.86
431.384	8
431.587	8.11
431.79	8.43
431.993	8.22
432.196	8.7
432.399	9.03
432.602	9.14
432.805	9.18
433.008	9.73
433.211	9.57
433.414	9.95
433.616	10.15
433.819	9.84
434.022	10.09
434.225	10.29
434.428	10.4
434.631	10.65
434.833	10.57
435.036	10.77
435.239	10.91
435.442	10.98
435.645	11.17
435.847	11.29
436.05	11.52
436.253	11.81
436.455	11.77
436.658	11.73
436.861	12.06
437.063	12.12
437.266	12.06
437.468	12.57
437.671	12.68
437.874	12.76
438.076	12.58
438.279	13.24
438.481	13.19
438.684	13.92
438.886	13.49
439.089	13.8
439.291	13.84
439.494	14.19
439.696	14.29
439.899	14.86
440.101	15.28
440.303	15.39
440.506	16.12
440.708	15.82
440.91	16.12
441.113	16.29
441.315	16.6
441.517	16.25
441.72	16.79
441.922	16.53
442.124	16.27
442.326	16.83
442.529	17.08
442.731	17.01
442.933	17.44
443.135	17.01
443.337	17.11
443.539	17.64
443.742	17.2
443.944	17.94
444.146	17.76
444.348	17.75
444.55	17.49
444.752	17.77
444.954	17.82
445.156	17.6
445.358	18.01
445.56	18.32
445.762	18.14
445.964	18.65
446.166	18.25
446.368	18.29
446.57	18.34
446.772	17.9
446.974	17.6
447.175	17.98
447.377	17.77
447.579	18.22
447.781	17.83
447.983	17.63
448.184	17.21
448.386	17.61
448.588	17.05
448.79	17.03
448.991	17.39
449.193	17.34
449.395	16.84
449.597	16.38
449.798	16.39
450	16.01
450.202	15.99
450.403	15.8
450.605	15.75
450.806	15.39
451.008	15.27
451.21	15.04
451.411	14.63
451.613	13.92
451.814	14.24
452.016	14.15
452.217	13.51
452.419	13.52
452.62	13.09
452.821	12.93
453.023	12.87
453.224	12.52
453.426	11.94
453.627	11.41
453.828	11.4
454.03	11.52
454.231	11.45
454.432	11.2
454.634	11.03
454.835	10.61
455.036	10.65
455.238	10.38
455.439	10.12
455.64	9.79
455.841	9.56
456.042	9.65
456.244	9.32
456.445	9.11
456.646	8.9
456.847	8.82
457.048	8.68
457.249	8.56
457.45	8.44
457.651	7.89
457.852	7.84
458.054	7.44
458.255	7.39
458.456	7.42
458.657	7.29
458.858	6.92
459.058	6.77
459.259	6.83
459.46	6.57
459.661	6.57
459.862	6.59
460.063	6.54
460.264	6.32
460.465	6.1
460.666	6.13
460.866	5.89
461.067	5.56
461.268	5.68
461.469	5.62
461.67	5.53
461.87	5.32
462.071	5.3
462.272	5.21
462.473	5.22
462.673	5.47
462.874	5.26
463.075	5.24
463.275	5.2
463.476	5.22
463.676	5.14
463.877	5.06
464.078	4.97
464.278	5.07
464.479	4.97
464.679	4.92
464.88	4.83
465.08	4.75
465.281	4.57
465.481	4.49
465.682	4.24
465.882	4.25
466.083	4.21
466.283	4.12
466.483	4.01
466.684	3.81
466.884	3.73
467.085	3.79
467.285	3.87
467.485	3.72
467.686	3.62
467.886	3.57
468.086	3.52
468.286	3.45
468.487	3.5
468.687	3.39
468.887	3.28
469.087	3.43
469.287	3.36
469.488	3.17
469.688	3.3
469.888	3.26
470.088	3.2
470.288	3.12
470.488	3.11
470.688	2.92
470.888	2.96
471.088	2.77
471.288	2.92
471.488	2.87
471.688	2.77
471.888	2.73
472.088	2.9
472.288	2.79
472.488	2.68
472.688	2.62
472.888	2.66
473.088	2.63
473.288	2.55
473.488	2.56
473.688	2.71
473.887	2.51
474.087	2.52
474.287	2.49
474.487	2.44
474.687	2.48
474.886	2.42
475.086	2.38
475.286	2.45
475.486	2.33
475.685	2.24
475.885	2.27
476.085	2.3
476.284	2.3
476.484	2.29
476.684	2.28
476.883	2.35
477.083	2.25
477.282	2.16
477.482	2.24
477.681	2.19
477.881	2.1
478.08	2.12
478.28	2.05
478.479	2.12
478.679	2.2
478.878	2.07
479.078	2.07
479.277	2.12
479.477	2.08
479.676	2.07
479.875	2.01
480.075	2
480.274	2.05
480.473	2.1
480.673	2.05
480.872	2.15
481.071	2.11
481.271	2.05
481.47	2.02
481.669	2.01
481.868	1.99
482.067	2.05
482.267	1.93
482.466	2
482.665	1.92
482.864	1.99
483.063	1.97
483.262	2.08
483.461	2.06
483.661	2.11
483.86	2.04
484.059	2.07
484.258	2.07
484.457	2.06
484.656	2.04
484.855	2.12
485.054	1.93
485.253	2
485.452	1.97
485.651	2.07
485.849	2.08
486.048	1.98
486.247	2.01
486.446	2.1
486.645	2.05
486.844	2.12
487.043	2.1
487.241	2.12
487.44	2.08
487.639	2.23
487.838	2.18
488.037	2.15
488.235	2.24
488.434	2.18
488.633	2.07
488.831	2.24
489.03	2.27
489.229	2.24
489.427	2.25
489.626	2.3
489.825	2.31
490.023	2.34
490.222	2.27
490.42	2.33
490.619	2.38
490.817	2.38
491.016	2.36
491.214	2.42
491.413	2.43
491.611	2.38
491.81	2.4
492.008	2.48
492.207	2.54
492.405	2.55
492.604	2.47
492.802	2.56
493	2.58
493.199	2.6
493.397	2.66
493.595	2.7
493.794	2.67
493.992	2.81
494.19	2.72
494.388	2.79
494.587	2.75
494.785	2.79
494.983	2.7
495.181	2.86
495.379	2.87
495.578	2.94
495.776	3
495.974	2.93
496.172	2.96
496.37	3.11
496.568	3.09
496.766	3.09
496.964	3.15
497.162	3.14
497.36	3.21
497.558	3.23
497.756	3.32
497.954	3.31
498.152	3.35
498.35	3.47
498.548	3.36
498.746	3.38
498.944	3.37
499.142	3.42
499.34	3.53
499.538	3.62
499.736	3.48
499.933	3.62
500.131	3.63
500.329	3.75
500.527	3.67
500.725	3.84
500.922	3.85
501.12	3.85
501.318	3.95
501.516	3.87
501.713	4
501.911	3.91
502.109	3.89
502.306	4.09
502.504	3.97
502.701	4.05
502.899	4.14
