Data from Apollo_Calib_20240827__AbsoluteIrradiance__3__23-12-02-669.txt Node

Date: Tue Aug 27 23:12:02 BST 2024
User: biology
Spectrometer: FLMT08252
Trigger mode: 0
Integration Time (sec): 5.000000E-1
Scans to average: 5
Electric dark correction enabled: true
Nonlinearity correction enabled: false
Boxcar width: 0
XAxis mode: Wavelengths
Number of Pixels in Spectrum: 3648
>>>>>Begin Spectral Data<<<<<
179.588	-0
179.809	-0
180.03	-0
180.251	-0
180.473	-0
180.694	0
180.915	0
181.136	-0
181.357	-0
181.578	0
181.799	-0
182.02	-0
182.241	-0
182.462	0
182.683	0
182.904	-0
183.125	0
183.346	0
183.567	0
183.788	0
184.009	0
184.23	0
184.451	0
184.672	0
184.892	0
185.113	0
185.334	0
185.555	0
185.776	0
185.996	0
186.217	0
186.438	0
186.659	0
186.879	0
187.1	0
187.321	0
187.541	0
187.762	0
187.983	0
188.203	0
188.424	0
188.644	0
188.865	0
189.086	0
189.306	0
189.527	0
189.747	0
189.968	0
190.188	0
190.409	0
190.629	0
190.849	0
191.07	0
191.29	0
191.511	0
191.731	0
191.951	0
192.172	0
192.392	0
192.612	0
192.833	0
193.053	0
193.273	0
193.493	0
193.714	0
193.934	0
194.154	0
194.374	0
194.594	0
194.815	0
195.035	0
195.255	0
195.475	0
195.695	0
195.915	0
196.135	0
196.355	0
196.575	0
196.795	0
197.015	0
197.235	0
197.455	0
197.675	0
197.895	0
198.115	0
198.335	0
198.555	0
198.775	0
198.995	0
199.214	0
199.434	0
199.654	0
199.874	0
200.094	3.53
200.313	3.16
200.533	2.43
200.753	2.55
200.973	2.95
201.192	2.42
201.412	1.66
201.632	2.59
201.851	3.23
202.071	2.1
202.291	1.9
202.51	1.77
202.73	2.76
202.95	2.1
203.169	1.64
203.389	1.95
203.608	2
203.828	1.47
204.047	2.12
204.267	2.39
204.486	2.24
204.706	2.14
204.925	2.18
205.145	1.98
205.364	2.46
205.583	2.21
205.803	1.48
206.022	1.46
206.242	1.62
206.461	2.02
206.68	1.31
206.9	2.11
207.119	2.06
207.338	1.46
207.557	1.27
207.777	1.55
207.996	1.64
208.215	1.93
208.434	1.44
208.654	1.27
208.873	1.57
209.092	1.77
209.311	1.27
209.53	1.17
209.749	1.36
209.968	1.09
210.187	1.42
210.407	0.85
210.626	1.2
210.845	1.22
211.064	1.31
211.283	1.21
211.502	1.68
211.721	1.4
211.94	1.12
212.159	1.49
212.377	1.21
212.596	1.52
212.815	1.28
213.034	1.39
213.253	1.24
213.472	1.2
213.691	1.22
213.91	1.02
214.128	0.97
214.347	1.39
214.566	0.97
214.785	0.61
215.003	1.26
215.222	1.08
215.441	1.1
215.66	0.89
215.878	0.99
216.097	1.24
216.316	0.81
216.534	0.86
216.753	0.83
216.972	0.83
217.19	0.96
217.409	0.68
217.627	0.83
217.846	0.97
218.064	1
218.283	0.85
218.501	1.21
218.72	1.01
218.938	0.73
219.157	0.61
219.375	1.03
219.594	0.84
219.812	0.7
220.031	0.88
220.249	1.11
220.467	1
220.686	0.67
220.904	0.67
221.122	0.67
221.341	0.97
221.559	0.86
221.777	0.77
221.995	0.76
222.214	0.71
222.432	0.76
222.65	0.93
222.868	0.82
223.086	0.94
223.305	0.87
223.523	0.63
223.741	0.93
223.959	0.47
224.177	0.52
224.395	0.69
224.613	0.8
224.831	0.79
225.049	0.64
225.267	0.78
225.485	0.82
225.703	0.59
225.921	0.8
226.139	0.83
226.357	0.75
226.575	0.69
226.793	0.67
227.011	1.04
227.229	0.71
227.447	0.69
227.665	0.69
227.883	0.5
228.1	0.66
228.318	0.67
228.536	0.45
228.754	0.6
228.972	0.65
229.189	0.68
229.407	0.65
229.625	0.66
229.843	0.8
230.06	0.61
230.278	0.53
230.496	0.83
230.713	0.66
230.931	0.49
231.149	0.67
231.366	0.55
231.584	0.61
231.801	0.77
232.019	0.64
232.236	0.57
232.454	0.58
232.671	0.68
232.889	0.53
233.106	0.45
233.324	0.61
233.541	0.64
233.759	0.62
233.976	0.63
234.194	0.56
234.411	0.41
234.628	0.51
234.846	0.61
235.063	0.63
235.28	0.55
235.498	0.76
235.715	0.45
235.932	0.65
236.149	0.56
236.367	0.6
236.584	0.6
236.801	0.55
237.018	0.74
237.236	0.55
237.453	0.47
237.67	0.61
237.887	0.5
238.104	0.51
238.321	0.42
238.538	0.45
238.755	0.59
238.973	0.47
239.19	0.55
239.407	0.61
239.624	0.49
239.841	0.47
240.058	0.45
240.275	0.53
240.492	0.49
240.709	0.61
240.925	0.53
241.142	0.51
241.359	0.4
241.576	0.4
241.793	0.35
242.01	0.57
242.227	0.6
242.444	0.56
242.66	0.66
242.877	0.48
243.094	0.45
243.311	0.56
243.527	0.44
243.744	0.49
243.961	0.47
244.178	0.49
244.394	0.52
244.611	0.57
244.828	0.61
245.044	0.41
245.261	0.42
245.477	0.42
245.694	0.5
245.911	0.36
246.127	0.53
246.344	0.51
246.56	0.47
246.777	0.43
246.993	0.58
247.21	0.44
247.426	0.45
247.643	0.53
247.859	0.37
248.076	0.41
248.292	0.57
248.508	0.41
248.725	0.5
248.941	0.44
249.157	0.58
249.374	0.44
249.59	0.46
249.806	0.47
250.023	0.46
250.239	0.45
250.455	0.38
250.671	0.43
250.888	0.46
251.104	0.49
251.32	0.42
251.536	0.37
251.752	0.32
251.969	0.47
252.185	0.48
252.401	0.57
252.617	0.48
252.833	0.38
253.049	0.44
253.265	0.4
253.481	0.48
253.697	0.51
253.913	0.39
254.129	0.43
254.345	0.36
254.561	0.34
254.777	0.4
254.993	0.45
255.209	0.4
255.425	0.38
255.641	0.38
255.857	0.55
256.073	0.44
256.288	0.3
256.504	0.39
256.72	0.41
256.936	0.51
257.152	0.41
257.367	0.33
257.583	0.45
257.799	0.44
258.015	0.33
258.23	0.36
258.446	0.48
258.662	0.42
258.877	0.36
259.093	0.37
259.309	0.36
259.524	0.41
259.74	0.38
259.955	0.27
260.171	0.37
260.387	0.38
260.602	0.46
260.818	0.46
261.033	0.33
261.249	0.37
261.464	0.38
261.68	0.31
261.895	0.44
262.11	0.49
262.326	0.31
262.541	0.34
262.757	0.42
262.972	0.35
263.187	0.37
263.403	0.37
263.618	0.4
263.833	0.35
264.049	0.33
264.264	0.42
264.479	0.4
264.694	0.44
264.91	0.26
265.125	0.34
265.34	0.37
265.555	0.44
265.77	0.38
265.986	0.36
266.201	0.43
266.416	0.48
266.631	0.37
266.846	0.39
267.061	0.36
267.276	0.38
267.491	0.26
267.706	0.37
267.921	0.39
268.136	0.35
268.351	0.38
268.566	0.37
268.781	0.45
268.996	0.33
269.211	0.36
269.426	0.36
269.641	0.3
269.856	0.36
270.071	0.33
270.285	0.27
270.5	0.42
270.715	0.37
270.93	0.33
271.145	0.36
271.359	0.37
271.574	0.24
271.789	0.37
272.004	0.4
272.218	0.31
272.433	0.44
272.648	0.23
272.862	0.37
273.077	0.29
273.292	0.37
273.506	0.33
273.721	0.36
273.936	0.41
274.15	0.4
274.365	0.32
274.579	0.43
274.794	0.37
275.008	0.39
275.223	0.3
275.437	0.34
275.652	0.47
275.866	0.35
276.081	0.34
276.295	0.38
276.509	0.35
276.724	0.28
276.938	0.37
277.153	0.36
277.367	0.38
277.581	0.3
277.796	0.34
278.01	0.32
278.224	0.4
278.438	0.43
278.653	0.26
278.867	0.32
279.081	0.08
279.295	0.31
279.51	0.34
279.724	0.23
279.938	0.31
280.152	0.31
280.366	0.26
280.58	0.37
280.794	0.36
281.008	0.33
281.222	0.34
281.437	0.4
281.651	0.3
281.865	0.41
282.079	0.31
282.293	0.25
282.507	0.31
282.721	0.34
282.935	0.37
283.148	0.25
283.362	0.27
283.576	0.29
283.79	0.33
284.004	0.27
284.218	0.31
284.432	0.25
284.646	0.3
284.859	0.29
285.073	0.3
285.287	0.31
285.501	0.3
285.714	0.26
285.928	0.34
286.142	0.29
286.356	0.27
286.569	0.3
286.783	0.35
286.997	0.28
287.21	0.29
287.424	0.35
287.637	0.23
287.851	0.27
288.065	0.31
288.278	0.32
288.492	0.33
288.705	0.25
288.919	0.31
289.132	0.27
289.346	0.3
289.559	0.24
289.773	0.24
289.986	0.29
290.2	0.33
290.413	0.31
290.626	0.27
290.84	0.3
291.053	0.31
291.267	0.37
291.48	0.29
291.693	0.3
291.906	0.23
292.12	0.26
292.333	0.23
292.546	0.23
292.76	0.3
292.973	0.29
293.186	0.3
293.399	0.26
293.612	0.33
293.826	0.28
294.039	0.27
294.252	0.28
294.465	0.29
294.678	0.3
294.891	0.26
295.104	0.28
295.317	0.24
295.53	0.25
295.743	0.26
295.956	0.3
296.169	0.26
296.382	0.29
296.595	0.27
296.808	0.23
297.021	0.31
297.234	0.24
297.447	0.3
297.66	0.24
297.873	0.28
298.086	0.26
298.299	0.25
298.511	0.24
298.724	0.23
298.937	0.21
299.15	0.27
299.363	0.22
299.575	0.26
299.788	0.28
300.001	0.25
300.213	0.23
300.426	0.26
300.639	0.22
300.852	0.2
301.064	0.37
301.277	0.33
301.489	0.31
301.702	0.29
301.915	0.24
302.127	0.27
302.34	0.25
302.552	0.29
302.765	0.26
302.977	0.32
303.19	0.24
303.402	0.27
303.615	0.2
303.827	0.22
304.04	0.24
304.252	0.32
304.464	0.25
304.677	0.32
304.889	0.33
305.102	0.27
305.314	0.21
305.526	0.31
305.739	0.26
305.951	0.25
306.163	0.25
306.375	0.33
306.588	0.22
306.8	0.24
307.012	0.22
307.224	0.29
307.436	0.26
307.649	0.19
307.861	0.28
308.073	0.28
308.285	0.28
308.497	0.26
308.709	0.28
308.921	0.27
309.133	0.26
309.346	0.25
309.558	0.27
309.77	0.27
309.982	0.35
310.194	0.28
310.406	0.22
310.617	0.27
310.829	0.28
311.041	0.31
311.253	0.21
311.465	0.25
311.677	0.22
311.889	0.27
312.101	0.22
312.313	0.31
312.524	0.25
312.736	0.19
312.948	0.23
313.16	0.29
313.372	0.26
313.583	0.29
313.795	0.26
314.007	0.19
314.218	0.24
314.43	0.25
314.642	0.24
314.853	0.21
315.065	0.29
315.277	0.22
315.488	0.26
315.7	0.26
315.912	0.26
316.123	0.21
316.335	0.22
316.546	0.33
316.758	0.22
316.969	0.25
317.181	0.23
317.392	0.25
317.604	0.3
317.815	0.21
318.026	0.21
318.238	0.27
318.449	0.27
318.661	0.21
318.872	0.22
319.083	0.19
319.295	0.31
319.506	0.24
319.717	0.24
319.929	0.26
320.14	0.22
320.351	0.26
320.562	0.22
320.774	0.23
320.985	0.22
321.196	0.25
321.407	0.2
321.618	0.27
321.829	0.21
322.041	0.25
322.252	0.24
322.463	0.24
322.674	0.26
322.885	0.22
323.096	0.24
323.307	0.24
323.518	0.26
323.729	0.22
323.94	0.27
324.151	0.2
324.362	0.24
324.573	0.28
324.784	0.27
324.995	0.27
325.206	0.28
325.417	0.21
325.628	0.27
325.838	0.23
326.049	0.26
326.26	0.32
326.471	0.26
326.682	0.34
326.892	0.27
327.103	0.2
327.314	0.23
327.525	0.26
327.735	0.24
327.946	0.28
328.157	0.25
328.368	0.24
328.578	0.25
328.789	0.31
328.999	0.27
329.21	0.23
329.421	0.27
329.631	0.2
329.842	0.23
330.052	0.28
330.263	0.26
330.473	0.3
330.684	0.22
330.894	0.28
331.105	0.29
331.315	0.24
331.526	0.22
331.736	0.33
331.947	0.24
332.157	0.29
332.367	0.26
332.578	0.31
332.788	0.27
332.999	0.3
333.209	0.24
333.419	0.23
333.629	0.24
333.84	0.29
334.05	0.28
334.26	0.29
334.47	0.3
334.681	0.32
334.891	0.25
335.101	0.24
335.311	0.3
335.521	0.28
335.732	0.21
335.942	0.29
336.152	0.3
336.362	0.27
336.572	0.24
336.782	0.26
336.992	0.26
337.202	0.24
337.412	0.23
337.622	0.26
337.832	0.29
338.042	0.21
338.252	0.23
338.462	0.27
338.672	0.26
338.882	0.26
339.092	0.25
339.302	0.36
339.511	0.28
339.721	0.21
339.931	0.23
340.141	0.28
340.351	0.32
340.561	0.26
340.77	0.26
340.98	0.26
341.19	0.26
341.4	0.19
341.609	0.24
341.819	0.25
342.029	0.27
342.238	0.22
342.448	0.18
342.658	0.26
342.867	0.28
343.077	0.29
343.286	0.28
343.496	0.24
343.706	0.29
343.915	0.22
344.125	0.23
344.334	0.31
344.544	0.2
344.753	0.22
344.963	0.25
345.172	0.22
345.381	0.24
345.591	0.24
345.8	0.23
346.01	0.27
346.219	0.29
346.428	0.09
346.638	0.29
346.847	0.27
347.056	0.34
347.266	0.24
347.475	0.27
347.684	0.28
347.893	0.28
348.103	0.28
348.312	0.22
348.521	0.23
348.73	0.23
348.94	0.3
349.149	0.21
349.358	0.24
349.567	0.21
349.776	0.22
349.985	0.2
350.194	0.27
350.403	0.24
350.612	0.24
350.821	0.27
351.03	0.21
351.239	0.24
351.448	0.3
351.657	0.21
351.866	0.29
352.075	0.23
352.284	0.25
352.493	0.2
352.702	0.27
352.911	0.3
353.12	0.25
353.329	0.24
353.538	0.27
353.746	0.23
353.955	0.24
354.164	0.28
354.373	0.26
354.582	0.23
354.79	0.27
354.999	0.29
355.208	0.2
355.416	0.27
355.625	0.24
355.834	0.25
356.042	0.28
356.251	0.24
356.46	0.23
356.668	0.23
356.877	0.32
357.085	0.28
357.294	0.19
357.503	0.24
357.711	0.22
357.92	0.34
358.128	0.23
358.337	0.2
358.545	0.26
358.754	0.21
358.962	0.29
359.17	0.22
359.379	0.23
359.587	0.26
359.796	0.26
360.004	0.3
360.212	0.25
360.421	0.22
360.629	0.24
360.837	0.23
361.046	0.26
361.254	0.34
361.462	0.25
361.67	0.26
361.879	0.28
362.087	0.26
362.295	0.29
362.503	0.22
362.711	0.21
362.92	0.24
363.128	0.19
363.336	0.19
363.544	0.2
363.752	0.22
363.96	0.25
364.168	0.23
364.376	0.23
364.584	0.24
364.792	0.28
365	0.27
365.208	0.29
365.416	0.27
365.624	0.29
365.832	0.22
366.04	0.26
366.248	0.23
366.456	0.24
366.664	0.29
366.872	0.23
367.079	0.26
367.287	0.26
367.495	0.25
367.703	0.25
367.911	0.21
368.118	0.26
368.326	0.19
368.534	0.22
368.742	0.28
368.949	0.19
369.157	0.24
369.365	0.22
369.572	0.25
369.78	0.21
369.988	0.29
370.195	0.29
370.403	0.27
370.61	0.23
370.818	0.26
371.026	0.29
371.233	0.22
371.441	0.23
371.648	0.24
371.856	0.25
372.063	0.2
372.271	0.27
372.478	0.26
372.685	0.23
372.893	0.27
373.1	0.23
373.308	0.27
373.515	0.29
373.722	0.24
373.93	0.25
374.137	0.28
374.344	0.31
374.552	0.28
374.759	0.27
374.966	0.26
375.173	0.26
375.381	0.34
375.588	0.25
375.795	0.17
376.002	0.26
376.209	0.22
376.417	0.26
376.624	0.3
376.831	0.3
377.038	0.25
377.245	0.18
377.452	0.28
377.659	0.31
377.866	0.24
378.073	0.24
378.28	0.25
378.487	0.27
378.694	0.3
378.901	0.25
379.108	0.24
379.315	0.29
379.522	0.33
379.729	0.21
379.936	0.27
380.143	0.29
380.35	0.28
380.557	0.25
380.763	0.27
380.97	0.24
381.177	0.28
381.384	0.3
381.591	0.29
381.797	0.22
382.004	0.31
382.211	0.31
382.418	0.3
382.624	0.35
382.831	0.29
383.038	0.26
383.244	0.3
383.451	0.28
383.658	0.31
383.864	0.3
384.071	0.23
384.277	0.36
384.484	0.26
384.69	0.28
384.897	0.31
385.103	0.27
385.31	0.22
385.516	0.22
385.723	0.27
385.929	0.27
386.136	0.25
386.342	0.28
386.549	0.27
386.755	0.34
386.961	0.31
387.168	0.29
387.374	0.29
387.58	0.37
387.787	0.27
387.993	0.34
388.199	0.26
388.406	0.25
388.612	0.3
388.818	0.28
389.024	0.3
389.231	0.3
389.437	0.35
389.643	0.34
389.849	0.27
390.055	0.31
390.261	0.31
390.467	0.26
390.674	0.25
390.88	0.28
391.086	0.32
391.292	0.27
391.498	0.34
391.704	0.31
391.91	0.29
392.116	0.28
392.322	0.22
392.528	0.3
392.734	0.31
392.94	0.29
393.146	0.26
393.352	0.28
393.557	0.3
393.763	0.31
393.969	0.32
394.175	0.28
394.381	0.35
394.587	0.25
394.792	0.27
394.998	0.34
395.204	0.34
395.41	0.29
395.615	0.32
395.821	0.32
396.027	0.31
396.233	0.29
396.438	0.3
396.644	0.4
396.85	0.38
397.055	0.34
397.261	0.33
397.466	0.34
397.672	0.34
397.878	0.34
398.083	0.35
398.289	0.33
398.494	0.38
398.7	0.33
398.905	0.26
399.111	0.39
399.316	0.32
399.522	0.34
399.727	0.33
399.932	0.35
400.138	0.34
400.343	0.4
400.549	0.34
400.754	0.37
400.959	0.33
401.165	0.36
401.37	0.38
401.575	0.47
401.78	0.4
401.986	0.38
402.191	0.37
402.396	0.39
402.601	0.39
402.807	0.4
403.012	0.35
403.217	0.43
403.422	0.35
403.627	0.42
403.832	0.38
404.037	0.41
404.243	0.46
404.448	0.44
404.653	0.39
404.858	0.47
405.063	0.45
405.268	0.39
405.473	0.4
405.678	0.4
405.883	0.52
406.088	0.48
406.293	0.46
406.498	0.43
406.703	0.51
406.907	0.52
407.112	0.44
407.317	0.44
407.522	0.59
407.727	0.48
407.932	0.53
408.136	0.62
408.341	0.59
408.546	0.59
408.751	0.57
408.956	0.59
409.16	0.6
409.365	0.62
409.57	0.55
409.774	0.59
409.979	0.66
410.184	0.65
410.388	0.64
410.593	0.74
410.798	0.73
411.002	0.72
411.207	0.72
411.411	0.8
411.616	0.72
411.82	0.84
412.025	0.8
412.229	0.79
412.434	0.88
412.638	0.91
412.843	0.91
413.047	0.94
413.252	0.94
413.456	0.97
413.66	0.99
413.865	1.04
414.069	1.1
414.273	1.09
414.478	1.1
414.682	1.15
414.886	1.1
415.091	1.15
415.295	1.22
415.499	1.34
415.703	1.3
415.908	1.4
416.112	1.29
416.316	1.53
416.52	1.48
416.724	1.53
416.929	1.66
417.133	1.78
417.337	1.69
417.541	1.7
417.745	1.76
417.949	1.84
418.153	1.94
418.357	1.96
418.561	2.13
418.765	2.11
418.969	2.25
419.173	2.35
419.377	2.34
419.581	2.54
419.785	2.46
419.989	2.61
420.193	2.74
420.397	2.83
420.601	2.88
420.804	3.01
421.008	2.97
421.212	3.2
421.416	3.05
421.62	3.17
421.823	3.23
422.027	3.43
422.231	3.38
422.435	3.35
422.638	3.46
422.842	3.57
423.046	3.67
423.249	3.86
423.453	3.79
423.657	3.93
423.86	4.06
424.064	4.24
424.268	4.29
424.471	4.3
424.675	4.65
424.878	4.62
425.082	4.73
425.285	5.01
425.489	4.91
425.692	5.07
425.896	5.11
426.099	5.26
426.303	5.39
426.506	5.65
426.71	5.84
426.913	5.93
427.116	6.08
427.32	6.06
427.523	6.18
427.726	6.54
427.93	6.66
428.133	6.94
428.336	7.12
428.54	7.23
428.743	7.43
428.946	7.74
429.149	7.66
429.353	7.74
429.556	7.76
429.759	7.9
429.962	8.01
430.165	8.18
430.368	7.84
430.571	7.87
430.775	8.02
430.978	7.96
431.181	7.91
431.384	8.09
431.587	8.2
431.79	8.55
431.993	8.51
432.196	8.77
432.399	9.15
432.602	9.21
432.805	9.41
433.008	9.91
433.211	9.74
433.414	10.06
433.616	10.06
433.819	10.07
434.022	10.31
434.225	10.34
434.428	10.44
434.631	10.88
434.833	10.64
435.036	10.87
435.239	11.02
435.442	11.24
435.645	11.33
435.847	11.36
436.05	11.67
436.253	12
436.455	11.93
436.658	11.92
436.861	12.12
437.063	12.37
437.266	12.38
437.468	12.61
437.671	12.76
437.874	12.96
438.076	12.85
438.279	13.25
438.481	13.21
438.684	14.08
438.886	13.68
439.089	14.03
439.291	13.99
439.494	14.38
439.696	14.52
439.899	15.03
440.101	15.39
440.303	15.56
440.506	16.39
440.708	16.2
440.91	16.26
441.113	16.47
441.315	16.87
441.517	16.48
441.72	17.06
441.922	16.71
442.124	16.57
442.326	16.97
442.529	17.27
442.731	17.26
442.933	17.46
443.135	17.38
443.337	17.13
443.539	17.77
443.742	17.56
443.944	18.21
444.146	17.75
444.348	17.81
444.55	17.81
444.752	18.11
444.954	18.03
445.156	18.03
445.358	18.44
445.56	18.76
445.762	18.39
445.964	18.8
446.166	18.59
446.368	18.48
446.57	18.51
446.772	18.15
446.974	17.9
447.175	18.28
447.377	18.01
447.579	18.41
447.781	17.98
447.983	17.83
448.184	17.44
448.386	17.86
448.588	17.23
448.79	17.27
448.991	17.53
449.193	17.62
449.395	17.08
449.597	16.53
449.798	16.44
450	16.17
450.202	15.96
450.403	15.91
450.605	15.91
450.806	15.57
451.008	15.58
451.21	15.22
451.411	14.9
451.613	14.04
451.814	14.31
452.016	14.11
452.217	13.54
452.419	13.59
452.62	13.31
452.821	13.1
453.023	12.9
453.224	12.53
453.426	12.1
453.627	11.37
453.828	11.51
454.03	11.52
454.231	11.51
454.432	11.4
454.634	10.94
454.835	10.83
455.036	10.92
455.238	10.37
455.439	10.02
455.64	9.78
455.841	9.68
456.042	9.7
456.244	9.43
456.445	9.21
456.646	8.81
456.847	8.83
457.048	8.57
457.249	8.71
457.45	8.24
457.651	7.85
457.852	7.68
458.054	7.53
458.255	7.53
458.456	7.47
458.657	7.41
458.858	6.85
459.058	6.76
459.259	6.92
459.46	6.55
459.661	6.6
459.862	6.53
460.063	6.47
460.264	6.35
460.465	6.14
460.666	6.22
460.866	5.86
461.067	5.66
461.268	5.71
461.469	5.62
461.67	5.53
461.87	5.4
462.071	5.45
462.272	5.29
462.473	5.26
462.673	5.37
462.874	5.23
463.075	5.27
463.275	5.22
463.476	5.26
463.676	5.23
463.877	5.09
464.078	5.01
464.278	5.06
464.479	5
464.679	4.87
464.88	4.86
465.08	4.72
465.281	4.68
465.481	4.49
465.682	4.24
465.882	4.23
466.083	4.14
466.283	4.16
466.483	4
466.684	3.87
466.884	3.74
467.085	3.81
467.285	3.82
467.485	3.7
467.686	3.54
467.886	3.57
468.086	3.45
468.286	3.45
468.487	3.52
468.687	3.35
468.887	3.24
469.087	3.42
469.287	3.29
469.488	3.09
469.688	3.18
469.888	3.2
470.088	3.23
470.288	3.16
470.488	3.07
470.688	2.89
470.888	2.96
471.088	2.8
471.288	2.88
471.488	2.84
471.688	2.76
471.888	2.77
472.088	2.87
472.288	2.77
472.488	2.68
472.688	2.59
472.888	2.67
473.088	2.63
473.288	2.51
473.488	2.54
473.688	2.66
473.887	2.51
474.087	2.53
474.287	2.49
474.487	2.41
474.687	2.41
474.886	2.41
475.086	2.37
475.286	2.39
475.486	2.25
475.685	2.31
475.885	2.24
476.085	2.29
476.284	2.3
476.484	2.3
476.684	2.27
476.883	2.35
477.083	2.22
477.282	2.19
477.482	2.21
477.681	2.18
477.881	2.13
478.08	2.16
478.28	2.05
478.479	2.1
478.679	2.17
478.878	2.06
479.078	2.08
479.277	2.19
479.477	2.06
479.676	2.03
479.875	2.11
480.075	2.04
480.274	2.02
480.473	2.05
480.673	2.04
480.872	2.11
481.071	2.04
481.271	2.1
481.47	2.01
481.669	2.02
481.868	1.98
482.067	2
482.267	1.95
482.466	1.94
482.665	1.93
482.864	2
483.063	1.99
483.262	2
483.461	2.05
483.661	2.07
483.86	2.01
484.059	2.05
484.258	2.08
484.457	2.08
484.656	2.05
484.855	2.06
485.054	1.95
485.253	2.01
485.452	2.01
485.651	2.04
485.849	2.02
486.048	2.05
486.247	2.03
486.446	2.13
486.645	2.08
486.844	2.12
487.043	2.02
487.241	2.1
487.44	2.11
487.639	2.15
487.838	2.11
488.037	2.15
488.235	2.19
488.434	2.16
488.633	2.05
488.831	2.23
489.03	2.27
489.229	2.2
489.427	2.24
489.626	2.24
489.825	2.26
490.023	2.31
490.222	2.28
490.42	2.28
490.619	2.37
490.817	2.38
491.016	2.33
491.214	2.41
491.413	2.41
491.611	2.36
491.81	2.39
492.008	2.46
492.207	2.56
492.405	2.5
492.604	2.5
492.802	2.52
493	2.58
493.199	2.6
493.397	2.63
493.595	2.69
493.794	2.66
493.992	2.76
494.19	2.77
494.388	2.75
494.587	2.72
494.785	2.76
494.983	2.73
495.181	2.82
495.379	2.85
495.578	2.94
495.776	2.95
495.974	2.91
496.172	2.96
496.37	3.09
496.568	3.07
496.766	3.07
496.964	3.18
497.162	3.18
497.36	3.23
497.558	3.25
497.756	3.28
497.954	3.28
498.152	3.36
498.35	3.39
498.548	3.37
498.746	3.39
498.944	3.41
499.142	3.46
499.34	3.46
499.538	3.63
499.736	3.45
499.933	3.58
500.131	3.61
500.329	3.76
500.527	3.76
500.725	3.81
500.922	3.8
501.12	3.82
501.318	3.91
501.516	3.88
501.713	3.98
501.911	3.96
502.109	3.95
502.306	4.05
502.504	4.01
502.701	4.08
