Data from Apollo_Calib_20240827__AbsoluteIrradiance__763__11-52-01-421.txt Node

Date: Wed Aug 28 11:52:01 BST 2024
User: biology
Spectrometer: FLMT08252
Trigger mode: 0
Integration Time (sec): 5.000000E-1
Scans to average: 5
Electric dark correction enabled: true
Nonlinearity correction enabled: false
Boxcar width: 0
XAxis mode: Wavelengths
Number of Pixels in Spectrum: 3648
>>>>>Begin Spectral Data<<<<<
179.588	-0
179.809	-0
180.03	-0
180.251	-0
180.473	-0
180.694	0
180.915	0
181.136	-0
181.357	0
181.578	-0
181.799	0
182.02	-0
182.241	0
182.462	-0
182.683	0
182.904	-0
183.125	-0
183.346	-0
183.567	0
183.788	0
184.009	0
184.23	0
184.451	0
184.672	0
184.892	0
185.113	0
185.334	0
185.555	0
185.776	0
185.996	0
186.217	0
186.438	0
186.659	0
186.879	0
187.1	0
187.321	0
187.541	0
187.762	0
187.983	0
188.203	0
188.424	0
188.644	0
188.865	0
189.086	0
189.306	0
189.527	0
189.747	0
189.968	0
190.188	0
190.409	0
190.629	0
190.849	0
191.07	0
191.29	0
191.511	0
191.731	0
191.951	0
192.172	0
192.392	0
192.612	0
192.833	0
193.053	0
193.273	0
193.493	0
193.714	0
193.934	0
194.154	0
194.374	0
194.594	0
194.815	0
195.035	0
195.255	0
195.475	0
195.695	0
195.915	0
196.135	0
196.355	0
196.575	0
196.795	0
197.015	0
197.235	0
197.455	0
197.675	0
197.895	0
198.115	0
198.335	0
198.555	0
198.775	0
198.995	0
199.214	0
199.434	0
199.654	0
199.874	0
200.094	3.58
200.313	2.08
200.533	1.94
200.753	1.09
200.973	3.12
201.192	3.04
201.412	1.18
201.632	1.4
201.851	2.84
202.071	1.53
202.291	1.6
202.51	1.37
202.73	2.56
202.95	1.81
203.169	1.5
203.389	1.5
203.608	2.14
203.828	0.99
204.047	1.47
204.267	1.81
204.486	1.67
204.706	2.05
204.925	1.7
205.145	1.46
205.364	2.09
205.583	2.76
205.803	1.31
206.022	1.31
206.242	1.62
206.461	1.53
206.68	1.1
206.9	1.69
207.119	2.13
207.338	2.2
207.557	1.43
207.777	1.01
207.996	1.13
208.215	1.9
208.434	1.01
208.654	0.81
208.873	1.42
209.092	1.8
209.311	1.11
209.53	1.08
209.749	1.12
209.968	0.82
210.187	1.03
210.407	0.5
210.626	1.18
210.845	1.36
211.064	1
211.283	0.85
211.502	1.38
211.721	1.09
211.94	0.94
212.159	1.28
212.377	1.23
212.596	1.46
212.815	1.04
213.034	0.97
213.253	1.22
213.472	1.34
213.691	0.95
213.91	0.76
214.128	0.85
214.347	1.49
214.566	0.41
214.785	0.61
215.003	1.08
215.222	0.9
215.441	0.81
215.66	0.42
215.878	0.7
216.097	1.1
216.316	0.53
216.534	0.7
216.753	0.95
216.972	0.84
217.19	0.7
217.409	0.87
217.627	0.69
217.846	0.72
218.064	0.88
218.283	0.43
218.501	1.4
218.72	0.99
218.938	0.55
219.157	0.64
219.375	0.94
219.594	0.88
219.812	0.4
220.031	0.57
220.249	1.09
220.467	1.14
220.686	0.58
220.904	0.49
221.122	0.5
221.341	1.1
221.559	0.7
221.777	0.43
221.995	0.52
222.214	0.66
222.432	0.51
222.65	0.86
222.868	0.71
223.086	0.82
223.305	0.86
223.523	0.59
223.741	0.9
223.959	0.68
224.177	0.32
224.395	0.64
224.613	0.83
224.831	0.87
225.049	0.42
225.267	0.56
225.485	0.67
225.703	0.61
225.921	0.48
226.139	0.53
226.357	0.66
226.575	0.68
226.793	0.54
227.011	1.4
227.229	0.7
227.447	0.71
227.665	0.62
227.883	0.24
228.1	0.61
228.318	0.61
228.536	0.31
228.754	0.44
228.972	0.55
229.189	0.7
229.407	0.44
229.625	0.54
229.843	0.81
230.06	0.64
230.278	0.44
230.496	0.6
230.713	0.68
230.931	0.67
231.149	0.49
231.366	0.21
231.584	0.4
231.801	1.01
232.019	0.52
232.236	0.3
232.454	0.42
232.671	0.58
232.889	0.46
233.106	0.33
233.324	0.58
233.541	0.54
233.759	0.47
233.976	0.43
234.194	0.48
234.411	0.46
234.628	0.35
234.846	0.46
235.063	0.51
235.28	0.47
235.498	0.42
235.715	0.31
235.932	0.72
236.149	0.45
236.367	0.32
236.584	0.43
236.801	0.36
237.018	0.59
237.236	0.47
237.453	0.26
237.67	0.6
237.887	0.48
238.104	0.4
238.321	0.29
238.538	0.27
238.755	0.57
238.973	0.31
239.19	0.49
239.407	0.5
239.624	0.45
239.841	0.31
240.058	0.37
240.275	0.45
240.492	0.48
240.709	0.42
240.925	0.33
241.142	0.41
241.359	0.32
241.576	0.3
241.793	0.34
242.01	0.45
242.227	0.68
242.444	0.39
242.66	0.61
242.877	0.38
243.094	0.3
243.311	0.36
243.527	0.37
243.744	0.45
243.961	0.49
244.178	0.26
244.394	0.37
244.611	0.64
244.828	0.6
245.044	0.33
245.261	0.34
245.477	0.45
245.694	0.47
245.911	0.3
246.127	0.39
246.344	0.61
246.56	0.55
246.777	0.41
246.993	0.37
247.21	0.46
247.426	0.5
247.643	0.34
247.859	0.29
248.076	0.39
248.292	0.69
248.508	0.3
248.725	0.45
248.941	0.49
249.157	0.4
249.374	0.29
249.59	0.38
249.806	0.42
250.023	0.58
250.239	0.3
250.455	0.29
250.671	0.35
250.888	0.4
251.104	0.4
251.32	0.31
251.536	0.35
251.752	0.33
251.969	0.42
252.185	0.37
252.401	0.52
252.617	0.4
252.833	0.31
253.049	0.37
253.265	0.44
253.481	0.31
253.697	0.33
253.913	0.24
254.129	0.43
254.345	0.41
254.561	0.24
254.777	0.31
254.993	0.37
255.209	0.47
255.425	0.31
255.641	0.34
255.857	0.43
256.073	0.35
256.288	0.28
256.504	0.31
256.72	0.38
256.936	0.49
257.152	0.29
257.367	0.24
257.583	0.37
257.799	0.45
258.015	0.31
258.23	0.24
258.446	0.53
258.662	0.3
258.877	0.26
259.093	0.29
259.309	0.38
259.524	0.42
259.74	0.28
259.955	0.2
260.171	0.34
260.387	0.34
260.602	0.46
260.818	0.36
261.033	0.25
261.249	0.32
261.464	0.29
261.68	0.26
261.895	0.4
262.11	0.39
262.326	0.24
262.541	0.15
262.757	0.42
262.972	0.42
263.187	0.36
263.403	0.34
263.618	0.47
263.833	0.33
264.049	0.23
264.264	0.29
264.479	0.34
264.694	0.48
264.91	0.28
265.125	0.28
265.34	0.39
265.555	0.48
265.77	0.4
265.986	0.22
266.201	0.37
266.416	0.37
266.631	0.29
266.846	0.23
267.061	0.39
267.276	0.43
267.491	0.14
267.706	0.32
267.921	0.41
268.136	0.28
268.351	0.38
268.566	0.2
268.781	0.41
268.996	0.4
269.211	0.3
269.426	0.19
269.641	0.29
269.856	0.4
270.071	0.22
270.285	0.2
270.5	0.37
270.715	0.45
270.93	0.23
271.145	0.23
271.359	0.4
271.574	0.22
271.789	0.31
272.004	0.27
272.218	0.27
272.433	0.35
272.648	0.19
272.862	0.38
273.077	0.33
273.292	0.3
273.506	0.21
273.721	0.29
273.936	0.31
274.15	0.37
274.365	0.24
274.579	0.33
274.794	0.38
275.008	0.4
275.223	0.19
275.437	0.26
275.652	0.41
275.866	0.33
276.081	0.28
276.295	0.3
276.509	0.36
276.724	0.32
276.938	0.3
277.153	0.29
277.367	0.35
277.581	0.27
277.796	0.25
278.01	0.25
278.224	0.34
278.438	0.45
278.653	0.2
278.867	0.29
279.081	0.39
279.295	0.27
279.51	0.33
279.724	0.17
279.938	0.36
280.152	0.37
280.366	0.23
280.58	0.34
280.794	0.4
281.008	0.33
281.222	0.32
281.437	0.42
281.651	0.27
281.865	0.41
282.079	0.22
282.293	0.18
282.507	0.2
282.721	0.26
282.935	0.23
283.148	0.24
283.362	0.32
283.576	0.2
283.79	0.25
284.004	0.22
284.218	0.33
284.432	0.23
284.646	0.26
284.859	0.27
285.073	0.25
285.287	0.28
285.501	0.27
285.714	0.26
285.928	0.31
286.142	0.28
286.356	0.25
286.569	0.23
286.783	0.38
286.997	0.35
287.21	0.24
287.424	0.25
287.637	0.27
287.851	0.31
288.065	0.34
288.278	0.24
288.492	0.28
288.705	0.27
288.919	0.28
289.132	0.17
289.346	0.36
289.559	0.23
289.773	0.23
289.986	0.26
290.2	0.27
290.413	0.31
290.626	0.23
290.84	0.27
291.053	0.26
291.267	0.37
291.48	0.23
291.693	0.24
291.906	0.21
292.12	0.28
292.333	0.2
292.546	0.2
292.76	0.36
292.973	0.26
293.186	0.3
293.399	0.23
293.612	0.31
293.826	0.28
294.039	0.24
294.252	0.27
294.465	0.3
294.678	0.28
294.891	0.25
295.104	0.21
295.317	0.21
295.53	0.26
295.743	0.21
295.956	0.26
296.169	0.35
296.382	0.27
296.595	0.23
296.808	0.21
297.021	0.27
297.234	0.33
297.447	0.19
297.66	0.26
297.873	0.28
298.086	0.3
298.299	0.18
298.511	0.14
298.724	0.22
298.937	0.19
299.15	0.21
299.363	0.23
299.575	0.28
299.788	0.26
300.001	0.21
300.213	0.22
300.426	0.24
300.639	0.21
300.852	0.22
301.064	0.35
301.277	0.33
301.489	0.24
301.702	0.25
301.915	0.23
302.127	0.24
302.34	0.23
302.552	0.26
302.765	0.2
302.977	0.32
303.19	0.21
303.402	0.21
303.615	0.21
303.827	0.24
304.04	0.24
304.252	0.28
304.464	0.23
304.677	0.37
304.889	0.3
305.102	0.19
305.314	0.2
305.526	0.29
305.739	0.26
305.951	0.17
306.163	0.18
306.375	0.32
306.588	0.21
306.8	0.21
307.012	0.16
307.224	0.26
307.436	0.35
307.649	0.16
307.861	0.23
308.073	0.32
308.285	0.2
308.497	0.2
308.709	0.2
308.921	0.24
309.133	0.3
309.346	0.21
309.558	0.19
309.77	0.29
309.982	0.3
310.194	0.28
310.406	0.21
310.617	0.29
310.829	0.23
311.041	0.27
311.253	0.2
311.465	0.24
311.677	0.23
311.889	0.22
312.101	0.22
312.313	0.26
312.524	0.32
312.736	0.16
312.948	0.2
313.16	0.3
313.372	0.24
313.583	0.25
313.795	0.23
314.007	0.19
314.218	0.28
314.43	0.23
314.642	0.2
314.853	0.13
315.065	0.22
315.277	0.24
315.488	0.26
315.7	0.3
315.912	0.28
316.123	0.23
316.335	0.21
316.546	0.34
316.758	0.21
316.969	0.22
317.181	0.26
317.392	0.19
317.604	0.32
317.815	0.18
318.026	0.2
318.238	0.23
318.449	0.29
318.661	0.2
318.872	0.16
319.083	0.18
319.295	0.27
319.506	0.2
319.717	0.22
319.929	0.28
320.14	0.23
320.351	0.2
320.562	0.21
320.774	0.26
320.985	0.22
321.196	0.21
321.407	0.19
321.618	0.28
321.829	0.27
322.041	0.28
322.252	0.23
322.463	0.27
322.674	0.27
322.885	0.18
323.096	0.26
323.307	0.22
323.518	0.24
323.729	0.24
323.94	0.22
324.151	0.23
324.362	0.29
324.573	0.27
324.784	0.2
324.995	0.27
325.206	0.21
325.417	0.2
325.628	0.19
325.838	0.22
326.049	0.22
326.26	0.22
326.471	0.13
326.682	0.24
326.892	0.24
327.103	0.13
327.314	0.2
327.525	0.28
327.735	0.24
327.946	0.18
328.157	0.19
328.368	0.25
328.578	0.23
328.789	0.27
328.999	0.24
329.21	0.18
329.421	0.29
329.631	0.2
329.842	0.17
330.052	0.24
330.263	0.26
330.473	0.26
330.684	0.21
330.894	0.22
331.105	0.21
331.315	0.22
331.526	0.17
331.736	0.33
331.947	0.26
332.157	0.26
332.367	0.12
332.578	0.23
332.788	0.32
332.999	0.24
333.209	0.22
333.419	0.16
333.629	0.25
333.84	0.27
334.05	0.24
334.26	0.3
334.47	0.22
334.681	0.32
334.891	0.22
335.101	0.27
335.311	0.3
335.521	0.24
335.732	0.19
335.942	0.29
336.152	0.26
336.362	0.22
336.572	0.24
336.782	0.28
336.992	0.21
337.202	0.25
337.412	0.2
337.622	0.26
337.832	0.24
338.042	0.22
338.252	0.19
338.462	0.21
338.672	0.25
338.882	0.18
339.092	0.18
339.302	0.29
339.511	0.28
339.721	0.22
339.931	0.18
340.141	0.31
340.351	0.24
340.561	0.19
340.77	0.23
340.98	0.22
341.19	0.28
341.4	0.19
341.609	0.13
341.819	0.22
342.029	0.17
342.238	0.23
342.448	0.18
342.658	0.24
342.867	0.21
343.077	0.23
343.286	0.21
343.496	0.22
343.706	0.31
343.915	0.18
344.125	0.19
344.334	0.26
344.544	0.21
344.753	0.22
344.963	0.19
345.172	0.17
345.381	0.19
345.591	0.21
345.8	0.22
346.01	0.27
346.219	0.24
346.428	0.13
346.638	0.23
346.847	0.19
347.056	0.29
347.266	0.17
347.475	0.2
347.684	0.25
347.893	0.27
348.103	0.3
348.312	0.18
348.521	0.27
348.73	0.22
348.94	0.24
349.149	0.21
349.358	0.19
349.567	0.22
349.776	0.13
349.985	0.2
350.194	0.26
350.403	0.29
350.612	0.14
350.821	0.19
351.03	0.25
351.239	0.12
351.448	0.25
351.657	0.17
351.866	0.33
352.075	0.22
352.284	0.2
352.493	0.17
352.702	0.32
352.911	0.22
353.12	0.23
353.329	0.19
353.538	0.27
353.746	0.25
353.955	0.18
354.164	0.24
354.373	0.23
354.582	0.27
354.79	0.2
354.999	0.26
355.208	0.24
355.416	0.3
355.625	0.21
355.834	0.23
356.042	0.25
356.251	0.22
356.46	0.18
356.668	0.23
356.877	0.3
357.085	0.26
357.294	0.11
357.503	0.28
357.711	0.2
357.92	0.37
358.128	0.22
358.337	0.22
358.545	0.26
358.754	0.21
358.962	0.25
359.17	0.2
359.379	0.24
359.587	0.23
359.796	0.22
360.004	0.26
360.212	0.25
360.421	0.31
360.629	0.24
360.837	0.22
361.046	0.28
361.254	0.32
361.462	0.23
361.67	0.16
361.879	0.25
362.087	0.31
362.295	0.21
362.503	0.24
362.711	0.17
362.92	0.22
363.128	0.19
363.336	0.18
363.544	0.17
363.752	0.2
363.96	0.17
364.168	0.17
364.376	0.21
364.584	0.24
364.792	0.24
365	0.22
365.208	0.2
365.416	0.24
365.624	0.27
365.832	0.2
366.04	0.29
366.248	0.2
366.456	0.23
366.664	0.21
366.872	0.24
367.079	0.26
367.287	0.26
367.495	0.25
367.703	0.2
367.911	0.23
368.118	0.21
368.326	0.21
368.534	0.18
368.742	0.29
368.949	0.19
369.157	0.17
369.365	0.24
369.572	0.2
369.78	0.17
369.988	0.26
370.195	0.24
370.403	0.29
370.61	0.15
370.818	0.24
371.026	0.29
371.233	0.18
371.441	0.23
371.648	0.2
371.856	0.24
372.063	0.26
372.271	0.16
372.478	0.2
372.685	0.21
372.893	0.26
373.1	0.26
373.308	0.22
373.515	0.34
373.722	0.28
373.93	0.19
374.137	0.25
374.344	0.31
374.552	0.25
374.759	0.24
374.966	0.2
375.173	0.23
375.381	0.31
375.588	0.17
375.795	0.19
376.002	0.23
376.209	0.2
376.417	0.24
376.624	0.23
376.831	0.26
377.038	0.22
377.245	0.14
377.452	0.24
377.659	0.24
377.866	0.2
378.073	0.23
378.28	0.23
378.487	0.32
378.694	0.29
378.901	0.24
379.108	0.18
379.315	0.3
379.522	0.33
379.729	0.26
379.936	0.22
380.143	0.26
380.35	0.29
380.557	0.26
380.763	0.22
380.97	0.23
381.177	0.22
381.384	0.3
381.591	0.22
381.797	0.23
382.004	0.26
382.211	0.27
382.418	0.19
382.624	0.28
382.831	0.31
383.038	0.22
383.244	0.25
383.451	0.23
383.658	0.26
383.864	0.2
384.071	0.21
384.277	0.35
384.484	0.23
384.69	0.3
384.897	0.27
385.103	0.22
385.31	0.23
385.516	0.22
385.723	0.19
385.929	0.25
386.136	0.23
386.342	0.26
386.549	0.24
386.755	0.24
386.961	0.31
387.168	0.21
387.374	0.26
387.58	0.32
387.787	0.23
387.993	0.27
388.199	0.25
388.406	0.18
388.612	0.26
388.818	0.2
389.024	0.21
389.231	0.27
389.437	0.38
389.643	0.31
389.849	0.29
390.055	0.25
390.261	0.28
390.467	0.31
390.674	0.25
390.88	0.27
391.086	0.33
391.292	0.19
391.498	0.33
391.704	0.29
391.91	0.24
392.116	0.22
392.322	0.14
392.528	0.3
392.734	0.27
392.94	0.23
393.146	0.2
393.352	0.28
393.557	0.27
393.763	0.3
393.969	0.34
394.175	0.26
394.381	0.26
394.587	0.24
394.792	0.26
394.998	0.31
395.204	0.36
395.41	0.28
395.615	0.28
395.821	0.33
396.027	0.33
396.233	0.26
396.438	0.31
396.644	0.36
396.85	0.32
397.055	0.32
397.261	0.28
397.466	0.41
397.672	0.34
397.878	0.33
398.083	0.33
398.289	0.28
398.494	0.39
398.7	0.38
398.905	0.22
399.111	0.44
399.316	0.27
399.522	0.3
399.727	0.3
399.932	0.3
400.138	0.29
400.343	0.32
400.549	0.33
400.754	0.32
400.959	0.34
401.165	0.31
401.37	0.34
401.575	0.41
401.78	0.36
401.986	0.29
402.191	0.31
402.396	0.32
402.601	0.39
402.807	0.31
403.012	0.34
403.217	0.41
403.422	0.38
403.627	0.4
403.832	0.33
404.037	0.45
404.243	0.35
404.448	0.37
404.653	0.36
404.858	0.41
405.063	0.41
405.268	0.41
405.473	0.3
405.678	0.39
405.883	0.58
406.088	0.44
406.293	0.38
406.498	0.36
406.703	0.5
406.907	0.42
407.112	0.35
407.317	0.49
407.522	0.55
407.727	0.39
407.932	0.49
408.136	0.58
408.341	0.46
408.546	0.53
408.751	0.49
408.956	0.52
409.16	0.58
409.365	0.57
409.57	0.58
409.774	0.54
409.979	0.65
410.184	0.58
410.388	0.6
410.593	0.66
410.798	0.61
411.002	0.64
411.207	0.75
411.411	0.71
411.616	0.7
411.82	0.73
412.025	0.78
412.229	0.76
412.434	0.85
412.638	0.83
412.843	0.81
413.047	0.88
413.252	0.85
413.456	0.9
413.66	0.95
413.865	0.9
414.069	1.06
414.273	1.02
414.478	0.98
414.682	1.05
414.886	1.01
415.091	1.03
415.295	1.02
415.499	1.2
415.703	1.16
415.908	1.25
416.112	1.19
416.316	1.41
416.52	1.31
416.724	1.33
416.929	1.39
417.133	1.67
417.337	1.45
417.541	1.57
417.745	1.6
417.949	1.72
418.153	1.76
418.357	1.71
418.561	1.99
418.765	1.88
418.969	2.07
419.173	2.13
419.377	2.1
419.581	2.25
419.785	2.25
419.989	2.24
420.193	2.45
420.397	2.49
420.601	2.64
420.804	2.72
421.008	2.74
421.212	2.81
421.416	2.85
421.62	2.83
421.823	3.02
422.027	3.09
422.231	3.04
422.435	3.05
422.638	3.02
422.842	3.22
423.046	3.31
423.249	3.52
423.453	3.36
423.657	3.64
423.86	3.63
424.064	3.79
424.268	3.88
424.471	3.93
424.675	4.12
424.878	4.18
425.082	4.23
425.285	4.51
425.489	4.41
425.692	4.55
425.896	4.52
426.099	4.74
426.303	4.9
426.506	5.09
426.71	5.28
426.913	5.41
427.116	5.59
427.32	5.48
427.523	5.6
427.726	5.96
427.93	5.93
428.133	6.24
428.336	6.38
428.54	6.46
428.743	6.73
428.946	6.94
429.149	6.93
429.353	7.02
429.556	7.06
429.759	7.14
429.962	7.26
430.165	7.43
430.368	7.03
430.571	7.1
430.775	7.13
430.978	7.17
431.181	7.2
431.384	7.3
431.587	7.4
431.79	7.7
431.993	7.74
432.196	7.95
432.399	8.3
432.602	8.39
432.805	8.48
433.008	8.92
433.211	8.77
433.414	9.16
433.616	9.23
433.819	9.1
434.022	9.29
434.225	9.55
434.428	9.44
434.631	9.88
434.833	9.7
435.036	10
435.239	10.07
435.442	10.11
435.645	10.32
435.847	10.26
436.05	10.67
436.253	10.84
436.455	10.84
436.658	10.75
436.861	11.16
437.063	11.23
437.266	11.2
437.468	11.39
437.671	11.81
437.874	11.83
438.076	11.64
438.279	12.12
438.481	12.11
438.684	12.83
438.886	12.38
439.089	12.66
439.291	12.69
439.494	13.09
439.696	13.24
439.899	13.69
440.101	14.12
440.303	14.14
440.506	14.97
440.708	14.73
440.91	14.81
441.113	14.97
441.315	15.3
441.517	15.08
441.72	15.55
441.922	15.26
442.124	15.29
442.326	15.55
442.529	15.75
442.731	15.7
442.933	16
443.135	15.78
443.337	15.79
443.539	16.49
443.742	16.09
443.944	16.55
444.146	16.27
444.348	16.5
444.55	16.34
444.752	16.49
444.954	16.39
445.156	16.51
445.358	16.86
445.56	17.21
445.762	16.82
445.964	17.2
446.166	16.98
446.368	17.05
446.57	17.05
446.772	16.73
446.974	16.43
447.175	16.82
447.377	16.7
447.579	16.96
447.781	16.68
447.983	16.38
448.184	16.12
448.386	16.4
448.588	15.99
448.79	15.87
448.991	16.24
449.193	16.23
449.395	15.66
449.597	15.29
449.798	15.31
450	14.94
450.202	14.89
450.403	14.73
450.605	14.71
450.806	14.44
451.008	14.21
451.21	14.04
451.411	13.7
451.613	12.86
451.814	13.2
452.016	13.1
452.217	12.58
452.419	12.46
452.62	12.24
452.821	12.07
453.023	11.94
453.224	11.66
453.426	11.19
453.627	10.5
453.828	10.7
454.03	10.67
454.231	10.6
454.432	10.45
454.634	10.31
454.835	9.96
455.036	9.91
455.238	9.52
455.439	9.26
455.64	9
455.841	8.93
456.042	9.05
456.244	8.71
456.445	8.48
456.646	8.07
456.847	8.05
457.048	8.07
457.249	7.99
457.45	7.92
457.651	7.26
457.852	7.26
458.054	6.94
458.255	6.81
458.456	6.95
458.657	6.79
458.858	6.35
459.058	6.41
459.259	6.43
459.46	6.14
459.661	6.08
459.862	6.11
460.063	5.99
460.264	5.97
460.465	5.61
460.666	5.76
460.866	5.42
461.067	5.2
461.268	5.25
461.469	5.15
461.67	5.13
461.87	5.05
462.071	4.88
462.272	4.86
462.473	4.75
462.673	5
462.874	4.91
463.075	4.84
463.275	4.89
463.476	4.96
463.676	4.88
463.877	4.68
464.078	4.69
464.278	4.69
464.479	4.61
464.679	4.47
464.88	4.49
465.08	4.46
465.281	4.27
465.481	4.05
465.682	3.91
465.882	3.95
466.083	3.89
466.283	3.83
466.483	3.63
466.684	3.5
466.884	3.44
467.085	3.47
467.285	3.53
467.485	3.42
467.686	3.39
467.886	3.25
468.086	3.26
468.286	3.22
468.487	3.26
468.687	3.09
468.887	3.03
469.087	3.2
469.287	3.13
469.488	2.92
469.688	3.04
469.888	3.03
470.088	2.97
470.288	2.87
470.488	2.81
470.688	2.7
470.888	2.69
471.088	2.59
471.288	2.68
471.488	2.59
471.688	2.63
471.888	2.54
472.088	2.69
472.288	2.59
472.488	2.4
472.688	2.41
472.888	2.46
473.088	2.47
473.288	2.36
473.488	2.31
473.688	2.47
473.887	2.3
474.087	2.3
474.287	2.34
474.487	2.23
474.687	2.27
474.886	2.23
475.086	2.18
475.286	2.14
475.486	2.17
475.685	2.15
475.885	2.06
476.085	2.11
476.284	2.18
476.484	2.13
476.684	2.1
476.883	2.17
477.083	2.07
477.282	2
477.482	2.09
477.681	2.04
477.881	1.95
478.08	2
478.28	1.86
478.479	1.99
478.679	2.05
478.878	1.91
479.078	1.94
479.277	1.93
479.477	1.86
479.676	1.87
479.875	1.86
480.075	1.86
480.274	1.93
480.473	1.95
480.673	1.9
480.872	1.98
481.071	1.91
481.271	1.94
481.47	1.89
481.669	1.88
481.868	1.83
482.067	1.87
482.267	1.79
482.466	1.77
482.665	1.82
482.864	1.81
483.063	1.83
483.262	1.91
483.461	1.92
483.661	1.96
483.86	1.87
484.059	1.93
484.258	1.91
484.457	1.86
484.656	1.91
484.855	1.95
485.054	1.77
485.253	1.84
485.452	1.86
485.651	1.91
485.849	1.84
486.048	1.87
486.247	1.89
486.446	1.96
486.645	1.86
486.844	1.94
487.043	1.91
487.241	1.95
487.44	1.94
487.639	1.98
487.838	1.99
488.037	1.98
488.235	2.07
488.434	2.03
488.633	1.89
488.831	2.04
489.03	2.08
489.229	2.07
489.427	2.03
489.626	2.09
489.825	2.14
490.023	2.13
490.222	2.14
490.42	2.16
490.619	2.18
490.817	2.18
491.016	2.18
491.214	2.24
491.413	2.27
491.611	2.22
491.81	2.23
492.008	2.27
492.207	2.34
492.405	2.36
492.604	2.3
492.802	2.39
493	2.41
493.199	2.44
493.397	2.45
493.595	2.49
493.794	2.44
493.992	2.58
494.19	2.53
494.388	2.61
494.587	2.53
494.785	2.58
494.983	2.53
495.181	2.64
495.379	2.72
495.578	2.7
495.776	2.72
495.974	2.68
496.172	2.73
496.37	2.87
496.568	2.87
496.766	2.81
496.964	2.95
497.162	2.97
497.36	2.95
497.558	3
497.756	3.07
497.954	3.07
498.152	3.12
498.35	3.16
498.548	3.08
498.746	3.12
498.944	3.15
499.142	3.13
499.34	3.25
499.538	3.38
499.736	3.25
499.933	3.38
500.131	3.37
500.329	3.51
500.527	3.46
500.725	3.6
500.922	3.58
501.12	3.54
501.318	3.64
501.516	3.58
501.713	3.73
501.911	3.68
502.109	3.68
502.306	3.78
502.504	3.72
502.701	3.81
502.899	3.83
503.097	4.02
503.294	3.87
