Data from Apollo_Calib_20240827__AbsoluteIrradiance__771__12-00-01-404.txt Node

Date: Wed Aug 28 12:00:01 BST 2024
User: biology
Spectrometer: FLMT08252
Trigger mode: 0
Integration Time (sec): 5.000000E-1
Scans to average: 5
Electric dark correction enabled: true
Nonlinearity correction enabled: false
Boxcar width: 0
XAxis mode: Wavelengths
Number of Pixels in Spectrum: 3648
>>>>>Begin Spectral Data<<<<<
179.588	-0
179.809	-0
180.03	-0
180.251	-0
180.473	-0
180.694	0
180.915	0
181.136	-0
181.357	-0
181.578	-0
181.799	-0
182.02	-0
182.241	-0
182.462	-0
182.683	0
182.904	-0
183.125	-0
183.346	0
183.567	0
183.788	0
184.009	0
184.23	0
184.451	0
184.672	0
184.892	0
185.113	0
185.334	0
185.555	0
185.776	0
185.996	0
186.217	0
186.438	0
186.659	0
186.879	0
187.1	0
187.321	0
187.541	0
187.762	0
187.983	0
188.203	0
188.424	0
188.644	0
188.865	0
189.086	0
189.306	0
189.527	0
189.747	0
189.968	0
190.188	0
190.409	0
190.629	0
190.849	0
191.07	0
191.29	0
191.511	0
191.731	0
191.951	0
192.172	0
192.392	0
192.612	0
192.833	0
193.053	0
193.273	0
193.493	0
193.714	0
193.934	0
194.154	0
194.374	0
194.594	0
194.815	0
195.035	0
195.255	0
195.475	0
195.695	0
195.915	0
196.135	0
196.355	0
196.575	0
196.795	0
197.015	0
197.235	0
197.455	0
197.675	0
197.895	0
198.115	0
198.335	0
198.555	0
198.775	0
198.995	0
199.214	0
199.434	0
199.654	0
199.874	0
200.094	3.84
200.313	1.82
200.533	2.21
200.753	1.61
200.973	3.2
201.192	3.01
201.412	1.48
201.632	1.62
201.851	3.22
202.071	2.04
202.291	1.55
202.51	1.54
202.73	2.83
202.95	1.78
203.169	1.38
203.389	1.86
203.608	1.84
203.828	1.46
204.047	1.57
204.267	2.49
204.486	1.84
204.706	1.66
204.925	1.7
205.145	1.57
205.364	2.35
205.583	2.85
205.803	1.47
206.022	1.05
206.242	1.63
206.461	1.65
206.68	1.47
206.9	1.7
207.119	2.46
207.338	2.02
207.557	1.32
207.777	1.12
207.996	1.43
208.215	2
208.434	0.99
208.654	0.62
208.873	1.13
209.092	2.02
209.311	1.36
209.53	1.14
209.749	1.45
209.968	1.04
210.187	0.99
210.407	0.53
210.626	1.09
210.845	1.6
211.064	1.15
211.283	0.89
211.502	1.47
211.721	1.29
211.94	1.09
212.159	1.16
212.377	1.34
212.596	1.46
212.815	1.12
213.034	1.32
213.253	1.59
213.472	1.22
213.691	1.03
213.91	0.62
214.128	0.78
214.347	1.4
214.566	0.66
214.785	0.62
215.003	1.16
215.222	0.87
215.441	0.91
215.66	0.59
215.878	0.98
216.097	1.02
216.316	0.53
216.534	0.69
216.753	1.22
216.972	0.78
217.19	0.94
217.409	0.65
217.627	0.63
217.846	0.85
218.064	0.9
218.283	0.51
218.501	1.31
218.72	1.18
218.938	0.86
219.157	0.85
219.375	1
219.594	0.99
219.812	0.48
220.031	0.46
220.249	1.26
220.467	1.03
220.686	0.56
220.904	0.38
221.122	0.47
221.341	1.29
221.559	0.73
221.777	0.44
221.995	0.79
222.214	0.98
222.432	0.41
222.65	0.63
222.868	0.67
223.086	0.81
223.305	0.79
223.523	0.68
223.741	1.22
223.959	0.55
224.177	0.17
224.395	0.52
224.613	0.66
224.831	0.85
225.049	0.51
225.267	0.51
225.485	0.74
225.703	0.59
225.921	0.51
226.139	0.58
226.357	0.89
226.575	0.75
226.793	0.53
227.011	1.5
227.229	0.74
227.447	0.86
227.665	0.53
227.883	0.34
228.1	0.65
228.318	0.71
228.536	0.3
228.754	0.39
228.972	0.8
229.189	0.82
229.407	0.6
229.625	0.55
229.843	0.95
230.06	0.68
230.278	0.57
230.496	0.55
230.713	0.62
230.931	0.8
231.149	0.41
231.366	0.31
231.584	0.52
231.801	1.01
232.019	0.52
232.236	0.35
232.454	0.37
232.671	0.61
232.889	0.46
233.106	0.39
233.324	0.61
233.541	0.54
233.759	0.6
233.976	0.41
234.194	0.49
234.411	0.57
234.628	0.4
234.846	0.51
235.063	0.55
235.28	0.55
235.498	0.48
235.715	0.34
235.932	0.84
236.149	0.47
236.367	0.43
236.584	0.56
236.801	0.53
237.018	0.77
237.236	0.42
237.453	0.26
237.67	0.67
237.887	0.46
238.104	0.45
238.321	0.29
238.538	0.37
238.755	0.64
238.973	0.34
239.19	0.4
239.407	0.53
239.624	0.65
239.841	0.3
240.058	0.45
240.275	0.55
240.492	0.51
240.709	0.35
240.925	0.39
241.142	0.55
241.359	0.37
241.576	0.42
241.793	0.27
242.01	0.47
242.227	0.65
242.444	0.55
242.66	0.65
242.877	0.48
243.094	0.48
243.311	0.5
243.527	0.35
243.744	0.53
243.961	0.47
244.178	0.28
244.394	0.36
244.611	0.51
244.828	0.64
245.044	0.34
245.261	0.38
245.477	0.44
245.694	0.46
245.911	0.29
246.127	0.44
246.344	0.76
246.56	0.56
246.777	0.29
246.993	0.34
247.21	0.46
247.426	0.63
247.643	0.35
247.859	0.37
248.076	0.35
248.292	0.64
248.508	0.33
248.725	0.38
248.941	0.49
249.157	0.58
249.374	0.32
249.59	0.42
249.806	0.37
250.023	0.59
250.239	0.29
250.455	0.3
250.671	0.46
250.888	0.46
251.104	0.47
251.32	0.37
251.536	0.41
251.752	0.44
251.969	0.38
252.185	0.41
252.401	0.6
252.617	0.41
252.833	0.42
253.049	0.37
253.265	0.38
253.481	0.36
253.697	0.28
253.913	0.3
254.129	0.46
254.345	0.42
254.561	0.36
254.777	0.28
254.993	0.49
255.209	0.39
255.425	0.31
255.641	0.26
255.857	0.44
256.073	0.48
256.288	0.27
256.504	0.3
256.72	0.4
256.936	0.55
257.152	0.33
257.367	0.29
257.583	0.41
257.799	0.45
258.015	0.34
258.23	0.28
258.446	0.52
258.662	0.35
258.877	0.32
259.093	0.25
259.309	0.38
259.524	0.35
259.74	0.27
259.955	0.23
260.171	0.34
260.387	0.35
260.602	0.4
260.818	0.42
261.033	0.25
261.249	0.37
261.464	0.38
261.68	0.19
261.895	0.36
262.11	0.48
262.326	0.33
262.541	0.13
262.757	0.57
262.972	0.46
263.187	0.38
263.403	0.33
263.618	0.43
263.833	0.34
264.049	0.28
264.264	0.38
264.479	0.38
264.694	0.5
264.91	0.25
265.125	0.29
265.34	0.44
265.555	0.55
265.77	0.36
265.986	0.32
266.201	0.34
266.416	0.42
266.631	0.31
266.846	0.28
267.061	0.44
267.276	0.4
267.491	0.18
267.706	0.43
267.921	0.41
268.136	0.37
268.351	0.3
268.566	0.28
268.781	0.44
268.996	0.44
269.211	0.24
269.426	0.19
269.641	0.31
269.856	0.42
270.071	0.3
270.285	0.11
270.5	0.39
270.715	0.39
270.93	0.28
271.145	0.42
271.359	0.29
271.574	0.33
271.789	0.32
272.004	0.3
272.218	0.32
272.433	0.33
272.648	0.24
272.862	0.41
273.077	0.38
273.292	0.32
273.506	0.21
273.721	0.28
273.936	0.38
274.15	0.44
274.365	0.22
274.579	0.37
274.794	0.39
275.008	0.39
275.223	0.2
275.437	0.32
275.652	0.42
275.866	0.4
276.081	0.23
276.295	0.39
276.509	0.35
276.724	0.31
276.938	0.31
277.153	0.33
277.367	0.43
277.581	0.27
277.796	0.31
278.01	0.23
278.224	0.38
278.438	0.47
278.653	0.28
278.867	0.23
279.081	0.18
279.295	0.23
279.51	0.33
279.724	0.17
279.938	0.41
280.152	0.33
280.366	0.32
280.58	0.35
280.794	0.37
281.008	0.31
281.222	0.33
281.437	0.49
281.651	0.3
281.865	0.38
282.079	0.26
282.293	0.15
282.507	0.23
282.721	0.31
282.935	0.31
283.148	0.22
283.362	0.25
283.576	0.23
283.79	0.28
284.004	0.27
284.218	0.39
284.432	0.21
284.646	0.28
284.859	0.26
285.073	0.28
285.287	0.29
285.501	0.32
285.714	0.26
285.928	0.3
286.142	0.32
286.356	0.29
286.569	0.22
286.783	0.4
286.997	0.35
287.21	0.31
287.424	0.26
287.637	0.25
287.851	0.27
288.065	0.35
288.278	0.26
288.492	0.28
288.705	0.27
288.919	0.35
289.132	0.21
289.346	0.35
289.559	0.19
289.773	0.24
289.986	0.26
290.2	0.22
290.413	0.34
290.626	0.24
290.84	0.23
291.053	0.3
291.267	0.36
291.48	0.27
291.693	0.27
291.906	0.2
292.12	0.27
292.333	0.22
292.546	0.25
292.76	0.37
292.973	0.3
293.186	0.3
293.399	0.21
293.612	0.28
293.826	0.25
294.039	0.27
294.252	0.22
294.465	0.38
294.678	0.31
294.891	0.29
295.104	0.24
295.317	0.22
295.53	0.29
295.743	0.23
295.956	0.21
296.169	0.36
296.382	0.32
296.595	0.26
296.808	0.16
297.021	0.32
297.234	0.26
297.447	0.24
297.66	0.26
297.873	0.38
298.086	0.31
298.299	0.19
298.511	0.18
298.724	0.27
298.937	0.2
299.15	0.19
299.363	0.27
299.575	0.34
299.788	0.33
300.001	0.21
300.213	0.24
300.426	0.24
300.639	0.22
300.852	0.24
301.064	0.28
301.277	0.33
301.489	0.28
301.702	0.28
301.915	0.22
302.127	0.25
302.34	0.3
302.552	0.3
302.765	0.23
302.977	0.26
303.19	0.25
303.402	0.22
303.615	0.23
303.827	0.25
304.04	0.21
304.252	0.32
304.464	0.22
304.677	0.41
304.889	0.33
305.102	0.22
305.314	0.23
305.526	0.28
305.739	0.32
305.951	0.23
306.163	0.22
306.375	0.32
306.588	0.18
306.8	0.22
307.012	0.21
307.224	0.31
307.436	0.37
307.649	0.12
307.861	0.24
308.073	0.33
308.285	0.24
308.497	0.19
308.709	0.21
308.921	0.24
309.133	0.31
309.346	0.21
309.558	0.25
309.77	0.3
309.982	0.3
310.194	0.33
310.406	0.2
310.617	0.36
310.829	0.23
311.041	0.29
311.253	0.2
311.465	0.23
311.677	0.27
311.889	0.24
312.101	0.2
312.313	0.33
312.524	0.32
312.736	0.21
312.948	0.24
313.16	0.33
313.372	0.3
313.583	0.28
313.795	0.2
314.007	0.25
314.218	0.31
314.43	0.26
314.642	0.25
314.853	0.24
315.065	0.31
315.277	0.23
315.488	0.26
315.7	0.3
315.912	0.27
316.123	0.23
316.335	0.24
316.546	0.34
316.758	0.22
316.969	0.21
317.181	0.22
317.392	0.23
317.604	0.32
317.815	0.2
318.026	0.24
318.238	0.26
318.449	0.28
318.661	0.15
318.872	0.19
319.083	0.25
319.295	0.31
319.506	0.23
319.717	0.23
319.929	0.3
320.14	0.28
320.351	0.26
320.562	0.19
320.774	0.29
320.985	0.25
321.196	0.17
321.407	0.16
321.618	0.29
321.829	0.28
322.041	0.3
322.252	0.22
322.463	0.28
322.674	0.28
322.885	0.2
323.096	0.25
323.307	0.26
323.518	0.31
323.729	0.21
323.94	0.23
324.151	0.27
324.362	0.27
324.573	0.25
324.784	0.23
324.995	0.3
325.206	0.25
325.417	0.22
325.628	0.23
325.838	0.24
326.049	0.3
326.26	0.3
326.471	0.25
326.682	0.3
326.892	0.23
327.103	0.2
327.314	0.2
327.525	0.33
327.735	0.29
327.946	0.25
328.157	0.2
328.368	0.33
328.578	0.22
328.789	0.34
328.999	0.27
329.21	0.22
329.421	0.31
329.631	0.25
329.842	0.19
330.052	0.28
330.263	0.26
330.473	0.29
330.684	0.23
330.894	0.26
331.105	0.25
331.315	0.22
331.526	0.17
331.736	0.35
331.947	0.3
332.157	0.26
332.367	0.19
332.578	0.29
332.788	0.33
332.999	0.27
333.209	0.25
333.419	0.18
333.629	0.26
333.84	0.28
334.05	0.22
334.26	0.33
334.47	0.26
334.681	0.28
334.891	0.23
335.101	0.27
335.311	0.36
335.521	0.22
335.732	0.2
335.942	0.32
336.152	0.27
336.362	0.29
336.572	0.25
336.782	0.3
336.992	0.2
337.202	0.23
337.412	0.22
337.622	0.3
337.832	0.22
338.042	0.24
338.252	0.22
338.462	0.22
338.672	0.21
338.882	0.23
339.092	0.25
339.302	0.36
339.511	0.25
339.721	0.21
339.931	0.16
340.141	0.35
340.351	0.3
340.561	0.29
340.77	0.23
340.98	0.27
341.19	0.31
341.4	0.23
341.609	0.2
341.819	0.25
342.029	0.2
342.238	0.25
342.448	0.21
342.658	0.24
342.867	0.24
343.077	0.23
343.286	0.22
343.496	0.28
343.706	0.29
343.915	0.17
344.125	0.23
344.334	0.24
344.544	0.18
344.753	0.2
344.963	0.22
345.172	0.2
345.381	0.19
345.591	0.13
345.8	0.2
346.01	0.33
346.219	0.25
346.428	0.16
346.638	0.25
346.847	0.25
347.056	0.3
347.266	0.18
347.475	0.23
347.684	0.29
347.893	0.26
348.103	0.31
348.312	0.21
348.521	0.26
348.73	0.24
348.94	0.28
349.149	0.18
349.358	0.26
349.567	0.24
349.776	0.23
349.985	0.2
350.194	0.28
350.403	0.3
350.612	0.17
350.821	0.22
351.03	0.25
351.239	0.2
351.448	0.24
351.657	0.23
351.866	0.32
352.075	0.28
352.284	0.21
352.493	0.13
352.702	0.28
352.911	0.26
353.12	0.22
353.329	0.22
353.538	0.29
353.746	0.25
353.955	0.18
354.164	0.26
354.373	0.22
354.582	0.26
354.79	0.24
354.999	0.27
355.208	0.29
355.416	0.31
355.625	0.19
355.834	0.24
356.042	0.27
356.251	0.22
356.46	0.18
356.668	0.27
356.877	0.31
357.085	0.27
357.294	0.12
357.503	0.24
357.711	0.27
357.92	0.38
358.128	0.24
358.337	0.22
358.545	0.27
358.754	0.22
358.962	0.24
359.17	0.21
359.379	0.26
359.587	0.3
359.796	0.22
360.004	0.3
360.212	0.27
360.421	0.3
360.629	0.23
360.837	0.23
361.046	0.3
361.254	0.36
361.462	0.29
361.67	0.23
361.879	0.27
362.087	0.32
362.295	0.25
362.503	0.24
362.711	0.17
362.92	0.22
363.128	0.2
363.336	0.18
363.544	0.17
363.752	0.25
363.96	0.23
364.168	0.18
364.376	0.23
364.584	0.25
364.792	0.28
365	0.25
365.208	0.29
365.416	0.22
365.624	0.3
365.832	0.22
366.04	0.31
366.248	0.23
366.456	0.23
366.664	0.25
366.872	0.21
367.079	0.26
367.287	0.24
367.495	0.25
367.703	0.27
367.911	0.24
368.118	0.23
368.326	0.26
368.534	0.2
368.742	0.32
368.949	0.2
369.157	0.21
369.365	0.29
369.572	0.18
369.78	0.18
369.988	0.28
370.195	0.28
370.403	0.31
370.61	0.2
370.818	0.22
371.026	0.31
371.233	0.2
371.441	0.27
371.648	0.21
371.856	0.27
372.063	0.26
372.271	0.21
372.478	0.24
372.685	0.22
372.893	0.27
373.1	0.24
373.308	0.22
373.515	0.34
373.722	0.32
373.93	0.23
374.137	0.27
374.344	0.32
374.552	0.27
374.759	0.27
374.966	0.24
375.173	0.22
375.381	0.29
375.588	0.23
375.795	0.2
376.002	0.23
376.209	0.21
376.417	0.25
376.624	0.32
376.831	0.25
377.038	0.21
377.245	0.14
377.452	0.26
377.659	0.25
377.866	0.25
378.073	0.27
378.28	0.26
378.487	0.33
378.694	0.32
378.901	0.22
379.108	0.23
379.315	0.31
379.522	0.37
379.729	0.27
379.936	0.25
380.143	0.28
380.35	0.3
380.557	0.2
380.763	0.26
380.97	0.28
381.177	0.32
381.384	0.3
381.591	0.28
381.797	0.24
382.004	0.3
382.211	0.31
382.418	0.21
382.624	0.31
382.831	0.34
383.038	0.22
383.244	0.28
383.451	0.26
383.658	0.32
383.864	0.25
384.071	0.22
384.277	0.34
384.484	0.23
384.69	0.31
384.897	0.23
385.103	0.27
385.31	0.23
385.516	0.24
385.723	0.2
385.929	0.26
386.136	0.28
386.342	0.29
386.549	0.27
386.755	0.35
386.961	0.37
387.168	0.24
387.374	0.27
387.58	0.34
387.787	0.3
387.993	0.28
388.199	0.26
388.406	0.24
388.612	0.32
388.818	0.26
389.024	0.24
389.231	0.25
389.437	0.31
389.643	0.33
389.849	0.25
390.055	0.27
390.261	0.3
390.467	0.32
390.674	0.22
390.88	0.25
391.086	0.35
391.292	0.19
391.498	0.36
391.704	0.26
391.91	0.26
392.116	0.25
392.322	0.16
392.528	0.34
392.734	0.26
392.94	0.31
393.146	0.31
393.352	0.33
393.557	0.35
393.763	0.24
393.969	0.34
394.175	0.25
394.381	0.35
394.587	0.23
394.792	0.31
394.998	0.37
395.204	0.37
395.41	0.29
395.615	0.34
395.821	0.33
396.027	0.35
396.233	0.29
396.438	0.31
396.644	0.33
396.85	0.34
397.055	0.34
397.261	0.32
397.466	0.36
397.672	0.34
397.878	0.36
398.083	0.37
398.289	0.31
398.494	0.39
398.7	0.41
398.905	0.26
399.111	0.46
399.316	0.27
399.522	0.28
399.727	0.29
399.932	0.31
400.138	0.26
400.343	0.33
400.549	0.31
400.754	0.36
400.959	0.35
401.165	0.34
401.37	0.33
401.575	0.47
401.78	0.36
401.986	0.35
402.191	0.39
402.396	0.35
402.601	0.36
402.807	0.43
403.012	0.38
403.217	0.49
403.422	0.4
403.627	0.38
403.832	0.37
404.037	0.4
404.243	0.41
404.448	0.35
404.653	0.43
404.858	0.44
405.063	0.44
405.268	0.4
405.473	0.38
405.678	0.39
405.883	0.63
406.088	0.51
406.293	0.42
406.498	0.45
406.703	0.52
406.907	0.46
407.112	0.45
407.317	0.51
407.522	0.56
407.727	0.43
407.932	0.47
408.136	0.64
408.341	0.51
408.546	0.59
408.751	0.56
408.956	0.6
409.16	0.68
409.365	0.59
409.57	0.59
409.774	0.6
409.979	0.68
410.184	0.64
410.388	0.62
410.593	0.77
410.798	0.71
411.002	0.72
411.207	0.78
411.411	0.79
411.616	0.7
411.82	0.82
412.025	0.86
412.229	0.83
412.434	0.95
412.638	0.93
412.843	0.9
413.047	0.96
413.252	0.92
413.456	1.01
413.66	1.02
413.865	1.03
414.069	1.13
414.273	1.1
414.478	1.09
414.682	1.16
414.886	1.19
415.091	1.12
415.295	1.2
415.499	1.37
415.703	1.33
415.908	1.43
416.112	1.38
416.316	1.53
416.52	1.49
416.724	1.46
416.929	1.58
417.133	1.85
417.337	1.65
417.541	1.74
417.745	1.8
417.949	1.94
418.153	1.96
418.357	1.97
418.561	2.18
418.765	2.14
418.969	2.32
419.173	2.37
419.377	2.32
419.581	2.59
419.785	2.56
419.989	2.54
420.193	2.8
420.397	2.77
420.601	2.96
420.804	2.98
421.008	3.06
421.212	3.22
421.416	3.12
421.62	3.12
421.823	3.29
422.027	3.45
422.231	3.41
422.435	3.4
422.638	3.49
422.842	3.58
423.046	3.63
423.249	3.89
423.453	3.81
423.657	4.05
423.86	4.09
424.064	4.23
424.268	4.27
424.471	4.34
424.675	4.59
424.878	4.73
425.082	4.76
425.285	5.11
425.489	4.99
425.692	5.15
425.896	5.16
426.099	5.36
426.303	5.48
426.506	5.61
426.71	5.82
426.913	6.08
427.116	6.19
427.32	6.2
427.523	6.19
427.726	6.61
427.93	6.66
428.133	6.99
428.336	7.04
428.54	7.27
428.743	7.56
428.946	7.76
429.149	7.78
429.353	7.72
429.556	7.91
429.759	7.81
429.962	8.01
430.165	8.16
430.368	7.73
430.571	7.9
430.775	8.05
430.978	7.97
431.181	8.04
431.384	8.07
431.587	8.16
431.79	8.62
431.993	8.54
432.196	8.82
432.399	9.13
432.602	9.32
432.805	9.41
433.008	9.91
433.211	9.82
433.414	10.21
433.616	10.17
433.819	10.12
434.022	10.2
434.225	10.48
434.428	10.5
434.631	10.95
434.833	10.72
435.036	10.92
435.239	11.03
435.442	11.24
435.645	11.4
435.847	11.49
436.05	11.76
436.253	11.91
436.455	11.97
436.658	11.96
436.861	12.14
437.063	12.28
437.266	12.29
437.468	12.58
437.671	12.94
437.874	12.9
438.076	12.81
438.279	13.31
438.481	13.35
438.684	14.13
438.886	13.67
439.089	13.92
439.291	13.95
439.494	14.27
439.696	14.55
439.899	15.08
440.101	15.51
440.303	15.71
440.506	16.39
440.708	16.1
440.91	16.46
441.113	16.61
441.315	16.74
441.517	16.56
441.72	17.08
441.922	16.71
442.124	16.54
442.326	16.99
442.529	17.2
442.731	17.21
442.933	17.53
443.135	17.2
443.337	17.38
443.539	17.81
443.742	17.52
443.944	18.07
444.146	17.97
444.348	18
444.55	17.79
444.752	17.94
444.954	18
445.156	17.78
445.358	18.29
445.56	18.61
445.762	18.34
445.964	18.75
446.166	18.59
446.368	18.53
446.57	18.3
446.772	17.98
446.974	17.85
447.175	18.15
447.377	17.83
447.579	18.22
447.781	17.93
447.983	17.73
448.184	17.35
448.386	17.73
448.588	17.2
448.79	17.24
448.991	17.36
449.193	17.34
449.395	16.72
449.597	16.43
449.798	16.37
450	15.97
450.202	15.88
450.403	15.94
450.605	15.8
450.806	15.44
451.008	15.22
451.21	15.05
451.411	14.75
451.613	13.83
451.814	14.14
452.016	14.03
452.217	13.36
452.419	13.34
452.62	13.1
452.821	12.87
453.023	12.74
453.224	12.3
453.426	12.04
453.627	11.26
453.828	11.39
454.03	11.43
454.231	11.32
454.432	11.19
454.634	10.93
454.835	10.65
455.036	10.6
455.238	10.16
455.439	9.94
455.64	9.71
455.841	9.49
456.042	9.61
456.244	9.35
456.445	9.11
456.646	8.71
456.847	8.67
457.048	8.49
457.249	8.61
457.45	8.35
457.651	7.88
457.852	7.78
458.054	7.3
458.255	7.36
458.456	7.38
458.657	7.28
458.858	6.78
459.058	6.82
459.259	6.75
459.46	6.52
459.661	6.45
459.862	6.55
460.063	6.38
460.264	6.32
460.465	6.04
460.666	6.15
460.866	5.8
461.067	5.62
461.268	5.68
461.469	5.42
461.67	5.39
461.87	5.34
462.071	5.23
462.272	5.21
462.473	5.09
462.673	5.36
462.874	5.2
463.075	5.16
463.275	5.06
463.476	5.3
463.676	5.17
463.877	4.99
464.078	5
464.278	5
464.479	5.02
464.679	4.85
464.88	4.72
465.08	4.73
465.281	4.47
465.481	4.32
465.682	4.21
465.882	4.22
466.083	4.16
466.283	4.05
466.483	3.98
466.684	3.72
466.884	3.67
467.085	3.7
467.285	3.76
467.485	3.72
467.686	3.5
467.886	3.42
468.086	3.49
468.286	3.33
468.487	3.49
468.687	3.27
468.887	3.25
469.087	3.38
469.287	3.27
469.488	3.14
469.688	3.21
469.888	3.23
470.088	3.18
470.288	3.11
470.488	3.01
470.688	2.93
470.888	2.9
471.088	2.68
471.288	2.83
471.488	2.78
471.688	2.78
471.888	2.73
472.088	2.8
472.288	2.77
472.488	2.65
472.688	2.61
472.888	2.63
473.088	2.66
473.288	2.55
473.488	2.44
473.688	2.7
473.887	2.53
474.087	2.47
474.287	2.45
474.487	2.43
474.687	2.43
474.886	2.46
475.086	2.35
475.286	2.4
475.486	2.34
475.685	2.26
475.885	2.22
476.085	2.34
476.284	2.31
476.484	2.27
476.684	2.23
476.883	2.31
477.083	2.19
477.282	2.09
477.482	2.3
477.681	2.17
477.881	2.12
478.08	2.1
478.28	2.03
478.479	2.09
478.679	2.16
478.878	2.04
479.078	2.08
479.277	2.08
479.477	2.1
479.676	2.04
479.875	2.02
480.075	1.97
480.274	2.05
480.473	2.12
480.673	2
480.872	2.1
481.071	2.07
481.271	2.07
481.47	2
481.669	2.05
481.868	1.96
482.067	1.99
482.267	1.91
482.466	1.98
482.665	1.93
482.864	1.92
483.063	1.96
483.262	2.04
483.461	2.06
483.661	2.08
483.86	2.03
484.059	2.08
484.258	2.04
484.457	2.07
484.656	2
484.855	2.09
485.054	1.93
485.253	2
485.452	1.95
485.651	2.08
485.849	2.05
486.048	2.02
486.247	2.03
486.446	2.12
486.645	2.03
486.844	2.09
487.043	2.06
487.241	2.1
487.44	2.11
487.639	2.16
487.838	2.15
488.037	2.12
488.235	2.23
488.434	2.18
488.633	2.07
488.831	2.25
489.03	2.23
489.229	2.25
489.427	2.21
489.626	2.24
489.825	2.3
490.023	2.32
490.222	2.3
490.42	2.33
490.619	2.34
490.817	2.36
491.016	2.34
491.214	2.39
491.413	2.39
491.611	2.34
491.81	2.39
492.008	2.47
492.207	2.53
492.405	2.57
492.604	2.48
492.802	2.58
493	2.59
493.199	2.63
493.397	2.63
493.595	2.7
493.794	2.65
493.992	2.77
494.19	2.7
494.388	2.82
494.587	2.77
494.785	2.8
494.983	2.75
495.181	2.87
495.379	2.91
495.578	2.98
495.776	2.98
495.974	2.94
496.172	2.97
496.37	3.08
496.568	3.1
496.766	3.06
496.964	3.14
497.162	3.15
497.36	3.2
497.558	3.23
497.756	3.31
497.954	3.28
498.152	3.34
498.35	3.44
498.548	3.41
498.746	3.37
498.944	3.4
499.142	3.45
499.34	3.49
499.538	3.64
499.736	3.49
499.933	3.65
500.131	3.62
500.329	3.76
500.527	3.78
500.725	3.82
500.922	3.9
501.12	3.83
501.318	3.99
501.516	3.92
501.713	4
501.911	4
502.109	3.95
502.306	4.11
502.504	4.03
502.701	4.11
502.899	4.17
