Data from Apollo_Calib_20240827__AbsoluteIrradiance__855__13-24-01-213.txt Node

Date: Wed Aug 28 13:24:01 BST 2024
User: biology
Spectrometer: FLMT08252
Trigger mode: 0
Integration Time (sec): 5.000000E-1
Scans to average: 5
Electric dark correction enabled: true
Nonlinearity correction enabled: false
Boxcar width: 0
XAxis mode: Wavelengths
Number of Pixels in Spectrum: 3648
>>>>>Begin Spectral Data<<<<<
179.588	-0
179.809	-0
180.03	-0
180.251	-0
180.473	-0
180.694	0
180.915	0
181.136	-0
181.357	0
181.578	-0
181.799	-0
182.02	-0
182.241	-0
182.462	-0
182.683	0
182.904	-0
183.125	0
183.346	0
183.567	0
183.788	0
184.009	0
184.23	0
184.451	0
184.672	0
184.892	0
185.113	0
185.334	0
185.555	0
185.776	0
185.996	0
186.217	0
186.438	0
186.659	0
186.879	0
187.1	0
187.321	0
187.541	0
187.762	0
187.983	0
188.203	0
188.424	0
188.644	0
188.865	0
189.086	0
189.306	0
189.527	0
189.747	0
189.968	0
190.188	0
190.409	0
190.629	0
190.849	0
191.07	0
191.29	0
191.511	0
191.731	0
191.951	0
192.172	0
192.392	0
192.612	0
192.833	0
193.053	0
193.273	0
193.493	0
193.714	0
193.934	0
194.154	0
194.374	0
194.594	0
194.815	0
195.035	0
195.255	0
195.475	0
195.695	0
195.915	0
196.135	0
196.355	0
196.575	0
196.795	0
197.015	0
197.235	0
197.455	0
197.675	0
197.895	0
198.115	0
198.335	0
198.555	0
198.775	0
198.995	0
199.214	0
199.434	0
199.654	0
199.874	0
200.094	3.93
200.313	1.77
200.533	1.86
200.753	1.35
200.973	3.5
201.192	3.21
201.412	0.88
201.632	1.82
201.851	3.31
202.071	1.69
202.291	1.38
202.51	1.6
202.73	2.63
202.95	1.29
203.169	1
203.389	1.72
203.608	1.72
203.828	1.52
204.047	1.46
204.267	2.01
204.486	1.91
204.706	2.22
204.925	1.64
205.145	1.24
205.364	1.82
205.583	2.64
205.803	1.21
206.022	1.26
206.242	1.69
206.461	1.48
206.68	1.15
206.9	1.5
207.119	2.54
207.338	2.31
207.557	1.11
207.777	0.97
207.996	1.46
208.215	2.47
208.434	1.06
208.654	0.62
208.873	1.38
209.092	2.29
209.311	0.84
209.53	0.88
209.749	1.08
209.968	0.82
210.187	0.85
210.407	0.56
210.626	1.15
210.845	1.7
211.064	0.95
211.283	0.55
211.502	1.85
211.721	1.34
211.94	0.72
212.159	1.05
212.377	1.42
212.596	1.49
212.815	1.07
213.034	1.2
213.253	1.38
213.472	1.36
213.691	0.95
213.91	0.81
214.128	0.84
214.347	1.54
214.566	0.27
214.785	0.56
215.003	1.21
215.222	0.98
215.441	0.91
215.66	0.44
215.878	0.93
216.097	1.12
216.316	0.67
216.534	0.85
216.753	1.17
216.972	0.7
217.19	0.85
217.409	0.56
217.627	0.62
217.846	0.78
218.064	0.92
218.283	0.52
218.501	1.38
218.72	1
218.938	0.33
219.157	0.68
219.375	1.09
219.594	0.93
219.812	0.42
220.031	0.69
220.249	1.19
220.467	1.16
220.686	0.41
220.904	0.38
221.122	0.78
221.341	1.07
221.559	0.6
221.777	0.55
221.995	0.75
222.214	0.92
222.432	0.53
222.65	0.76
222.868	0.81
223.086	0.86
223.305	0.89
223.523	0.59
223.741	1.06
223.959	0.67
224.177	0.24
224.395	0.47
224.613	0.71
224.831	1.02
225.049	0.34
225.267	0.62
225.485	0.73
225.703	0.65
225.921	0.47
226.139	0.53
226.357	0.71
226.575	0.95
226.793	0.53
227.011	1.56
227.229	0.83
227.447	0.79
227.665	0.52
227.883	0.33
228.1	0.63
228.318	0.65
228.536	0.15
228.754	0.42
228.972	0.58
229.189	0.82
229.407	0.36
229.625	0.39
229.843	0.9
230.06	0.82
230.278	0.49
230.496	0.59
230.713	0.53
230.931	0.79
231.149	0.41
231.366	0.38
231.584	0.52
231.801	1.03
232.019	0.5
232.236	0.32
232.454	0.43
232.671	0.71
232.889	0.4
233.106	0.45
233.324	0.49
233.541	0.52
233.759	0.52
233.976	0.44
234.194	0.63
234.411	0.57
234.628	0.38
234.846	0.5
235.063	0.57
235.28	0.61
235.498	0.47
235.715	0.29
235.932	0.78
236.149	0.43
236.367	0.4
236.584	0.49
236.801	0.42
237.018	0.7
237.236	0.49
237.453	0.14
237.67	0.72
237.887	0.48
238.104	0.45
238.321	0.28
238.538	0.42
238.755	0.68
238.973	0.35
239.19	0.46
239.407	0.46
239.624	0.46
239.841	0.31
240.058	0.41
240.275	0.51
240.492	0.59
240.709	0.4
240.925	0.39
241.142	0.48
241.359	0.32
241.576	0.3
241.793	0.34
242.01	0.42
242.227	0.64
242.444	0.49
242.66	0.56
242.877	0.45
243.094	0.42
243.311	0.36
243.527	0.41
243.744	0.5
243.961	0.54
244.178	0.33
244.394	0.32
244.611	0.61
244.828	0.66
245.044	0.33
245.261	0.31
245.477	0.54
245.694	0.49
245.911	0.3
246.127	0.38
246.344	0.54
246.56	0.59
246.777	0.33
246.993	0.34
247.21	0.47
247.426	0.58
247.643	0.38
247.859	0.33
248.076	0.37
248.292	0.63
248.508	0.25
248.725	0.44
248.941	0.51
249.157	0.56
249.374	0.35
249.59	0.33
249.806	0.43
250.023	0.66
250.239	0.33
250.455	0.23
250.671	0.38
250.888	0.49
251.104	0.43
251.32	0.28
251.536	0.42
251.752	0.46
251.969	0.36
252.185	0.35
252.401	0.6
252.617	0.37
252.833	0.26
253.049	0.39
253.265	0.4
253.481	0.43
253.697	0.35
253.913	0.21
254.129	0.45
254.345	0.4
254.561	0.32
254.777	0.32
254.993	0.48
255.209	0.39
255.425	0.34
255.641	0.25
255.857	0.5
256.073	0.39
256.288	0.21
256.504	0.34
256.72	0.39
256.936	0.5
257.152	0.33
257.367	0.3
257.583	0.41
257.799	0.48
258.015	0.29
258.23	0.27
258.446	0.66
258.662	0.37
258.877	0.28
259.093	0.31
259.309	0.34
259.524	0.45
259.74	0.28
259.955	0.2
260.171	0.38
260.387	0.37
260.602	0.43
260.818	0.37
261.033	0.29
261.249	0.38
261.464	0.34
261.68	0.2
261.895	0.43
262.11	0.4
262.326	0.26
262.541	0.23
262.757	0.49
262.972	0.46
263.187	0.35
263.403	0.34
263.618	0.47
263.833	0.43
264.049	0.28
264.264	0.35
264.479	0.33
264.694	0.53
264.91	0.13
265.125	0.22
265.34	0.47
265.555	0.51
265.77	0.35
265.986	0.27
266.201	0.41
266.416	0.44
266.631	0.28
266.846	0.37
267.061	0.37
267.276	0.39
267.491	0.15
267.706	0.39
267.921	0.4
268.136	0.41
268.351	0.29
268.566	0.27
268.781	0.47
268.996	0.38
269.211	0.32
269.426	0.22
269.641	0.32
269.856	0.37
270.071	0.29
270.285	0.21
270.5	0.46
270.715	0.41
270.93	0.31
271.145	0.34
271.359	0.44
271.574	0.35
271.789	0.28
272.004	0.23
272.218	0.24
272.433	0.37
272.648	0.29
272.862	0.31
273.077	0.35
273.292	0.33
273.506	0.24
273.721	0.28
273.936	0.41
274.15	0.46
274.365	0.27
274.579	0.35
274.794	0.38
275.008	0.46
275.223	0.19
275.437	0.28
275.652	0.38
275.866	0.37
276.081	0.32
276.295	0.36
276.509	0.33
276.724	0.37
276.938	0.29
277.153	0.38
277.367	0.4
277.581	0.24
277.796	0.28
278.01	0.22
278.224	0.38
278.438	0.45
278.653	0.22
278.867	0.23
279.081	0.15
279.295	0.31
279.51	0.35
279.724	0.21
279.938	0.37
280.152	0.34
280.366	0.3
280.58	0.28
280.794	0.46
281.008	0.37
281.222	0.32
281.437	0.5
281.651	0.32
281.865	0.42
282.079	0.29
282.293	0.19
282.507	0.22
282.721	0.31
282.935	0.28
283.148	0.19
283.362	0.28
283.576	0.27
283.79	0.25
284.004	0.21
284.218	0.41
284.432	0.27
284.646	0.24
284.859	0.24
285.073	0.25
285.287	0.31
285.501	0.3
285.714	0.31
285.928	0.33
286.142	0.33
286.356	0.26
286.569	0.21
286.783	0.38
286.997	0.35
287.21	0.28
287.424	0.26
287.637	0.24
287.851	0.29
288.065	0.31
288.278	0.3
288.492	0.29
288.705	0.3
288.919	0.31
289.132	0.15
289.346	0.31
289.559	0.17
289.773	0.18
289.986	0.28
290.2	0.3
290.413	0.36
290.626	0.22
290.84	0.22
291.053	0.28
291.267	0.39
291.48	0.26
291.693	0.21
291.906	0.26
292.12	0.25
292.333	0.27
292.546	0.19
292.76	0.31
292.973	0.29
293.186	0.34
293.399	0.22
293.612	0.35
293.826	0.29
294.039	0.24
294.252	0.19
294.465	0.31
294.678	0.29
294.891	0.29
295.104	0.23
295.317	0.29
295.53	0.25
295.743	0.25
295.956	0.25
296.169	0.36
296.382	0.3
296.595	0.21
296.808	0.17
297.021	0.35
297.234	0.32
297.447	0.24
297.66	0.24
297.873	0.36
298.086	0.36
298.299	0.18
298.511	0.17
298.724	0.29
298.937	0.2
299.15	0.2
299.363	0.25
299.575	0.34
299.788	0.25
300.001	0.25
300.213	0.2
300.426	0.26
300.639	0.24
300.852	0.19
301.064	0.26
301.277	0.29
301.489	0.29
301.702	0.25
301.915	0.22
302.127	0.27
302.34	0.32
302.552	0.29
302.765	0.2
302.977	0.3
303.19	0.25
303.402	0.21
303.615	0.23
303.827	0.23
304.04	0.22
304.252	0.34
304.464	0.21
304.677	0.4
304.889	0.26
305.102	0.2
305.314	0.23
305.526	0.3
305.739	0.27
305.951	0.17
306.163	0.2
306.375	0.35
306.588	0.22
306.8	0.22
307.012	0.17
307.224	0.24
307.436	0.32
307.649	0.18
307.861	0.23
308.073	0.3
308.285	0.21
308.497	0.23
308.709	0.18
308.921	0.25
309.133	0.31
309.346	0.18
309.558	0.22
309.77	0.33
309.982	0.37
310.194	0.28
310.406	0.21
310.617	0.37
310.829	0.26
311.041	0.3
311.253	0.15
311.465	0.26
311.677	0.26
311.889	0.23
312.101	0.19
312.313	0.32
312.524	0.34
312.736	0.18
312.948	0.23
313.16	0.37
313.372	0.32
313.583	0.25
313.795	0.24
314.007	0.22
314.218	0.32
314.43	0.23
314.642	0.23
314.853	0.2
315.065	0.3
315.277	0.24
315.488	0.25
315.7	0.3
315.912	0.28
316.123	0.24
316.335	0.25
316.546	0.4
316.758	0.25
316.969	0.21
317.181	0.29
317.392	0.23
317.604	0.31
317.815	0.18
318.026	0.23
318.238	0.24
318.449	0.29
318.661	0.16
318.872	0.16
319.083	0.19
319.295	0.31
319.506	0.23
319.717	0.22
319.929	0.24
320.14	0.25
320.351	0.26
320.562	0.25
320.774	0.3
320.985	0.28
321.196	0.22
321.407	0.16
321.618	0.28
321.829	0.25
322.041	0.24
322.252	0.26
322.463	0.3
322.674	0.28
322.885	0.2
323.096	0.21
323.307	0.27
323.518	0.29
323.729	0.19
323.94	0.17
324.151	0.21
324.362	0.27
324.573	0.24
324.784	0.26
324.995	0.3
325.206	0.3
325.417	0.24
325.628	0.19
325.838	0.22
326.049	0.28
326.26	0.25
326.471	0.18
326.682	0.29
326.892	0.25
327.103	0.17
327.314	0.27
327.525	0.3
327.735	0.26
327.946	0.23
328.157	0.15
328.368	0.3
328.578	0.22
328.789	0.34
328.999	0.26
329.21	0.18
329.421	0.28
329.631	0.21
329.842	0.19
330.052	0.25
330.263	0.31
330.473	0.29
330.684	0.22
330.894	0.23
331.105	0.27
331.315	0.24
331.526	0.15
331.736	0.37
331.947	0.28
332.157	0.31
332.367	0.19
332.578	0.26
332.788	0.33
332.999	0.32
333.209	0.25
333.419	0.18
333.629	0.3
333.84	0.28
334.05	0.21
334.26	0.34
334.47	0.29
334.681	0.3
334.891	0.21
335.101	0.27
335.311	0.35
335.521	0.23
335.732	0.14
335.942	0.33
336.152	0.28
336.362	0.25
336.572	0.28
336.782	0.26
336.992	0.21
337.202	0.22
337.412	0.25
337.622	0.26
337.832	0.19
338.042	0.25
338.252	0.21
338.462	0.24
338.672	0.26
338.882	0.24
339.092	0.26
339.302	0.39
339.511	0.27
339.721	0.26
339.931	0.2
340.141	0.34
340.351	0.31
340.561	0.24
340.77	0.24
340.98	0.26
341.19	0.26
341.4	0.24
341.609	0.17
341.819	0.25
342.029	0.16
342.238	0.26
342.448	0.21
342.658	0.34
342.867	0.24
343.077	0.22
343.286	0.24
343.496	0.25
343.706	0.3
343.915	0.22
344.125	0.25
344.334	0.26
344.544	0.2
344.753	0.2
344.963	0.2
345.172	0.22
345.381	0.22
345.591	0.17
345.8	0.21
346.01	0.33
346.219	0.32
346.428	0.07
346.638	0.24
346.847	0.27
347.056	0.3
347.266	0.2
347.475	0.23
347.684	0.29
347.893	0.28
348.103	0.22
348.312	0.19
348.521	0.29
348.73	0.27
348.94	0.25
349.149	0.2
349.358	0.24
349.567	0.23
349.776	0.18
349.985	0.22
350.194	0.3
350.403	0.32
350.612	0.19
350.821	0.17
351.03	0.27
351.239	0.19
351.448	0.23
351.657	0.19
351.866	0.3
352.075	0.25
352.284	0.29
352.493	0.19
352.702	0.35
352.911	0.27
353.12	0.21
353.329	0.24
353.538	0.26
353.746	0.23
353.955	0.15
354.164	0.26
354.373	0.26
354.582	0.32
354.79	0.25
354.999	0.25
355.208	0.26
355.416	0.31
355.625	0.21
355.834	0.21
356.042	0.26
356.251	0.22
356.46	0.19
356.668	0.2
356.877	0.36
357.085	0.29
357.294	0.17
357.503	0.22
357.711	0.24
357.92	0.41
358.128	0.26
358.337	0.21
358.545	0.25
358.754	0.23
358.962	0.27
359.17	0.19
359.379	0.25
359.587	0.28
359.796	0.21
360.004	0.3
360.212	0.27
360.421	0.32
360.629	0.21
360.837	0.24
361.046	0.28
361.254	0.39
361.462	0.22
361.67	0.23
361.879	0.23
362.087	0.31
362.295	0.25
362.503	0.21
362.711	0.19
362.92	0.21
363.128	0.19
363.336	0.2
363.544	0.21
363.752	0.23
363.96	0.19
364.168	0.22
364.376	0.23
364.584	0.26
364.792	0.33
365	0.25
365.208	0.27
365.416	0.24
365.624	0.26
365.832	0.2
366.04	0.3
366.248	0.25
366.456	0.23
366.664	0.24
366.872	0.24
367.079	0.25
367.287	0.24
367.495	0.2
367.703	0.19
367.911	0.22
368.118	0.21
368.326	0.21
368.534	0.18
368.742	0.31
368.949	0.18
369.157	0.18
369.365	0.25
369.572	0.23
369.78	0.2
369.988	0.31
370.195	0.28
370.403	0.28
370.61	0.21
370.818	0.25
371.026	0.34
371.233	0.21
371.441	0.25
371.648	0.25
371.856	0.29
372.063	0.27
372.271	0.21
372.478	0.19
372.685	0.22
372.893	0.29
373.1	0.23
373.308	0.21
373.515	0.41
373.722	0.26
373.93	0.22
374.137	0.28
374.344	0.33
374.552	0.27
374.759	0.27
374.966	0.29
375.173	0.24
375.381	0.34
375.588	0.24
375.795	0.17
376.002	0.25
376.209	0.2
376.417	0.27
376.624	0.27
376.831	0.26
377.038	0.27
377.245	0.16
377.452	0.2
377.659	0.25
377.866	0.24
378.073	0.23
378.28	0.22
378.487	0.31
378.694	0.31
378.901	0.25
379.108	0.24
379.315	0.32
379.522	0.34
379.729	0.26
379.936	0.23
380.143	0.28
380.35	0.29
380.557	0.25
380.763	0.23
380.97	0.27
381.177	0.3
381.384	0.29
381.591	0.22
381.797	0.27
382.004	0.32
382.211	0.31
382.418	0.19
382.624	0.29
382.831	0.34
383.038	0.25
383.244	0.23
383.451	0.28
383.658	0.31
383.864	0.27
384.071	0.22
384.277	0.32
384.484	0.27
384.69	0.32
384.897	0.22
385.103	0.28
385.31	0.23
385.516	0.28
385.723	0.19
385.929	0.27
386.136	0.21
386.342	0.34
386.549	0.27
386.755	0.33
386.961	0.32
387.168	0.23
387.374	0.27
387.58	0.33
387.787	0.25
387.993	0.3
388.199	0.28
388.406	0.25
388.612	0.27
388.818	0.27
389.024	0.24
389.231	0.28
389.437	0.42
389.643	0.33
389.849	0.27
390.055	0.25
390.261	0.3
390.467	0.33
390.674	0.26
390.88	0.24
391.086	0.3
391.292	0.21
391.498	0.32
391.704	0.33
391.91	0.28
392.116	0.26
392.322	0.16
392.528	0.34
392.734	0.28
392.94	0.32
393.146	0.29
393.352	0.3
393.557	0.28
393.763	0.26
393.969	0.32
394.175	0.31
394.381	0.31
394.587	0.26
394.792	0.31
394.998	0.39
395.204	0.38
395.41	0.3
395.615	0.3
395.821	0.33
396.027	0.32
396.233	0.29
396.438	0.34
396.644	0.4
396.85	0.32
397.055	0.32
397.261	0.33
397.466	0.32
397.672	0.38
397.878	0.35
398.083	0.35
398.289	0.29
398.494	0.38
398.7	0.32
398.905	0.24
399.111	0.44
399.316	0.24
399.522	0.29
399.727	0.32
399.932	0.34
400.138	0.3
400.343	0.37
400.549	0.32
400.754	0.38
400.959	0.39
401.165	0.31
401.37	0.39
401.575	0.51
401.78	0.38
401.986	0.32
402.191	0.34
402.396	0.36
402.601	0.38
402.807	0.39
403.012	0.36
403.217	0.44
403.422	0.4
403.627	0.35
403.832	0.37
404.037	0.43
404.243	0.42
404.448	0.34
404.653	0.41
404.858	0.47
405.063	0.48
405.268	0.42
405.473	0.37
405.678	0.4
405.883	0.66
406.088	0.49
406.293	0.4
406.498	0.44
406.703	0.48
406.907	0.42
407.112	0.4
407.317	0.51
407.522	0.53
407.727	0.44
407.932	0.53
408.136	0.63
408.341	0.49
408.546	0.53
408.751	0.58
408.956	0.57
409.16	0.66
409.365	0.57
409.57	0.57
409.774	0.58
409.979	0.67
410.184	0.62
410.388	0.54
410.593	0.71
410.798	0.7
411.002	0.7
411.207	0.77
411.411	0.78
411.616	0.72
411.82	0.81
412.025	0.8
412.229	0.78
412.434	0.94
412.638	0.9
412.843	0.85
413.047	0.91
413.252	0.92
413.456	0.96
413.66	1.03
413.865	0.94
414.069	1.09
414.273	1.06
414.478	1.03
414.682	1.1
414.886	1.14
415.091	1.09
415.295	1.18
415.499	1.32
415.703	1.26
415.908	1.36
416.112	1.28
416.316	1.49
416.52	1.48
416.724	1.45
416.929	1.51
417.133	1.71
417.337	1.59
417.541	1.65
417.745	1.75
417.949	1.83
418.153	1.8
418.357	1.85
418.561	2.08
418.765	2.02
418.969	2.29
419.173	2.24
419.377	2.25
419.581	2.46
419.785	2.43
419.989	2.47
420.193	2.59
420.397	2.68
420.601	2.8
420.804	2.89
421.008	2.81
421.212	3.04
421.416	3
421.62	3.02
421.823	3.06
422.027	3.29
422.231	3.22
422.435	3.24
422.638	3.25
422.842	3.46
423.046	3.37
423.249	3.58
423.453	3.6
423.657	3.83
423.86	3.87
424.064	3.98
424.268	4.15
424.471	4.15
424.675	4.37
424.878	4.44
425.082	4.47
425.285	4.85
425.489	4.74
425.692	4.85
425.896	4.91
426.099	5.14
426.303	5.18
426.506	5.3
426.71	5.59
426.913	5.72
427.116	5.88
427.32	5.84
427.523	6.01
427.726	6.35
427.93	6.44
428.133	6.67
428.336	6.81
428.54	6.96
428.743	7.11
428.946	7.45
429.149	7.44
429.353	7.42
429.556	7.52
429.759	7.48
429.962	7.72
430.165	7.79
430.368	7.51
430.571	7.57
430.775	7.66
430.978	7.6
431.181	7.71
431.384	7.84
431.587	7.97
431.79	8.25
431.993	8.17
432.196	8.49
432.399	8.96
432.602	9.03
432.805	9.12
433.008	9.61
433.211	9.57
433.414	9.86
433.616	9.98
433.819	9.72
434.022	9.94
434.225	10.11
434.428	10.22
434.631	10.64
434.833	10.51
435.036	10.61
435.239	10.83
435.442	10.94
435.645	11.11
435.847	11.17
436.05	11.53
436.253	11.52
436.455	11.64
436.658	11.63
436.861	11.92
437.063	12.05
437.266	11.94
437.468	12.25
437.671	12.73
437.874	12.68
438.076	12.36
438.279	12.85
438.481	12.96
438.684	13.59
438.886	13.32
439.089	13.53
439.291	13.69
439.494	13.95
439.696	14.19
439.899	14.65
440.101	15.07
440.303	15.17
440.506	15.94
440.708	15.73
440.91	16.02
441.113	16.08
441.315	16.25
441.517	16.16
441.72	16.68
441.922	16.18
442.124	16.25
442.326	16.6
442.529	16.97
442.731	16.65
442.933	17.09
443.135	16.81
443.337	16.93
443.539	17.39
443.742	17.14
443.944	17.74
444.146	17.51
444.348	17.44
444.55	17.4
444.752	17.59
444.954	17.6
445.156	17.5
445.358	17.99
445.56	18.21
445.762	18.06
445.964	18.48
446.166	18.04
446.368	18.14
446.57	18.18
446.772	17.76
446.974	17.65
447.175	17.97
447.377	17.56
447.579	18.14
447.781	17.73
447.983	17.69
448.184	17.24
448.386	17.45
448.588	17.19
448.79	17.04
448.991	17.3
449.193	17.57
449.395	16.78
449.597	16.45
449.798	16.5
450	15.93
450.202	15.95
450.403	15.99
450.605	15.85
450.806	15.5
451.008	15.39
451.21	15.16
451.411	14.79
451.613	14.11
451.814	14.24
452.016	14.36
452.217	13.53
452.419	13.67
452.62	13.31
452.821	12.98
453.023	12.95
453.224	12.62
453.426	12.14
453.627	11.55
453.828	11.48
454.03	11.72
454.231	11.57
454.432	11.43
454.634	11.23
454.835	10.88
455.036	10.92
455.238	10.51
455.439	10.2
455.64	9.92
455.841	9.77
456.042	9.88
456.244	9.62
456.445	9.38
456.646	9.02
456.847	8.81
457.048	8.89
457.249	8.79
457.45	8.61
457.651	8.09
457.852	8.01
458.054	7.56
458.255	7.53
458.456	7.58
458.657	7.55
458.858	7.04
459.058	6.92
459.259	7.02
459.46	6.62
459.661	6.64
459.862	6.75
460.063	6.6
460.264	6.57
460.465	6.14
460.666	6.35
460.866	5.94
461.067	5.75
461.268	5.8
461.469	5.73
461.67	5.62
461.87	5.46
462.071	5.51
462.272	5.41
462.473	5.25
462.673	5.5
462.874	5.36
463.075	5.33
463.275	5.36
463.476	5.35
463.676	5.23
463.877	5.11
464.078	5.14
464.278	5.13
464.479	4.95
464.679	4.9
464.88	4.75
465.08	4.87
465.281	4.73
465.481	4.48
465.682	4.32
465.882	4.38
466.083	4.33
466.283	4.25
466.483	4.06
466.684	3.91
466.884	3.76
467.085	3.83
467.285	3.93
467.485	3.7
467.686	3.72
467.886	3.5
468.086	3.51
468.286	3.5
468.487	3.59
468.687	3.41
468.887	3.35
469.087	3.57
469.287	3.36
469.488	3.24
469.688	3.33
469.888	3.39
470.088	3.31
470.288	3.16
470.488	3.17
470.688	2.99
470.888	2.95
471.088	2.79
471.288	2.93
471.488	2.88
471.688	2.86
471.888	2.78
472.088	2.99
472.288	2.89
472.488	2.72
472.688	2.7
472.888	2.69
473.088	2.71
473.288	2.62
473.488	2.58
473.688	2.76
473.887	2.58
474.087	2.52
474.287	2.59
474.487	2.48
474.687	2.51
474.886	2.38
475.086	2.41
475.286	2.43
475.486	2.4
475.685	2.33
475.885	2.29
476.085	2.34
476.284	2.35
476.484	2.32
476.684	2.3
476.883	2.39
477.083	2.27
477.282	2.2
477.482	2.3
477.681	2.29
477.881	2.18
478.08	2.18
478.28	2.15
478.479	2.17
478.679	2.25
478.878	2.16
479.078	2.11
479.277	2.18
479.477	2.12
479.676	2.13
479.875	2.03
480.075	1.97
480.274	2.08
480.473	2.12
480.673	2.08
480.872	2.13
481.071	2.12
481.271	2.09
481.47	2.06
481.669	2.09
481.868	2.03
482.067	2.05
482.267	1.93
482.466	2.02
482.665	2.01
482.864	2
483.063	2.02
483.262	2.07
483.461	2.12
483.661	2.12
483.86	2.07
484.059	2.11
484.258	2.08
484.457	2.07
484.656	2.09
484.855	2.13
485.054	1.96
485.253	2.07
485.452	2.02
485.651	2.11
485.849	2.05
486.048	2.06
486.247	2.07
486.446	2.14
486.645	2.07
486.844	2.08
487.043	2.09
487.241	2.12
487.44	2.13
487.639	2.2
487.838	2.19
488.037	2.15
488.235	2.3
488.434	2.19
488.633	2.08
488.831	2.3
489.03	2.26
489.229	2.26
489.427	2.27
489.626	2.33
489.825	2.34
490.023	2.33
490.222	2.31
490.42	2.36
490.619	2.44
490.817	2.4
491.016	2.39
491.214	2.45
491.413	2.44
491.611	2.37
491.81	2.42
492.008	2.48
492.207	2.56
492.405	2.5
492.604	2.45
492.802	2.52
493	2.62
493.199	2.7
493.397	2.65
493.595	2.74
493.794	2.69
493.992	2.82
494.19	2.82
494.388	2.84
494.587	2.77
494.785	2.79
494.983	2.71
495.181	2.87
495.379	2.89
495.578	2.98
495.776	2.93
495.974	2.94
496.172	2.93
496.37	3.12
496.568	3.09
496.766	3.01
496.964	3.22
497.162	3.21
497.36	3.17
497.558	3.24
497.756	3.28
497.954	3.28
498.152	3.31
498.35	3.47
498.548	3.33
498.746	3.38
498.944	3.42
499.142	3.4
499.34	3.5
499.538	3.63
499.736	3.5
499.933	3.64
500.131	3.64
500.329	3.8
500.527	3.72
500.725	3.86
500.922	3.84
501.12	3.84
501.318	3.91
501.516	3.9
501.713	3.99
501.911	3.97
502.109	3.9
502.306	4.02
502.504	4.03
