Data from Apollo_Calib_20240827__AbsoluteIrradiance__781__12-10-02-981.txt Node

Date: Wed Aug 28 12:10:02 BST 2024
User: biology
Spectrometer: FLMT08252
Trigger mode: 0
Integration Time (sec): 5.000000E-1
Scans to average: 5
Electric dark correction enabled: true
Nonlinearity correction enabled: false
Boxcar width: 0
XAxis mode: Wavelengths
Number of Pixels in Spectrum: 3648
>>>>>Begin Spectral Data<<<<<
179.588	-0
179.809	-0
180.03	-0
180.251	-0
180.473	-0
180.694	0
180.915	0
181.136	-0
181.357	0
181.578	-0
181.799	-0
182.02	-0
182.241	0
182.462	-0
182.683	0
182.904	-0
183.125	-0
183.346	0
183.567	0
183.788	0
184.009	0
184.23	0
184.451	0
184.672	0
184.892	0
185.113	0
185.334	0
185.555	0
185.776	0
185.996	0
186.217	0
186.438	0
186.659	0
186.879	0
187.1	0
187.321	0
187.541	0
187.762	0
187.983	0
188.203	0
188.424	0
188.644	0
188.865	0
189.086	0
189.306	0
189.527	0
189.747	0
189.968	0
190.188	0
190.409	0
190.629	0
190.849	0
191.07	0
191.29	0
191.511	0
191.731	0
191.951	0
192.172	0
192.392	0
192.612	0
192.833	0
193.053	0
193.273	0
193.493	0
193.714	0
193.934	0
194.154	0
194.374	0
194.594	0
194.815	0
195.035	0
195.255	0
195.475	0
195.695	0
195.915	0
196.135	0
196.355	0
196.575	0
196.795	0
197.015	0
197.235	0
197.455	0
197.675	0
197.895	0
198.115	0
198.335	0
198.555	0
198.775	0
198.995	0
199.214	0
199.434	0
199.654	0
199.874	0
200.094	3.59
200.313	2.27
200.533	2.15
200.753	1.27
200.973	3.83
201.192	2.22
201.412	1.34
201.632	1.73
201.851	3.33
202.071	1.9
202.291	1.75
202.51	1.44
202.73	2.91
202.95	1.78
203.169	1.2
203.389	1.94
203.608	2.19
203.828	1.28
204.047	1.24
204.267	2.67
204.486	1.85
204.706	2.29
204.925	1.38
205.145	1.28
205.364	2
205.583	2.5
205.803	1.01
206.022	1.25
206.242	1.71
206.461	1.37
206.68	1.28
206.9	1.65
207.119	2.5
207.338	2.06
207.557	1.24
207.777	1.2
207.996	1.38
208.215	1.96
208.434	1.04
208.654	0.7
208.873	1.52
209.092	1.84
209.311	1.18
209.53	0.94
209.749	1.29
209.968	1.16
210.187	1.18
210.407	0.45
210.626	1.24
210.845	1.54
211.064	1.24
211.283	1.01
211.502	1.46
211.721	1.31
211.94	0.94
212.159	1.29
212.377	1.23
212.596	1.52
212.815	1.06
213.034	0.96
213.253	1.39
213.472	1.47
213.691	0.83
213.91	0.6
214.128	0.68
214.347	1.3
214.566	0.42
214.785	0.43
215.003	1.12
215.222	1.27
215.441	0.91
215.66	0.53
215.878	0.75
216.097	1.14
216.316	0.62
216.534	0.8
216.753	1.22
216.972	0.8
217.19	0.84
217.409	0.53
217.627	0.72
217.846	0.86
218.064	0.88
218.283	0.65
218.501	1.35
218.72	1.14
218.938	0.62
219.157	0.52
219.375	0.86
219.594	0.97
219.812	0.52
220.031	0.56
220.249	1.41
220.467	1.13
220.686	0.56
220.904	0.52
221.122	0.6
221.341	1.11
221.559	0.93
221.777	0.55
221.995	0.8
222.214	0.82
222.432	0.55
222.65	0.79
222.868	0.68
223.086	0.86
223.305	0.94
223.523	0.71
223.741	1
223.959	0.67
224.177	0.51
224.395	0.47
224.613	0.81
224.831	0.87
225.049	0.45
225.267	0.68
225.485	0.8
225.703	0.41
225.921	0.58
226.139	0.47
226.357	0.66
226.575	0.73
226.793	0.5
227.011	1.36
227.229	0.68
227.447	0.83
227.665	0.54
227.883	0.28
228.1	0.61
228.318	0.7
228.536	0.34
228.754	0.46
228.972	0.78
229.189	0.71
229.407	0.4
229.625	0.49
229.843	0.9
230.06	0.77
230.278	0.49
230.496	0.56
230.713	0.65
230.931	0.66
231.149	0.48
231.366	0.26
231.584	0.47
231.801	1
232.019	0.42
232.236	0.35
232.454	0.51
232.671	0.61
232.889	0.47
233.106	0.43
233.324	0.69
233.541	0.44
233.759	0.55
233.976	0.32
234.194	0.48
234.411	0.53
234.628	0.33
234.846	0.36
235.063	0.52
235.28	0.54
235.498	0.42
235.715	0.36
235.932	0.81
236.149	0.43
236.367	0.34
236.584	0.58
236.801	0.46
237.018	0.65
237.236	0.56
237.453	0.27
237.67	0.63
237.887	0.44
238.104	0.42
238.321	0.34
238.538	0.41
238.755	0.69
238.973	0.28
239.19	0.41
239.407	0.51
239.624	0.63
239.841	0.41
240.058	0.33
240.275	0.45
240.492	0.45
240.709	0.45
240.925	0.45
241.142	0.47
241.359	0.43
241.576	0.28
241.793	0.4
242.01	0.47
242.227	0.58
242.444	0.53
242.66	0.55
242.877	0.41
243.094	0.41
243.311	0.49
243.527	0.38
243.744	0.54
243.961	0.57
244.178	0.35
244.394	0.38
244.611	0.63
244.828	0.57
245.044	0.33
245.261	0.35
245.477	0.54
245.694	0.54
245.911	0.3
246.127	0.45
246.344	0.63
246.56	0.47
246.777	0.37
246.993	0.39
247.21	0.43
247.426	0.49
247.643	0.31
247.859	0.31
248.076	0.42
248.292	0.74
248.508	0.31
248.725	0.4
248.941	0.41
249.157	0.56
249.374	0.34
249.59	0.37
249.806	0.43
250.023	0.55
250.239	0.36
250.455	0.32
250.671	0.39
250.888	0.5
251.104	0.45
251.32	0.31
251.536	0.44
251.752	0.43
251.969	0.38
252.185	0.37
252.401	0.57
252.617	0.56
252.833	0.34
253.049	0.4
253.265	0.43
253.481	0.45
253.697	0.36
253.913	0.27
254.129	0.44
254.345	0.35
254.561	0.38
254.777	0.32
254.993	0.49
255.209	0.38
255.425	0.35
255.641	0.34
255.857	0.51
256.073	0.45
256.288	0.3
256.504	0.32
256.72	0.39
256.936	0.52
257.152	0.38
257.367	0.29
257.583	0.47
257.799	0.51
258.015	0.35
258.23	0.29
258.446	0.57
258.662	0.35
258.877	0.31
259.093	0.33
259.309	0.4
259.524	0.42
259.74	0.27
259.955	0.23
260.171	0.38
260.387	0.38
260.602	0.4
260.818	0.4
261.033	0.29
261.249	0.32
261.464	0.33
261.68	0.28
261.895	0.49
262.11	0.46
262.326	0.33
262.541	0.24
262.757	0.43
262.972	0.39
263.187	0.38
263.403	0.45
263.618	0.5
263.833	0.37
264.049	0.26
264.264	0.28
264.479	0.37
264.694	0.47
264.91	0.26
265.125	0.31
265.34	0.4
265.555	0.57
265.77	0.34
265.986	0.31
266.201	0.32
266.416	0.49
266.631	0.25
266.846	0.32
267.061	0.45
267.276	0.37
267.491	0.2
267.706	0.27
267.921	0.39
268.136	0.37
268.351	0.33
268.566	0.23
268.781	0.45
268.996	0.46
269.211	0.3
269.426	0.28
269.641	0.31
269.856	0.46
270.071	0.26
270.285	0.22
270.5	0.43
270.715	0.5
270.93	0.3
271.145	0.42
271.359	0.39
271.574	0.32
271.789	0.3
272.004	0.26
272.218	0.32
272.433	0.41
272.648	0.26
272.862	0.41
273.077	0.35
273.292	0.32
273.506	0.27
273.721	0.36
273.936	0.39
274.15	0.41
274.365	0.32
274.579	0.37
274.794	0.36
275.008	0.39
275.223	0.29
275.437	0.29
275.652	0.42
275.866	0.37
276.081	0.3
276.295	0.4
276.509	0.34
276.724	0.34
276.938	0.38
277.153	0.35
277.367	0.36
277.581	0.27
277.796	0.24
278.01	0.19
278.224	0.44
278.438	0.44
278.653	0.24
278.867	0.27
279.081	0.19
279.295	0.33
279.51	0.28
279.724	0.22
279.938	0.37
280.152	0.33
280.366	0.25
280.58	0.33
280.794	0.36
281.008	0.35
281.222	0.33
281.437	0.49
281.651	0.33
281.865	0.37
282.079	0.26
282.293	0.14
282.507	0.24
282.721	0.31
282.935	0.27
283.148	0.21
283.362	0.3
283.576	0.2
283.79	0.29
284.004	0.23
284.218	0.35
284.432	0.24
284.646	0.29
284.859	0.25
285.073	0.3
285.287	0.3
285.501	0.26
285.714	0.25
285.928	0.28
286.142	0.3
286.356	0.22
286.569	0.23
286.783	0.46
286.997	0.4
287.21	0.27
287.424	0.26
287.637	0.29
287.851	0.25
288.065	0.35
288.278	0.27
288.492	0.3
288.705	0.34
288.919	0.32
289.132	0.19
289.346	0.32
289.559	0.18
289.773	0.22
289.986	0.27
290.2	0.29
290.413	0.37
290.626	0.23
290.84	0.25
291.053	0.28
291.267	0.36
291.48	0.24
291.693	0.29
291.906	0.25
292.12	0.3
292.333	0.23
292.546	0.23
292.76	0.33
292.973	0.3
293.186	0.36
293.399	0.24
293.612	0.35
293.826	0.25
294.039	0.26
294.252	0.26
294.465	0.34
294.678	0.27
294.891	0.27
295.104	0.2
295.317	0.22
295.53	0.29
295.743	0.23
295.956	0.21
296.169	0.34
296.382	0.3
296.595	0.27
296.808	0.2
297.021	0.36
297.234	0.29
297.447	0.24
297.66	0.27
297.873	0.3
298.086	0.28
298.299	0.21
298.511	0.19
298.724	0.26
298.937	0.21
299.15	0.2
299.363	0.22
299.575	0.3
299.788	0.29
300.001	0.24
300.213	0.25
300.426	0.21
300.639	0.24
300.852	0.21
301.064	0.3
301.277	0.32
301.489	0.34
301.702	0.29
301.915	0.22
302.127	0.25
302.34	0.27
302.552	0.25
302.765	0.14
302.977	0.34
303.19	0.22
303.402	0.22
303.615	0.24
303.827	0.24
304.04	0.22
304.252	0.3
304.464	0.22
304.677	0.36
304.889	0.26
305.102	0.22
305.314	0.19
305.526	0.29
305.739	0.29
305.951	0.18
306.163	0.23
306.375	0.35
306.588	0.2
306.8	0.25
307.012	0.17
307.224	0.26
307.436	0.33
307.649	0.19
307.861	0.25
308.073	0.3
308.285	0.2
308.497	0.19
308.709	0.19
308.921	0.22
309.133	0.29
309.346	0.27
309.558	0.23
309.77	0.29
309.982	0.33
310.194	0.3
310.406	0.23
310.617	0.34
310.829	0.25
311.041	0.3
311.253	0.19
311.465	0.25
311.677	0.24
311.889	0.18
312.101	0.2
312.313	0.3
312.524	0.31
312.736	0.19
312.948	0.22
313.16	0.33
313.372	0.33
313.583	0.3
313.795	0.26
314.007	0.29
314.218	0.29
314.43	0.27
314.642	0.23
314.853	0.17
315.065	0.31
315.277	0.25
315.488	0.25
315.7	0.33
315.912	0.27
316.123	0.28
316.335	0.23
316.546	0.37
316.758	0.24
316.969	0.21
317.181	0.26
317.392	0.23
317.604	0.27
317.815	0.21
318.026	0.2
318.238	0.28
318.449	0.31
318.661	0.19
318.872	0.18
319.083	0.19
319.295	0.33
319.506	0.21
319.717	0.21
319.929	0.27
320.14	0.26
320.351	0.24
320.562	0.21
320.774	0.24
320.985	0.29
321.196	0.19
321.407	0.13
321.618	0.32
321.829	0.29
322.041	0.28
322.252	0.22
322.463	0.27
322.674	0.3
322.885	0.2
323.096	0.21
323.307	0.26
323.518	0.27
323.729	0.19
323.94	0.22
324.151	0.23
324.362	0.33
324.573	0.24
324.784	0.18
324.995	0.35
325.206	0.29
325.417	0.23
325.628	0.24
325.838	0.25
326.049	0.26
326.26	0.3
326.471	0.23
326.682	0.28
326.892	0.27
327.103	0.18
327.314	0.18
327.525	0.27
327.735	0.26
327.946	0.25
328.157	0.17
328.368	0.31
328.578	0.21
328.789	0.32
328.999	0.24
329.21	0.2
329.421	0.33
329.631	0.25
329.842	0.2
330.052	0.26
330.263	0.26
330.473	0.29
330.684	0.21
330.894	0.25
331.105	0.26
331.315	0.27
331.526	0.18
331.736	0.37
331.947	0.25
332.157	0.29
332.367	0.21
332.578	0.23
332.788	0.34
332.999	0.27
333.209	0.22
333.419	0.23
333.629	0.25
333.84	0.28
334.05	0.19
334.26	0.39
334.47	0.25
334.681	0.28
334.891	0.21
335.101	0.27
335.311	0.35
335.521	0.22
335.732	0.22
335.942	0.3
336.152	0.28
336.362	0.3
336.572	0.24
336.782	0.3
336.992	0.24
337.202	0.23
337.412	0.25
337.622	0.25
337.832	0.27
338.042	0.22
338.252	0.2
338.462	0.23
338.672	0.27
338.882	0.2
339.092	0.19
339.302	0.36
339.511	0.32
339.721	0.23
339.931	0.2
340.141	0.32
340.351	0.34
340.561	0.28
340.77	0.25
340.98	0.24
341.19	0.27
341.4	0.22
341.609	0.17
341.819	0.26
342.029	0.13
342.238	0.24
342.448	0.21
342.658	0.32
342.867	0.23
343.077	0.24
343.286	0.27
343.496	0.26
343.706	0.34
343.915	0.21
344.125	0.23
344.334	0.23
344.544	0.19
344.753	0.23
344.963	0.23
345.172	0.24
345.381	0.25
345.591	0.18
345.8	0.27
346.01	0.26
346.219	0.33
346.428	0.14
346.638	0.23
346.847	0.27
347.056	0.35
347.266	0.24
347.475	0.25
347.684	0.3
347.893	0.25
348.103	0.25
348.312	0.23
348.521	0.32
348.73	0.25
348.94	0.24
349.149	0.21
349.358	0.26
349.567	0.26
349.776	0.18
349.985	0.22
350.194	0.29
350.403	0.32
350.612	0.18
350.821	0.24
351.03	0.26
351.239	0.19
351.448	0.23
351.657	0.18
351.866	0.34
352.075	0.33
352.284	0.2
352.493	0.19
352.702	0.27
352.911	0.25
353.12	0.25
353.329	0.25
353.538	0.21
353.746	0.22
353.955	0.22
354.164	0.25
354.373	0.23
354.582	0.27
354.79	0.22
354.999	0.3
355.208	0.27
355.416	0.36
355.625	0.18
355.834	0.2
356.042	0.3
356.251	0.23
356.46	0.17
356.668	0.24
356.877	0.41
357.085	0.3
357.294	0.14
357.503	0.24
357.711	0.22
357.92	0.39
358.128	0.26
358.337	0.22
358.545	0.27
358.754	0.24
358.962	0.27
359.17	0.2
359.379	0.28
359.587	0.26
359.796	0.23
360.004	0.27
360.212	0.28
360.421	0.31
360.629	0.23
360.837	0.18
361.046	0.29
361.254	0.36
361.462	0.24
361.67	0.18
361.879	0.27
362.087	0.31
362.295	0.24
362.503	0.23
362.711	0.25
362.92	0.21
363.128	0.16
363.336	0.19
363.544	0.19
363.752	0.23
363.96	0.26
364.168	0.19
364.376	0.2
364.584	0.26
364.792	0.31
365	0.24
365.208	0.26
365.416	0.28
365.624	0.3
365.832	0.24
366.04	0.32
366.248	0.27
366.456	0.23
366.664	0.28
366.872	0.27
367.079	0.22
367.287	0.22
367.495	0.25
367.703	0.23
367.911	0.24
368.118	0.25
368.326	0.2
368.534	0.24
368.742	0.29
368.949	0.17
369.157	0.19
369.365	0.27
369.572	0.27
369.78	0.18
369.988	0.32
370.195	0.25
370.403	0.31
370.61	0.23
370.818	0.25
371.026	0.31
371.233	0.19
371.441	0.29
371.648	0.22
371.856	0.24
372.063	0.29
372.271	0.23
372.478	0.26
372.685	0.19
372.893	0.34
373.1	0.24
373.308	0.21
373.515	0.33
373.722	0.25
373.93	0.22
374.137	0.26
374.344	0.31
374.552	0.32
374.759	0.29
374.966	0.26
375.173	0.25
375.381	0.27
375.588	0.24
375.795	0.2
376.002	0.23
376.209	0.19
376.417	0.22
376.624	0.28
376.831	0.29
377.038	0.22
377.245	0.16
377.452	0.2
377.659	0.26
377.866	0.26
378.073	0.25
378.28	0.26
378.487	0.32
378.694	0.29
378.901	0.26
379.108	0.27
379.315	0.31
379.522	0.38
379.729	0.27
379.936	0.27
380.143	0.26
380.35	0.28
380.557	0.22
380.763	0.27
380.97	0.3
381.177	0.3
381.384	0.27
381.591	0.22
381.797	0.32
382.004	0.31
382.211	0.32
382.418	0.24
382.624	0.29
382.831	0.3
383.038	0.24
383.244	0.27
383.451	0.27
383.658	0.29
383.864	0.25
384.071	0.23
384.277	0.33
384.484	0.27
384.69	0.34
384.897	0.25
385.103	0.28
385.31	0.22
385.516	0.24
385.723	0.21
385.929	0.28
386.136	0.23
386.342	0.3
386.549	0.23
386.755	0.35
386.961	0.33
387.168	0.25
387.374	0.29
387.58	0.33
387.787	0.31
387.993	0.26
388.199	0.27
388.406	0.21
388.612	0.27
388.818	0.26
389.024	0.23
389.231	0.31
389.437	0.37
389.643	0.32
389.849	0.27
390.055	0.3
390.261	0.25
390.467	0.29
390.674	0.24
390.88	0.29
391.086	0.33
391.292	0.24
391.498	0.3
391.704	0.32
391.91	0.27
392.116	0.31
392.322	0.18
392.528	0.33
392.734	0.28
392.94	0.32
393.146	0.31
393.352	0.3
393.557	0.26
393.763	0.31
393.969	0.29
394.175	0.24
394.381	0.29
394.587	0.28
394.792	0.29
394.998	0.35
395.204	0.38
395.41	0.32
395.615	0.3
395.821	0.31
396.027	0.34
396.233	0.27
396.438	0.36
396.644	0.32
396.85	0.28
397.055	0.31
397.261	0.34
397.466	0.45
397.672	0.35
397.878	0.4
398.083	0.39
398.289	0.31
398.494	0.35
398.7	0.36
398.905	0.24
399.111	0.45
399.316	0.29
399.522	0.32
399.727	0.32
399.932	0.34
400.138	0.32
400.343	0.38
400.549	0.37
400.754	0.34
400.959	0.36
401.165	0.32
401.37	0.36
401.575	0.48
401.78	0.35
401.986	0.36
402.191	0.34
402.396	0.41
402.601	0.46
402.807	0.39
403.012	0.35
403.217	0.45
403.422	0.39
403.627	0.43
403.832	0.43
404.037	0.45
404.243	0.44
404.448	0.41
404.653	0.43
404.858	0.45
405.063	0.44
405.268	0.43
405.473	0.38
405.678	0.41
405.883	0.6
406.088	0.52
406.293	0.4
406.498	0.42
406.703	0.54
406.907	0.48
407.112	0.5
407.317	0.54
407.522	0.57
407.727	0.44
407.932	0.55
408.136	0.62
408.341	0.54
408.546	0.59
408.751	0.6
408.956	0.58
409.16	0.63
409.365	0.61
409.57	0.61
409.774	0.65
409.979	0.65
410.184	0.66
410.388	0.66
410.593	0.75
410.798	0.73
411.002	0.72
411.207	0.83
411.411	0.83
411.616	0.72
411.82	0.84
412.025	0.81
412.229	0.84
412.434	1
412.638	0.91
412.843	0.93
413.047	0.95
413.252	0.91
413.456	1.03
413.66	1.07
413.865	1.02
414.069	1.19
414.273	1.12
414.478	1.13
414.682	1.19
414.886	1.26
415.091	1.19
415.295	1.25
415.499	1.42
415.703	1.38
415.908	1.49
416.112	1.39
416.316	1.62
416.52	1.58
416.724	1.55
416.929	1.62
417.133	1.91
417.337	1.76
417.541	1.82
417.745	1.81
417.949	1.99
418.153	2.03
418.357	2.07
418.561	2.26
418.765	2.29
418.969	2.44
419.173	2.46
419.377	2.47
419.581	2.74
419.785	2.65
419.989	2.72
420.193	2.88
420.397	2.91
420.601	3.06
420.804	3.23
421.008	3.19
421.212	3.31
421.416	3.25
421.62	3.37
421.823	3.4
422.027	3.54
422.231	3.53
422.435	3.55
422.638	3.67
422.842	3.71
423.046	3.81
423.249	4.04
423.453	3.98
423.657	4.25
423.86	4.26
424.064	4.35
424.268	4.54
424.471	4.65
424.675	4.83
424.878	4.85
425.082	4.96
425.285	5.22
425.489	5.18
425.692	5.34
425.896	5.37
426.099	5.62
426.303	5.66
426.506	5.84
426.71	6.03
426.913	6.22
427.116	6.42
427.32	6.4
427.523	6.53
427.726	6.91
427.93	6.89
428.133	7.26
428.336	7.44
428.54	7.52
428.743	7.74
428.946	8.11
429.149	8.07
429.353	8.08
429.556	8.1
429.759	8.22
429.962	8.43
430.165	8.54
430.368	8.21
430.571	8.19
430.775	8.18
430.978	8.22
431.181	8.23
431.384	8.42
431.587	8.5
431.79	8.89
431.993	8.79
432.196	9
432.399	9.42
432.602	9.56
432.805	9.61
433.008	10.27
433.211	10.07
433.414	10.38
433.616	10.44
433.819	10.44
434.022	10.57
434.225	10.69
434.428	10.69
434.631	11.18
434.833	10.96
435.036	11.18
435.239	11.45
435.442	11.39
435.645	11.6
435.847	11.69
436.05	12
436.253	12.16
436.455	12.31
436.658	12.18
436.861	12.47
437.063	12.71
437.266	12.51
437.468	12.99
437.671	13.21
437.874	13.21
438.076	13.16
438.279	13.45
438.481	13.66
438.684	14.32
438.886	13.93
439.089	14.19
439.291	14.19
439.494	14.62
439.696	14.84
439.899	15.45
440.101	15.8
440.303	15.95
440.506	16.63
440.708	16.44
440.91	16.64
441.113	16.8
441.315	17.25
441.517	17.1
441.72	17.36
441.922	16.97
442.124	17.01
442.326	17.43
442.529	17.59
442.731	17.45
442.933	17.91
443.135	17.62
443.337	17.73
443.539	18.12
443.742	17.9
443.944	18.55
444.146	18.13
444.348	18.27
444.55	18.01
444.752	18.18
444.954	18.23
445.156	18.18
445.358	18.59
445.56	18.9
445.762	18.54
445.964	18.94
446.166	18.68
446.368	18.63
446.57	18.77
446.772	18.3
446.974	18
447.175	18.12
447.377	17.89
447.579	18.17
447.781	18.02
447.983	17.77
448.184	17.46
448.386	17.75
448.588	17.29
448.79	17.24
448.991	17.52
449.193	17.49
449.395	16.81
449.597	16.4
449.798	16.34
450	15.92
450.202	15.76
450.403	15.87
450.605	15.62
450.806	15.14
451.008	15.19
451.21	14.87
451.411	14.56
451.613	13.77
451.814	13.89
452.016	13.82
452.217	13.19
452.419	13.25
452.62	12.91
452.821	12.64
453.023	12.54
453.224	12.11
453.426	11.76
453.627	11
453.828	11.03
454.03	11.23
454.231	11.14
454.432	10.96
454.634	10.6
454.835	10.41
455.036	10.38
455.238	10.01
455.439	9.62
455.64	9.51
455.841	9.29
456.042	9.42
456.244	9.06
456.445	8.79
456.646	8.54
456.847	8.49
457.048	8.42
457.249	8.33
457.45	8.08
457.651	7.61
457.852	7.52
458.054	7.15
458.255	7.11
458.456	7.19
458.657	7.09
458.858	6.73
459.058	6.56
459.259	6.65
459.46	6.37
459.661	6.29
459.862	6.37
460.063	6.27
460.264	6.15
460.465	5.92
460.666	6.04
460.866	5.63
461.067	5.49
461.268	5.59
461.469	5.34
461.67	5.31
461.87	5.14
462.071	5.09
462.272	5.08
462.473	5.06
462.673	5.22
462.874	5.17
463.075	4.98
463.275	5.05
463.476	5.13
463.676	4.98
463.877	4.92
464.078	4.91
464.278	4.91
464.479	4.81
464.679	4.69
464.88	4.67
465.08	4.59
465.281	4.42
465.481	4.27
465.682	4.11
465.882	4.17
466.083	4.01
466.283	4.01
466.483	3.82
466.684	3.69
466.884	3.52
467.085	3.65
467.285	3.65
467.485	3.57
467.686	3.46
467.886	3.37
468.086	3.29
468.286	3.34
468.487	3.44
468.687	3.13
468.887	3.14
469.087	3.28
469.287	3.16
469.488	3.03
469.688	3.15
469.888	3.15
470.088	3.09
470.288	3.02
470.488	3.02
470.688	2.86
470.888	2.85
471.088	2.68
471.288	2.8
471.488	2.73
471.688	2.63
471.888	2.6
472.088	2.85
472.288	2.7
472.488	2.58
472.688	2.55
472.888	2.59
473.088	2.61
473.288	2.44
473.488	2.47
473.688	2.61
473.887	2.43
474.087	2.43
474.287	2.38
474.487	2.27
474.687	2.43
474.886	2.39
475.086	2.33
475.286	2.26
475.486	2.23
475.685	2.21
475.885	2.18
476.085	2.24
476.284	2.27
476.484	2.19
476.684	2.21
476.883	2.31
477.083	2.13
477.282	2.09
477.482	2.18
477.681	2.15
477.881	2.07
478.08	2.09
478.28	2
478.479	2.09
478.679	2.21
478.878	2.04
479.078	2.05
479.277	2.06
479.477	2.02
479.676	1.97
479.875	1.97
480.075	1.93
480.274	2.03
480.473	2.02
480.673	2.01
480.872	2.1
481.071	2.05
481.271	2.02
481.47	1.99
481.669	2.01
481.868	1.96
482.067	1.96
482.267	1.95
482.466	1.91
482.665	1.9
482.864	1.93
483.063	1.95
483.262	2.03
483.461	2.01
483.661	2.06
483.86	1.99
484.059	2.04
484.258	1.98
484.457	1.98
484.656	2
484.855	2.03
485.054	1.91
485.253	1.95
485.452	1.98
485.651	2.04
485.849	1.99
486.048	1.99
486.247	2.03
486.446	2.06
486.645	2.02
486.844	2.07
487.043	2.01
487.241	2.09
487.44	2.05
487.639	2.1
487.838	2.1
488.037	2.13
488.235	2.19
488.434	2.19
488.633	1.98
488.831	2.21
489.03	2.19
489.229	2.22
489.427	2.2
489.626	2.26
489.825	2.27
490.023	2.31
490.222	2.23
490.42	2.32
490.619	2.34
490.817	2.36
491.016	2.31
491.214	2.41
491.413	2.38
491.611	2.37
491.81	2.38
492.008	2.47
492.207	2.54
492.405	2.54
492.604	2.44
492.802	2.57
493	2.62
493.199	2.59
493.397	2.66
493.595	2.72
493.794	2.65
493.992	2.79
494.19	2.73
494.388	2.83
494.587	2.73
494.785	2.77
494.983	2.72
495.181	2.85
495.379	2.86
495.578	2.96
495.776	2.98
495.974	2.94
496.172	2.96
496.37	3.13
496.568	3.11
496.766	3.04
496.964	3.17
497.162	3.21
497.36	3.21
497.558	3.22
497.756	3.33
497.954	3.27
498.152	3.38
498.35	3.46
498.548	3.34
498.746	3.39
498.944	3.41
499.142	3.43
499.34	3.53
499.538	3.65
499.736	3.51
499.933	3.64
500.131	3.66
500.329	3.76
500.527	3.79
500.725	3.84
500.922	3.88
501.12	3.92
501.318	3.98
501.516	3.92
501.713	4.01
501.911	4.01
502.109	3.98
502.306	4.12
502.504	4.03
