Data from Apollo_Calib_20240827__AbsoluteIrradiance__810__12-39-00-515.txt Node

Date: Wed Aug 28 12:39:00 BST 2024
User: biology
Spectrometer: FLMT08252
Trigger mode: 0
Integration Time (sec): 5.000000E-1
Scans to average: 5
Electric dark correction enabled: true
Nonlinearity correction enabled: false
Boxcar width: 0
XAxis mode: Wavelengths
Number of Pixels in Spectrum: 3648
>>>>>Begin Spectral Data<<<<<
179.588	-0
179.809	-0
180.03	-0
180.251	-0
180.473	-0
180.694	0
180.915	0
181.136	-0
181.357	0
181.578	-0
181.799	0
182.02	-0
182.241	-0
182.462	-0
182.683	0
182.904	-0
183.125	-0
183.346	0
183.567	0
183.788	0
184.009	0
184.23	0
184.451	0
184.672	0
184.892	0
185.113	0
185.334	0
185.555	0
185.776	0
185.996	0
186.217	0
186.438	0
186.659	0
186.879	0
187.1	0
187.321	0
187.541	0
187.762	0
187.983	0
188.203	0
188.424	0
188.644	0
188.865	0
189.086	0
189.306	0
189.527	0
189.747	0
189.968	0
190.188	0
190.409	0
190.629	0
190.849	0
191.07	0
191.29	0
191.511	0
191.731	0
191.951	0
192.172	0
192.392	0
192.612	0
192.833	0
193.053	0
193.273	0
193.493	0
193.714	0
193.934	0
194.154	0
194.374	0
194.594	0
194.815	0
195.035	0
195.255	0
195.475	0
195.695	0
195.915	0
196.135	0
196.355	0
196.575	0
196.795	0
197.015	0
197.235	0
197.455	0
197.675	0
197.895	0
198.115	0
198.335	0
198.555	0
198.775	0
198.995	0
199.214	0
199.434	0
199.654	0
199.874	0
200.094	4.61
200.313	2.58
200.533	1.79
200.753	1.04
200.973	3.87
201.192	3.26
201.412	1.81
201.632	1.93
201.851	2.66
202.071	1.64
202.291	1.41
202.51	1.25
202.73	2.47
202.95	1.63
203.169	1.18
203.389	2.14
203.608	1.89
203.828	1.81
204.047	1.28
204.267	1.99
204.486	2.37
204.706	2.07
204.925	1.56
205.145	1.73
205.364	2.34
205.583	2.64
205.803	1.16
206.022	1.03
206.242	1.79
206.461	1.71
206.68	1.12
206.9	1.5
207.119	2.84
207.338	2.08
207.557	1.19
207.777	1.17
207.996	1.35
208.215	2.11
208.434	0.95
208.654	0.87
208.873	1.75
209.092	2.21
209.311	0.94
209.53	1.34
209.749	1.17
209.968	0.93
210.187	0.73
210.407	0.64
210.626	1.16
210.845	1.5
211.064	1.22
211.283	0.88
211.502	1.87
211.721	1.31
211.94	0.88
212.159	1.53
212.377	1.41
212.596	1.33
212.815	1.37
213.034	1.17
213.253	1.47
213.472	1.4
213.691	0.71
213.91	0.81
214.128	0.85
214.347	1.73
214.566	0.5
214.785	0.7
215.003	1.23
215.222	1.12
215.441	0.87
215.66	0.5
215.878	0.92
216.097	1.3
216.316	0.68
216.534	0.86
216.753	1.07
216.972	0.99
217.19	1
217.409	0.52
217.627	0.87
217.846	0.88
218.064	0.91
218.283	0.72
218.501	1.42
218.72	1.05
218.938	0.67
219.157	0.79
219.375	1.19
219.594	1.15
219.812	0.39
220.031	0.43
220.249	1.23
220.467	1.13
220.686	0.7
220.904	0.54
221.122	0.68
221.341	1.27
221.559	0.93
221.777	0.5
221.995	0.9
222.214	0.99
222.432	0.4
222.65	0.87
222.868	0.72
223.086	0.7
223.305	1.05
223.523	0.59
223.741	1.17
223.959	0.72
224.177	0.33
224.395	0.45
224.613	0.95
224.831	0.94
225.049	0.44
225.267	0.61
225.485	0.81
225.703	0.51
225.921	0.59
226.139	0.52
226.357	0.77
226.575	0.84
226.793	0.47
227.011	1.52
227.229	0.76
227.447	0.94
227.665	0.5
227.883	0.33
228.1	0.66
228.318	0.96
228.536	0.22
228.754	0.33
228.972	0.84
229.189	0.69
229.407	0.45
229.625	0.57
229.843	0.78
230.06	0.8
230.278	0.55
230.496	0.52
230.713	0.77
230.931	0.84
231.149	0.48
231.366	0.33
231.584	0.55
231.801	0.99
232.019	0.55
232.236	0.5
232.454	0.47
232.671	0.73
232.889	0.47
233.106	0.43
233.324	0.65
233.541	0.59
233.759	0.57
233.976	0.48
234.194	0.46
234.411	0.63
234.628	0.36
234.846	0.47
235.063	0.54
235.28	0.61
235.498	0.53
235.715	0.41
235.932	0.74
236.149	0.41
236.367	0.4
236.584	0.55
236.801	0.53
237.018	0.62
237.236	0.48
237.453	0.31
237.67	0.69
237.887	0.49
238.104	0.48
238.321	0.43
238.538	0.38
238.755	0.72
238.973	0.3
239.19	0.46
239.407	0.67
239.624	0.59
239.841	0.34
240.058	0.27
240.275	0.52
240.492	0.45
240.709	0.41
240.925	0.41
241.142	0.49
241.359	0.34
241.576	0.37
241.793	0.38
242.01	0.43
242.227	0.62
242.444	0.56
242.66	0.65
242.877	0.61
243.094	0.4
243.311	0.45
243.527	0.5
243.744	0.46
243.961	0.56
244.178	0.35
244.394	0.43
244.611	0.55
244.828	0.62
245.044	0.27
245.261	0.43
245.477	0.47
245.694	0.65
245.911	0.28
246.127	0.4
246.344	0.69
246.56	0.56
246.777	0.36
246.993	0.39
247.21	0.5
247.426	0.45
247.643	0.37
247.859	0.34
248.076	0.35
248.292	0.69
248.508	0.37
248.725	0.54
248.941	0.53
249.157	0.6
249.374	0.4
249.59	0.42
249.806	0.41
250.023	0.48
250.239	0.39
250.455	0.28
250.671	0.5
250.888	0.52
251.104	0.46
251.32	0.33
251.536	0.44
251.752	0.37
251.969	0.39
252.185	0.38
252.401	0.62
252.617	0.5
252.833	0.31
253.049	0.38
253.265	0.4
253.481	0.4
253.697	0.45
253.913	0.34
254.129	0.43
254.345	0.42
254.561	0.37
254.777	0.29
254.993	0.42
255.209	0.47
255.425	0.27
255.641	0.31
255.857	0.58
256.073	0.45
256.288	0.24
256.504	0.36
256.72	0.48
256.936	0.55
257.152	0.42
257.367	0.31
257.583	0.44
257.799	0.5
258.015	0.33
258.23	0.32
258.446	0.59
258.662	0.43
258.877	0.28
259.093	0.31
259.309	0.39
259.524	0.48
259.74	0.31
259.955	0.23
260.171	0.38
260.387	0.34
260.602	0.41
260.818	0.45
261.033	0.25
261.249	0.41
261.464	0.33
261.68	0.3
261.895	0.43
262.11	0.46
262.326	0.31
262.541	0.26
262.757	0.47
262.972	0.43
263.187	0.33
263.403	0.4
263.618	0.48
263.833	0.41
264.049	0.3
264.264	0.3
264.479	0.39
264.694	0.58
264.91	0.26
265.125	0.33
265.34	0.49
265.555	0.62
265.77	0.4
265.986	0.29
266.201	0.47
266.416	0.51
266.631	0.26
266.846	0.28
267.061	0.44
267.276	0.47
267.491	0.15
267.706	0.48
267.921	0.41
268.136	0.43
268.351	0.31
268.566	0.29
268.781	0.51
268.996	0.41
269.211	0.36
269.426	0.31
269.641	0.3
269.856	0.45
270.071	0.29
270.285	0.29
270.5	0.43
270.715	0.41
270.93	0.31
271.145	0.39
271.359	0.44
271.574	0.28
271.789	0.3
272.004	0.31
272.218	0.34
272.433	0.47
272.648	0.31
272.862	0.4
273.077	0.42
273.292	0.31
273.506	0.21
273.721	0.35
273.936	0.38
274.15	0.4
274.365	0.23
274.579	0.37
274.794	0.38
275.008	0.44
275.223	0.23
275.437	0.31
275.652	0.44
275.866	0.4
276.081	0.3
276.295	0.38
276.509	0.34
276.724	0.35
276.938	0.31
277.153	0.39
277.367	0.41
277.581	0.24
277.796	0.32
278.01	0.23
278.224	0.37
278.438	0.47
278.653	0.26
278.867	0.25
279.081	0.39
279.295	0.31
279.51	0.32
279.724	0.2
279.938	0.35
280.152	0.37
280.366	0.3
280.58	0.33
280.794	0.49
281.008	0.4
281.222	0.4
281.437	0.5
281.651	0.38
281.865	0.4
282.079	0.28
282.293	0.18
282.507	0.25
282.721	0.35
282.935	0.32
283.148	0.15
283.362	0.29
283.576	0.23
283.79	0.33
284.004	0.3
284.218	0.41
284.432	0.23
284.646	0.31
284.859	0.26
285.073	0.24
285.287	0.36
285.501	0.28
285.714	0.26
285.928	0.29
286.142	0.32
286.356	0.28
286.569	0.26
286.783	0.41
286.997	0.44
287.21	0.31
287.424	0.22
287.637	0.28
287.851	0.25
288.065	0.34
288.278	0.28
288.492	0.29
288.705	0.24
288.919	0.32
289.132	0.2
289.346	0.34
289.559	0.23
289.773	0.24
289.986	0.28
290.2	0.26
290.413	0.3
290.626	0.25
290.84	0.25
291.053	0.29
291.267	0.4
291.48	0.32
291.693	0.26
291.906	0.23
292.12	0.31
292.333	0.21
292.546	0.25
292.76	0.42
292.973	0.34
293.186	0.31
293.399	0.25
293.612	0.34
293.826	0.29
294.039	0.23
294.252	0.24
294.465	0.34
294.678	0.31
294.891	0.26
295.104	0.25
295.317	0.23
295.53	0.36
295.743	0.28
295.956	0.23
296.169	0.4
296.382	0.34
296.595	0.26
296.808	0.24
297.021	0.35
297.234	0.33
297.447	0.26
297.66	0.26
297.873	0.37
298.086	0.32
298.299	0.18
298.511	0.19
298.724	0.27
298.937	0.23
299.15	0.21
299.363	0.21
299.575	0.31
299.788	0.27
300.001	0.23
300.213	0.17
300.426	0.25
300.639	0.21
300.852	0.18
301.064	0.3
301.277	0.35
301.489	0.34
301.702	0.32
301.915	0.23
302.127	0.26
302.34	0.31
302.552	0.28
302.765	0.21
302.977	0.33
303.19	0.26
303.402	0.26
303.615	0.2
303.827	0.27
304.04	0.26
304.252	0.28
304.464	0.2
304.677	0.41
304.889	0.33
305.102	0.3
305.314	0.25
305.526	0.27
305.739	0.29
305.951	0.19
306.163	0.18
306.375	0.34
306.588	0.22
306.8	0.2
307.012	0.24
307.224	0.3
307.436	0.34
307.649	0.14
307.861	0.26
308.073	0.3
308.285	0.22
308.497	0.2
308.709	0.23
308.921	0.3
309.133	0.32
309.346	0.23
309.558	0.23
309.77	0.29
309.982	0.36
310.194	0.26
310.406	0.21
310.617	0.32
310.829	0.27
311.041	0.33
311.253	0.22
311.465	0.27
311.677	0.26
311.889	0.26
312.101	0.24
312.313	0.31
312.524	0.37
312.736	0.17
312.948	0.21
313.16	0.37
313.372	0.29
313.583	0.3
313.795	0.25
314.007	0.28
314.218	0.31
314.43	0.26
314.642	0.21
314.853	0.21
315.065	0.31
315.277	0.25
315.488	0.24
315.7	0.3
315.912	0.36
316.123	0.22
316.335	0.23
316.546	0.39
316.758	0.23
316.969	0.26
317.181	0.28
317.392	0.29
317.604	0.36
317.815	0.2
318.026	0.27
318.238	0.24
318.449	0.3
318.661	0.18
318.872	0.2
319.083	0.19
319.295	0.31
319.506	0.23
319.717	0.28
319.929	0.27
320.14	0.25
320.351	0.27
320.562	0.22
320.774	0.27
320.985	0.31
321.196	0.23
321.407	0.15
321.618	0.36
321.829	0.29
322.041	0.33
322.252	0.28
322.463	0.3
322.674	0.29
322.885	0.23
323.096	0.24
323.307	0.32
323.518	0.28
323.729	0.21
323.94	0.22
324.151	0.21
324.362	0.27
324.573	0.28
324.784	0.23
324.995	0.31
325.206	0.25
325.417	0.21
325.628	0.24
325.838	0.28
326.049	0.28
326.26	0.25
326.471	0.24
326.682	0.27
326.892	0.27
327.103	0.2
327.314	0.23
327.525	0.34
327.735	0.33
327.946	0.27
328.157	0.24
328.368	0.31
328.578	0.24
328.789	0.25
328.999	0.27
329.21	0.27
329.421	0.31
329.631	0.18
329.842	0.2
330.052	0.25
330.263	0.29
330.473	0.32
330.684	0.22
330.894	0.24
331.105	0.26
331.315	0.24
331.526	0.19
331.736	0.32
331.947	0.28
332.157	0.29
332.367	0.19
332.578	0.34
332.788	0.32
332.999	0.31
333.209	0.23
333.419	0.21
333.629	0.31
333.84	0.3
334.05	0.25
334.26	0.35
334.47	0.29
334.681	0.3
334.891	0.2
335.101	0.29
335.311	0.37
335.521	0.25
335.732	0.25
335.942	0.34
336.152	0.27
336.362	0.27
336.572	0.27
336.782	0.32
336.992	0.25
337.202	0.25
337.412	0.25
337.622	0.28
337.832	0.28
338.042	0.28
338.252	0.22
338.462	0.25
338.672	0.27
338.882	0.25
339.092	0.25
339.302	0.3
339.511	0.31
339.721	0.23
339.931	0.2
340.141	0.31
340.351	0.35
340.561	0.29
340.77	0.26
340.98	0.27
341.19	0.28
341.4	0.25
341.609	0.2
341.819	0.25
342.029	0.19
342.238	0.3
342.448	0.23
342.658	0.27
342.867	0.29
343.077	0.26
343.286	0.28
343.496	0.3
343.706	0.36
343.915	0.18
344.125	0.26
344.334	0.25
344.544	0.2
344.753	0.24
344.963	0.22
345.172	0.24
345.381	0.17
345.591	0.19
345.8	0.23
346.01	0.3
346.219	0.3
346.428	0.12
346.638	0.24
346.847	0.27
347.056	0.32
347.266	0.24
347.475	0.22
347.684	0.29
347.893	0.33
348.103	0.25
348.312	0.22
348.521	0.26
348.73	0.27
348.94	0.25
349.149	0.24
349.358	0.23
349.567	0.21
349.776	0.19
349.985	0.21
350.194	0.31
350.403	0.31
350.612	0.17
350.821	0.21
351.03	0.3
351.239	0.17
351.448	0.24
351.657	0.19
351.866	0.32
352.075	0.27
352.284	0.32
352.493	0.18
352.702	0.31
352.911	0.26
353.12	0.27
353.329	0.24
353.538	0.31
353.746	0.24
353.955	0.18
354.164	0.29
354.373	0.25
354.582	0.31
354.79	0.25
354.999	0.26
355.208	0.24
355.416	0.37
355.625	0.19
355.834	0.2
356.042	0.28
356.251	0.23
356.46	0.21
356.668	0.32
356.877	0.36
357.085	0.26
357.294	0.19
357.503	0.27
357.711	0.26
357.92	0.44
358.128	0.22
358.337	0.25
358.545	0.28
358.754	0.22
358.962	0.28
359.17	0.22
359.379	0.29
359.587	0.23
359.796	0.25
360.004	0.34
360.212	0.25
360.421	0.27
360.629	0.2
360.837	0.22
361.046	0.32
361.254	0.4
361.462	0.23
361.67	0.25
361.879	0.28
362.087	0.32
362.295	0.25
362.503	0.2
362.711	0.2
362.92	0.21
363.128	0.23
363.336	0.18
363.544	0.18
363.752	0.23
363.96	0.22
364.168	0.2
364.376	0.24
364.584	0.3
364.792	0.35
365	0.26
365.208	0.29
365.416	0.3
365.624	0.32
365.832	0.24
366.04	0.34
366.248	0.3
366.456	0.26
366.664	0.21
366.872	0.25
367.079	0.25
367.287	0.26
367.495	0.22
367.703	0.24
367.911	0.24
368.118	0.26
368.326	0.24
368.534	0.2
368.742	0.35
368.949	0.2
369.157	0.2
369.365	0.33
369.572	0.23
369.78	0.26
369.988	0.3
370.195	0.3
370.403	0.32
370.61	0.25
370.818	0.26
371.026	0.38
371.233	0.2
371.441	0.26
371.648	0.21
371.856	0.29
372.063	0.29
372.271	0.24
372.478	0.21
372.685	0.26
372.893	0.37
373.1	0.28
373.308	0.25
373.515	0.35
373.722	0.29
373.93	0.23
374.137	0.31
374.344	0.37
374.552	0.3
374.759	0.32
374.966	0.23
375.173	0.23
375.381	0.34
375.588	0.24
375.795	0.18
376.002	0.24
376.209	0.22
376.417	0.23
376.624	0.3
376.831	0.31
377.038	0.27
377.245	0.19
377.452	0.23
377.659	0.29
377.866	0.23
378.073	0.25
378.28	0.24
378.487	0.32
378.694	0.35
378.901	0.3
379.108	0.25
379.315	0.31
379.522	0.39
379.729	0.3
379.936	0.27
380.143	0.28
380.35	0.25
380.557	0.25
380.763	0.25
380.97	0.27
381.177	0.27
381.384	0.27
381.591	0.2
381.797	0.29
382.004	0.32
382.211	0.28
382.418	0.24
382.624	0.33
382.831	0.32
383.038	0.26
383.244	0.3
383.451	0.29
383.658	0.28
383.864	0.25
384.071	0.21
384.277	0.38
384.484	0.29
384.69	0.35
384.897	0.21
385.103	0.24
385.31	0.26
385.516	0.28
385.723	0.22
385.929	0.3
386.136	0.26
386.342	0.3
386.549	0.22
386.755	0.34
386.961	0.37
387.168	0.25
387.374	0.26
387.58	0.35
387.787	0.28
387.993	0.26
388.199	0.29
388.406	0.23
388.612	0.26
388.818	0.25
389.024	0.23
389.231	0.25
389.437	0.41
389.643	0.3
389.849	0.26
390.055	0.3
390.261	0.3
390.467	0.32
390.674	0.29
390.88	0.32
391.086	0.3
391.292	0.26
391.498	0.32
391.704	0.36
391.91	0.27
392.116	0.27
392.322	0.2
392.528	0.31
392.734	0.32
392.94	0.3
393.146	0.27
393.352	0.34
393.557	0.28
393.763	0.3
393.969	0.35
394.175	0.32
394.381	0.29
394.587	0.24
394.792	0.29
394.998	0.35
395.204	0.34
395.41	0.29
395.615	0.32
395.821	0.4
396.027	0.4
396.233	0.31
396.438	0.36
396.644	0.36
396.85	0.35
397.055	0.32
397.261	0.38
397.466	0.45
397.672	0.37
397.878	0.34
398.083	0.36
398.289	0.28
398.494	0.41
398.7	0.39
398.905	0.24
399.111	0.45
399.316	0.3
399.522	0.37
399.727	0.31
399.932	0.35
400.138	0.31
400.343	0.41
400.549	0.33
400.754	0.43
400.959	0.37
401.165	0.34
401.37	0.35
401.575	0.44
401.78	0.38
401.986	0.38
402.191	0.36
402.396	0.39
402.601	0.41
402.807	0.4
403.012	0.36
403.217	0.51
403.422	0.36
403.627	0.41
403.832	0.33
404.037	0.49
404.243	0.47
404.448	0.4
404.653	0.43
404.858	0.49
405.063	0.46
405.268	0.39
405.473	0.35
405.678	0.43
405.883	0.7
406.088	0.53
406.293	0.43
406.498	0.43
406.703	0.53
406.907	0.51
407.112	0.41
407.317	0.51
407.522	0.59
407.727	0.49
407.932	0.52
408.136	0.69
408.341	0.5
408.546	0.6
408.751	0.63
408.956	0.59
409.16	0.64
409.365	0.66
409.57	0.58
409.774	0.63
409.979	0.68
410.184	0.73
410.388	0.64
410.593	0.8
410.798	0.7
411.002	0.73
411.207	0.8
411.411	0.82
411.616	0.77
411.82	0.85
412.025	0.86
412.229	0.86
412.434	1
412.638	0.9
412.843	0.89
413.047	0.98
413.252	0.93
413.456	1.03
413.66	1.1
413.865	1.07
414.069	1.18
414.273	1.11
414.478	1.18
414.682	1.21
414.886	1.21
415.091	1.22
415.295	1.24
415.499	1.39
415.703	1.39
415.908	1.48
416.112	1.37
416.316	1.7
416.52	1.64
416.724	1.61
416.929	1.64
417.133	1.87
417.337	1.79
417.541	1.92
417.745	1.88
417.949	1.97
418.153	2.07
418.357	2.1
418.561	2.34
418.765	2.26
418.969	2.41
419.173	2.41
419.377	2.47
419.581	2.75
419.785	2.73
419.989	2.66
420.193	2.86
420.397	2.91
420.601	3.18
420.804	3.19
421.008	3.21
421.212	3.32
421.416	3.33
421.62	3.33
421.823	3.43
422.027	3.64
422.231	3.6
422.435	3.58
422.638	3.67
422.842	3.86
423.046	3.87
423.249	3.98
423.453	4.02
423.657	4.2
423.86	4.27
424.064	4.44
424.268	4.62
424.471	4.59
424.675	4.88
424.878	4.91
425.082	4.91
425.285	5.3
425.489	5.14
425.692	5.31
425.896	5.41
426.099	5.59
426.303	5.78
426.506	5.86
426.71	6.14
426.913	6.4
427.116	6.43
427.32	6.43
427.523	6.54
427.726	6.82
427.93	6.94
428.133	7.24
428.336	7.47
428.54	7.51
428.743	7.74
428.946	8.08
429.149	8.07
429.353	8.09
429.556	8.13
429.759	8.16
429.962	8.34
430.165	8.46
430.368	8.14
430.571	8.14
430.775	8.22
430.978	8.16
431.181	8.22
431.384	8.4
431.587	8.45
431.79	8.85
431.993	8.77
432.196	9.14
432.399	9.35
432.602	9.48
432.805	9.61
433.008	10.1
433.211	10.14
433.414	10.56
433.616	10.43
433.819	10.4
434.022	10.51
434.225	10.64
434.428	10.65
434.631	11.15
434.833	11.02
435.036	11.21
435.239	11.39
435.442	11.48
435.645	11.58
435.847	11.7
436.05	12.12
436.253	12.23
436.455	12.28
436.658	12.02
436.861	12.49
437.063	12.57
437.266	12.56
437.468	12.9
437.671	13.23
437.874	13.27
438.076	13.11
438.279	13.58
438.481	13.59
438.684	14.31
438.886	13.95
439.089	14.27
439.291	14.27
439.494	14.57
439.696	14.78
439.899	15.43
440.101	15.88
440.303	15.88
440.506	16.67
440.708	16.54
440.91	16.66
441.113	16.77
441.315	17.22
441.517	16.86
441.72	17.33
441.922	17.05
442.124	16.95
442.326	17.28
442.529	17.54
442.731	17.49
442.933	17.88
443.135	17.59
443.337	17.57
443.539	18.11
443.742	17.9
443.944	18.52
444.146	18.27
444.348	18.26
444.55	18.01
444.752	18.3
444.954	18.21
445.156	18.08
445.358	18.57
445.56	18.84
445.762	18.55
445.964	18.85
446.166	18.51
446.368	18.6
446.57	18.64
446.772	18.22
446.974	18.06
447.175	18.34
447.377	17.92
447.579	18.47
447.781	18.01
447.983	17.88
448.184	17.35
448.386	17.87
448.588	17.21
448.79	17.22
448.991	17.44
449.193	17.54
449.395	16.88
449.597	16.53
449.798	16.43
450	15.85
450.202	15.8
450.403	15.88
450.605	15.67
450.806	15.23
451.008	15.13
451.21	14.91
451.411	14.46
451.613	13.69
451.814	13.97
452.016	14.03
452.217	13.22
452.419	13.14
452.62	12.93
452.821	12.72
453.023	12.48
453.224	12.11
453.426	11.77
453.627	10.93
453.828	11.08
454.03	11.27
454.231	11.16
454.432	10.91
454.634	10.67
454.835	10.41
455.036	10.23
455.238	9.95
455.439	9.86
455.64	9.43
455.841	9.19
456.042	9.31
456.244	9.1
456.445	8.79
456.646	8.52
456.847	8.5
457.048	8.41
457.249	8.41
457.45	8.18
457.651	7.56
457.852	7.48
458.054	7.26
458.255	7.18
458.456	7.31
458.657	7.16
458.858	6.65
459.058	6.6
459.259	6.66
459.46	6.29
459.661	6.33
459.862	6.47
460.063	6.28
460.264	6.19
460.465	5.93
460.666	6.04
460.866	5.72
461.067	5.43
461.268	5.46
461.469	5.44
461.67	5.41
461.87	5.18
462.071	5.19
462.272	5.1
462.473	4.97
462.673	5.27
462.874	5.05
463.075	5.12
463.275	5.1
463.476	5.08
463.676	5.06
463.877	4.85
464.078	4.96
464.278	4.97
464.479	4.81
464.679	4.64
464.88	4.61
465.08	4.66
465.281	4.48
465.481	4.27
465.682	4.07
465.882	4.09
466.083	4.03
466.283	4
466.483	3.85
466.684	3.73
466.884	3.59
467.085	3.61
467.285	3.75
467.485	3.58
467.686	3.49
467.886	3.36
468.086	3.37
468.286	3.32
468.487	3.39
468.687	3.25
468.887	3.17
469.087	3.35
469.287	3.19
469.488	3.02
469.688	3.15
469.888	3.18
470.088	3.06
470.288	3.02
470.488	3.03
470.688	2.8
470.888	2.83
471.088	2.62
471.288	2.79
471.488	2.74
471.688	2.72
471.888	2.67
472.088	2.82
472.288	2.75
472.488	2.61
472.688	2.59
472.888	2.59
473.088	2.61
473.288	2.44
473.488	2.4
473.688	2.59
473.887	2.4
474.087	2.34
474.287	2.42
474.487	2.35
474.687	2.39
474.886	2.27
475.086	2.3
475.286	2.26
475.486	2.26
475.685	2.22
475.885	2.18
476.085	2.24
476.284	2.3
476.484	2.25
476.684	2.15
476.883	2.21
477.083	2.19
477.282	2.13
477.482	2.18
477.681	2.12
477.881	2.06
478.08	2.11
478.28	2.03
478.479	2.08
478.679	2.18
478.878	2.09
479.078	2.02
479.277	2.08
479.477	2.03
479.676	2.02
479.875	1.95
480.075	1.93
480.274	2.01
480.473	2.02
480.673	1.96
480.872	2.05
481.071	2.07
481.271	2.03
481.47	1.97
481.669	1.96
481.868	1.97
482.067	1.97
482.267	1.91
482.466	1.89
482.665	1.91
482.864	1.95
483.063	1.91
483.262	1.99
483.461	2.04
483.661	2.03
483.86	2.02
484.059	2.07
484.258	2.05
484.457	1.99
484.656	2.02
484.855	2.03
485.054	1.92
485.253	2.02
485.452	1.99
485.651	2.08
485.849	2
486.048	1.99
486.247	2.02
486.446	2.06
486.645	2.04
486.844	2.06
487.043	2.01
487.241	2.06
487.44	2.08
487.639	2.14
487.838	2.14
488.037	2.09
488.235	2.18
488.434	2.17
488.633	2.06
488.831	2.21
489.03	2.23
489.229	2.2
489.427	2.18
489.626	2.27
489.825	2.29
490.023	2.28
490.222	2.26
490.42	2.32
490.619	2.32
490.817	2.36
491.016	2.37
491.214	2.4
491.413	2.38
491.611	2.36
491.81	2.42
492.008	2.49
492.207	2.57
492.405	2.54
492.604	2.44
492.802	2.54
493	2.6
493.199	2.64
493.397	2.64
493.595	2.72
493.794	2.7
493.992	2.76
494.19	2.72
494.388	2.84
494.587	2.73
494.785	2.77
494.983	2.71
495.181	2.88
495.379	2.92
495.578	2.97
495.776	2.98
495.974	2.93
496.172	2.94
496.37	3.07
496.568	3.1
496.766	3.07
496.964	3.17
497.162	3.25
497.36	3.2
497.558	3.21
497.756	3.28
497.954	3.26
498.152	3.38
498.35	3.45
498.548	3.33
498.746	3.4
498.944	3.42
499.142	3.45
499.34	3.57
499.538	3.62
499.736	3.49
499.933	3.64
500.131	3.61
500.329	3.78
500.527	3.78
500.725	3.9
500.922	3.92
501.12	3.87
501.318	3.98
501.516	3.96
501.713	3.99
501.911	4.01
502.109	3.96
502.306	4.08
502.504	4.01
502.701	4.12
502.899	4.14
