Data from Apollo_Calib_20240827__AbsoluteIrradiance__17__23-26-01-036.txt Node

Date: Tue Aug 27 23:26:01 BST 2024
User: biology
Spectrometer: FLMT08252
Trigger mode: 0
Integration Time (sec): 5.000000E-1
Scans to average: 5
Electric dark correction enabled: true
Nonlinearity correction enabled: false
Boxcar width: 0
XAxis mode: Wavelengths
Number of Pixels in Spectrum: 3648
>>>>>Begin Spectral Data<<<<<
179.588	-0
179.809	-0
180.03	-0
180.251	-0
180.473	-0
180.694	0
180.915	0
181.136	-0
181.357	0
181.578	-0
181.799	-0
182.02	-0
182.241	-0
182.462	-0
182.683	0
182.904	-0
183.125	-0
183.346	0
183.567	0
183.788	0
184.009	0
184.23	0
184.451	0
184.672	0
184.892	0
185.113	0
185.334	0
185.555	0
185.776	0
185.996	0
186.217	0
186.438	0
186.659	0
186.879	0
187.1	0
187.321	0
187.541	0
187.762	0
187.983	0
188.203	0
188.424	0
188.644	0
188.865	0
189.086	0
189.306	0
189.527	0
189.747	0
189.968	0
190.188	0
190.409	0
190.629	0
190.849	0
191.07	0
191.29	0
191.511	0
191.731	0
191.951	0
192.172	0
192.392	0
192.612	0
192.833	0
193.053	0
193.273	0
193.493	0
193.714	0
193.934	0
194.154	0
194.374	0
194.594	0
194.815	0
195.035	0
195.255	0
195.475	0
195.695	0
195.915	0
196.135	0
196.355	0
196.575	0
196.795	0
197.015	0
197.235	0
197.455	0
197.675	0
197.895	0
198.115	0
198.335	0
198.555	0
198.775	0
198.995	0
199.214	0
199.434	0
199.654	0
199.874	0
200.094	4.03
200.313	2.63
200.533	2.78
200.753	1.87
200.973	3.08
201.192	2.91
201.412	1.66
201.632	2.27
201.851	2.9
202.071	1.79
202.291	2.16
202.51	2.12
202.73	2.59
202.95	2.25
203.169	1.71
203.389	2.39
203.608	2.1
203.828	1.46
204.047	2.01
204.267	2.23
204.486	1.59
204.706	2.02
204.925	2
205.145	1.71
205.364	2.19
205.583	2.59
205.803	1.69
206.022	1.52
206.242	1.54
206.461	2.13
206.68	0.99
206.9	1.74
207.119	1.89
207.338	2.23
207.557	1.61
207.777	1.51
207.996	1.02
208.215	1.89
208.434	1.15
208.654	1.5
208.873	1.28
209.092	1.88
209.311	1.47
209.53	1.06
209.749	1.38
209.968	1.06
210.187	1.31
210.407	1.01
210.626	1.27
210.845	1.53
211.064	1.25
211.283	1.03
211.502	1.45
211.721	1.05
211.94	1.26
212.159	1.24
212.377	1.21
212.596	1.48
212.815	1.14
213.034	1.27
213.253	1.33
213.472	1.3
213.691	1.08
213.91	0.81
214.128	0.93
214.347	1.34
214.566	0.66
214.785	0.74
215.003	1.23
215.222	1.29
215.441	1.04
215.66	0.86
215.878	1.01
216.097	1.19
216.316	0.69
216.534	1.03
216.753	0.84
216.972	0.77
217.19	0.92
217.409	0.68
217.627	0.65
217.846	0.85
218.064	0.97
218.283	0.7
218.501	1.25
218.72	1.04
218.938	0.72
219.157	0.76
219.375	1.04
219.594	0.73
219.812	0.67
220.031	0.69
220.249	1.25
220.467	1.07
220.686	0.7
220.904	0.61
221.122	0.63
221.341	1.15
221.559	0.84
221.777	0.69
221.995	0.82
222.214	0.84
222.432	0.72
222.65	1.09
222.868	0.82
223.086	0.77
223.305	0.94
223.523	0.57
223.741	0.87
223.959	0.65
224.177	0.46
224.395	0.68
224.613	0.9
224.831	0.91
225.049	0.41
225.267	0.69
225.485	0.88
225.703	0.72
225.921	0.58
226.139	0.61
226.357	0.83
226.575	0.68
226.793	0.59
227.011	1.19
227.229	0.69
227.447	0.83
227.665	0.43
227.883	0.38
228.1	0.62
228.318	0.67
228.536	0.45
228.754	0.56
228.972	0.7
229.189	0.79
229.407	0.48
229.625	0.78
229.843	0.74
230.06	0.74
230.278	0.45
230.496	0.58
230.713	0.62
230.931	0.69
231.149	0.58
231.366	0.39
231.584	0.56
231.801	0.93
232.019	0.44
232.236	0.49
232.454	0.54
232.671	0.58
232.889	0.5
233.106	0.61
233.324	0.55
233.541	0.61
233.759	0.63
233.976	0.52
234.194	0.6
234.411	0.59
234.628	0.36
234.846	0.42
235.063	0.52
235.28	0.51
235.498	0.57
235.715	0.49
235.932	0.66
236.149	0.46
236.367	0.46
236.584	0.46
236.801	0.51
237.018	0.57
237.236	0.5
237.453	0.54
237.67	0.61
237.887	0.51
238.104	0.48
238.321	0.46
238.538	0.43
238.755	0.62
238.973	0.33
239.19	0.52
239.407	0.47
239.624	0.52
239.841	0.37
240.058	0.44
240.275	0.48
240.492	0.47
240.709	0.61
240.925	0.38
241.142	0.52
241.359	0.41
241.576	0.43
241.793	0.39
242.01	0.43
242.227	0.6
242.444	0.56
242.66	0.59
242.877	0.44
243.094	0.38
243.311	0.58
243.527	0.42
243.744	0.49
243.961	0.61
244.178	0.43
244.394	0.4
244.611	0.57
244.828	0.55
245.044	0.44
245.261	0.44
245.477	0.46
245.694	0.49
245.911	0.39
246.127	0.43
246.344	0.58
246.56	0.51
246.777	0.43
246.993	0.42
247.21	0.36
247.426	0.52
247.643	0.34
247.859	0.43
248.076	0.42
248.292	0.58
248.508	0.37
248.725	0.43
248.941	0.51
249.157	0.46
249.374	0.36
249.59	0.42
249.806	0.33
250.023	0.46
250.239	0.33
250.455	0.3
250.671	0.43
250.888	0.47
251.104	0.51
251.32	0.39
251.536	0.3
251.752	0.4
251.969	0.46
252.185	0.42
252.401	0.6
252.617	0.42
252.833	0.33
253.049	0.4
253.265	0.45
253.481	0.47
253.697	0.38
253.913	0.37
254.129	0.43
254.345	0.35
254.561	0.41
254.777	0.38
254.993	0.5
255.209	0.41
255.425	0.39
255.641	0.32
255.857	0.42
256.073	0.36
256.288	0.33
256.504	0.38
256.72	0.38
256.936	0.46
257.152	0.4
257.367	0.37
257.583	0.36
257.799	0.43
258.015	0.42
258.23	0.33
258.446	0.49
258.662	0.41
258.877	0.28
259.093	0.41
259.309	0.42
259.524	0.39
259.74	0.38
259.955	0.23
260.171	0.4
260.387	0.35
260.602	0.43
260.818	0.43
261.033	0.33
261.249	0.41
261.464	0.37
261.68	0.29
261.895	0.37
262.11	0.45
262.326	0.31
262.541	0.24
262.757	0.41
262.972	0.43
263.187	0.39
263.403	0.35
263.618	0.45
263.833	0.28
264.049	0.26
264.264	0.38
264.479	0.4
264.694	0.43
264.91	0.29
265.125	0.4
265.34	0.42
265.555	0.55
265.77	0.35
265.986	0.37
266.201	0.46
266.416	0.47
266.631	0.35
266.846	0.38
267.061	0.44
267.276	0.39
267.491	0.21
267.706	0.32
267.921	0.4
268.136	0.37
268.351	0.42
268.566	0.25
268.781	0.44
268.996	0.44
269.211	0.42
269.426	0.3
269.641	0.26
269.856	0.45
270.071	0.26
270.285	0.27
270.5	0.43
270.715	0.4
270.93	0.33
271.145	0.35
271.359	0.42
271.574	0.28
271.789	0.38
272.004	0.42
272.218	0.33
272.433	0.37
272.648	0.29
272.862	0.42
273.077	0.32
273.292	0.35
273.506	0.29
273.721	0.37
273.936	0.37
274.15	0.38
274.365	0.27
274.579	0.4
274.794	0.35
275.008	0.37
275.223	0.22
275.437	0.33
275.652	0.43
275.866	0.35
276.081	0.3
276.295	0.37
276.509	0.29
276.724	0.37
276.938	0.33
277.153	0.31
277.367	0.36
277.581	0.23
277.796	0.3
278.01	0.28
278.224	0.37
278.438	0.48
278.653	0.24
278.867	0.32
279.081	0.35
279.295	0.3
279.51	0.41
279.724	0.24
279.938	0.33
280.152	0.4
280.366	0.26
280.58	0.33
280.794	0.4
281.008	0.37
281.222	0.36
281.437	0.45
281.651	0.31
281.865	0.4
282.079	0.26
282.293	0.22
282.507	0.27
282.721	0.28
282.935	0.25
283.148	0.24
283.362	0.25
283.576	0.28
283.79	0.28
284.004	0.28
284.218	0.32
284.432	0.31
284.646	0.25
284.859	0.24
285.073	0.22
285.287	0.34
285.501	0.32
285.714	0.27
285.928	0.32
286.142	0.27
286.356	0.27
286.569	0.28
286.783	0.37
286.997	0.33
287.21	0.28
287.424	0.33
287.637	0.3
287.851	0.33
288.065	0.31
288.278	0.37
288.492	0.35
288.705	0.3
288.919	0.34
289.132	0.2
289.346	0.33
289.559	0.22
289.773	0.24
289.986	0.22
290.2	0.3
290.413	0.31
290.626	0.27
290.84	0.27
291.053	0.29
291.267	0.32
291.48	0.29
291.693	0.3
291.906	0.21
292.12	0.27
292.333	0.22
292.546	0.25
292.76	0.36
292.973	0.32
293.186	0.28
293.399	0.25
293.612	0.28
293.826	0.27
294.039	0.26
294.252	0.25
294.465	0.3
294.678	0.27
294.891	0.29
295.104	0.22
295.317	0.26
295.53	0.27
295.743	0.26
295.956	0.3
296.169	0.35
296.382	0.34
296.595	0.28
296.808	0.23
297.021	0.33
297.234	0.3
297.447	0.25
297.66	0.3
297.873	0.35
298.086	0.3
298.299	0.24
298.511	0.22
298.724	0.28
298.937	0.23
299.15	0.23
299.363	0.29
299.575	0.28
299.788	0.3
300.001	0.22
300.213	0.24
300.426	0.29
300.639	0.22
300.852	0.24
301.064	0.31
301.277	0.31
301.489	0.34
301.702	0.3
301.915	0.28
302.127	0.22
302.34	0.25
302.552	0.29
302.765	0.26
302.977	0.28
303.19	0.22
303.402	0.22
303.615	0.21
303.827	0.22
304.04	0.26
304.252	0.32
304.464	0.25
304.677	0.34
304.889	0.29
305.102	0.24
305.314	0.23
305.526	0.32
305.739	0.32
305.951	0.21
306.163	0.29
306.375	0.32
306.588	0.22
306.8	0.27
307.012	0.2
307.224	0.26
307.436	0.31
307.649	0.16
307.861	0.26
308.073	0.25
308.285	0.24
308.497	0.21
308.709	0.22
308.921	0.3
309.133	0.32
309.346	0.24
309.558	0.2
309.77	0.29
309.982	0.24
310.194	0.29
310.406	0.25
310.617	0.33
310.829	0.28
311.041	0.27
311.253	0.25
311.465	0.25
311.677	0.24
311.889	0.25
312.101	0.2
312.313	0.32
312.524	0.34
312.736	0.2
312.948	0.21
313.16	0.32
313.372	0.33
313.583	0.27
313.795	0.25
314.007	0.24
314.218	0.25
314.43	0.26
314.642	0.24
314.853	0.23
315.065	0.34
315.277	0.26
315.488	0.26
315.7	0.31
315.912	0.27
316.123	0.22
316.335	0.24
316.546	0.38
316.758	0.25
316.969	0.23
317.181	0.25
317.392	0.27
317.604	0.32
317.815	0.22
318.026	0.21
318.238	0.22
318.449	0.28
318.661	0.2
318.872	0.18
319.083	0.23
319.295	0.29
319.506	0.26
319.717	0.27
319.929	0.27
320.14	0.28
320.351	0.24
320.562	0.26
320.774	0.24
320.985	0.26
321.196	0.23
321.407	0.19
321.618	0.29
321.829	0.25
322.041	0.29
322.252	0.25
322.463	0.28
322.674	0.27
322.885	0.18
323.096	0.25
323.307	0.27
323.518	0.27
323.729	0.24
323.94	0.23
324.151	0.21
324.362	0.28
324.573	0.29
324.784	0.24
324.995	0.26
325.206	0.26
325.417	0.23
325.628	0.18
325.838	0.24
326.049	0.24
326.26	0.3
326.471	0.23
326.682	0.29
326.892	0.24
327.103	0.23
327.314	0.22
327.525	0.34
327.735	0.28
327.946	0.25
328.157	0.23
328.368	0.26
328.578	0.22
328.789	0.25
328.999	0.24
329.21	0.25
329.421	0.27
329.631	0.25
329.842	0.2
330.052	0.31
330.263	0.33
330.473	0.26
330.684	0.19
330.894	0.24
331.105	0.27
331.315	0.27
331.526	0.23
331.736	0.33
331.947	0.23
332.157	0.24
332.367	0.23
332.578	0.24
332.788	0.37
332.999	0.31
333.209	0.28
333.419	0.23
333.629	0.28
333.84	0.23
334.05	0.27
334.26	0.35
334.47	0.34
334.681	0.31
334.891	0.22
335.101	0.27
335.311	0.35
335.521	0.28
335.732	0.24
335.942	0.26
336.152	0.26
336.362	0.27
336.572	0.21
336.782	0.28
336.992	0.23
337.202	0.25
337.412	0.21
337.622	0.27
337.832	0.28
338.042	0.29
338.252	0.2
338.462	0.22
338.672	0.26
338.882	0.25
339.092	0.24
339.302	0.32
339.511	0.29
339.721	0.22
339.931	0.22
340.141	0.31
340.351	0.28
340.561	0.28
340.77	0.27
340.98	0.23
341.19	0.27
341.4	0.24
341.609	0.2
341.819	0.22
342.029	0.25
342.238	0.27
342.448	0.2
342.658	0.26
342.867	0.26
343.077	0.23
343.286	0.28
343.496	0.28
343.706	0.34
343.915	0.21
344.125	0.25
344.334	0.25
344.544	0.22
344.753	0.22
344.963	0.25
345.172	0.24
345.381	0.23
345.591	0.26
345.8	0.24
346.01	0.31
346.219	0.25
346.428	0.17
346.638	0.25
346.847	0.26
347.056	0.3
347.266	0.21
347.475	0.28
347.684	0.28
347.893	0.27
348.103	0.28
348.312	0.26
348.521	0.27
348.73	0.24
348.94	0.31
349.149	0.23
349.358	0.22
349.567	0.25
349.776	0.22
349.985	0.29
350.194	0.29
350.403	0.28
350.612	0.21
350.821	0.19
351.03	0.26
351.239	0.21
351.448	0.22
351.657	0.19
351.866	0.27
352.075	0.25
352.284	0.3
352.493	0.21
352.702	0.33
352.911	0.29
353.12	0.25
353.329	0.23
353.538	0.31
353.746	0.25
353.955	0.21
354.164	0.25
354.373	0.21
354.582	0.25
354.79	0.24
354.999	0.29
355.208	0.27
355.416	0.29
355.625	0.19
355.834	0.2
356.042	0.24
356.251	0.22
356.46	0.2
356.668	0.27
356.877	0.33
357.085	0.24
357.294	0.23
357.503	0.26
357.711	0.24
357.92	0.38
358.128	0.27
358.337	0.21
358.545	0.26
358.754	0.19
358.962	0.27
359.17	0.24
359.379	0.27
359.587	0.27
359.796	0.27
360.004	0.28
360.212	0.25
360.421	0.25
360.629	0.23
360.837	0.27
361.046	0.24
361.254	0.32
361.462	0.26
361.67	0.25
361.879	0.25
362.087	0.3
362.295	0.27
362.503	0.23
362.711	0.22
362.92	0.24
363.128	0.2
363.336	0.18
363.544	0.24
363.752	0.23
363.96	0.21
364.168	0.22
364.376	0.24
364.584	0.26
364.792	0.29
365	0.26
365.208	0.25
365.416	0.25
365.624	0.29
365.832	0.21
366.04	0.32
366.248	0.27
366.456	0.28
366.664	0.27
366.872	0.25
367.079	0.22
367.287	0.22
367.495	0.22
367.703	0.27
367.911	0.22
368.118	0.25
368.326	0.24
368.534	0.18
368.742	0.31
368.949	0.2
369.157	0.22
369.365	0.26
369.572	0.21
369.78	0.18
369.988	0.27
370.195	0.28
370.403	0.26
370.61	0.21
370.818	0.26
371.026	0.32
371.233	0.21
371.441	0.24
371.648	0.27
371.856	0.27
372.063	0.28
372.271	0.26
372.478	0.25
372.685	0.24
372.893	0.28
373.1	0.24
373.308	0.27
373.515	0.34
373.722	0.27
373.93	0.29
374.137	0.33
374.344	0.34
374.552	0.25
374.759	0.29
374.966	0.26
375.173	0.27
375.381	0.3
375.588	0.27
375.795	0.22
376.002	0.22
376.209	0.2
376.417	0.27
376.624	0.28
376.831	0.31
377.038	0.28
377.245	0.2
377.452	0.27
377.659	0.28
377.866	0.22
378.073	0.28
378.28	0.23
378.487	0.33
378.694	0.26
378.901	0.25
379.108	0.26
379.315	0.26
379.522	0.36
379.729	0.28
379.936	0.22
380.143	0.31
380.35	0.25
380.557	0.27
380.763	0.26
380.97	0.24
381.177	0.27
381.384	0.26
381.591	0.25
381.797	0.29
382.004	0.29
382.211	0.3
382.418	0.28
382.624	0.29
382.831	0.24
383.038	0.27
383.244	0.25
383.451	0.25
383.658	0.29
383.864	0.29
384.071	0.26
384.277	0.33
384.484	0.25
384.69	0.33
384.897	0.24
385.103	0.25
385.31	0.22
385.516	0.25
385.723	0.19
385.929	0.29
386.136	0.24
386.342	0.34
386.549	0.22
386.755	0.31
386.961	0.3
387.168	0.28
387.374	0.31
387.58	0.31
387.787	0.28
387.993	0.29
388.199	0.26
388.406	0.24
388.612	0.26
388.818	0.25
389.024	0.28
389.231	0.29
389.437	0.34
389.643	0.31
389.849	0.35
390.055	0.28
390.261	0.33
390.467	0.34
390.674	0.26
390.88	0.28
391.086	0.3
391.292	0.31
391.498	0.36
391.704	0.31
391.91	0.3
392.116	0.27
392.322	0.22
392.528	0.35
392.734	0.29
392.94	0.33
393.146	0.32
393.352	0.3
393.557	0.27
393.763	0.31
393.969	0.36
394.175	0.32
394.381	0.34
394.587	0.25
394.792	0.35
394.998	0.34
395.204	0.36
395.41	0.29
395.615	0.36
395.821	0.33
396.027	0.33
396.233	0.29
396.438	0.31
396.644	0.41
396.85	0.35
397.055	0.35
397.261	0.37
397.466	0.44
397.672	0.34
397.878	0.39
398.083	0.4
398.289	0.31
398.494	0.33
398.7	0.37
398.905	0.26
399.111	0.41
399.316	0.29
399.522	0.38
399.727	0.32
399.932	0.3
400.138	0.32
400.343	0.37
400.549	0.36
400.754	0.34
400.959	0.35
401.165	0.36
401.37	0.37
401.575	0.47
401.78	0.36
401.986	0.35
402.191	0.4
402.396	0.4
402.601	0.42
402.807	0.4
403.012	0.4
403.217	0.45
403.422	0.43
403.627	0.36
403.832	0.36
404.037	0.44
404.243	0.39
404.448	0.41
404.653	0.42
404.858	0.51
405.063	0.48
405.268	0.4
405.473	0.39
405.678	0.4
405.883	0.6
406.088	0.47
406.293	0.39
406.498	0.45
406.703	0.47
406.907	0.5
407.112	0.47
407.317	0.56
407.522	0.5
407.727	0.51
407.932	0.51
408.136	0.62
408.341	0.56
408.546	0.58
408.751	0.57
408.956	0.56
409.16	0.63
409.365	0.61
409.57	0.6
409.774	0.66
409.979	0.65
410.184	0.66
410.388	0.64
410.593	0.74
410.798	0.74
411.002	0.76
411.207	0.82
411.411	0.8
411.616	0.76
411.82	0.81
412.025	0.85
412.229	0.84
412.434	0.94
412.638	0.87
412.843	0.95
413.047	0.96
413.252	0.92
413.456	1.02
413.66	1.05
413.865	0.96
414.069	1.15
414.273	1.08
414.478	1.13
414.682	1.21
414.886	1.18
415.091	1.19
415.295	1.21
415.499	1.34
415.703	1.33
415.908	1.45
416.112	1.39
416.316	1.48
416.52	1.54
416.724	1.55
416.929	1.6
417.133	1.87
417.337	1.71
417.541	1.82
417.745	1.78
417.949	1.91
418.153	1.99
418.357	2.01
418.561	2.24
418.765	2.13
418.969	2.31
419.173	2.38
419.377	2.35
419.581	2.59
419.785	2.55
419.989	2.62
420.193	2.79
420.397	2.85
420.601	2.96
420.804	3.05
421.008	3.07
421.212	3.17
421.416	3.16
421.62	3.2
421.823	3.32
422.027	3.42
422.231	3.47
422.435	3.48
422.638	3.53
422.842	3.59
423.046	3.73
423.249	3.95
423.453	3.92
423.657	4.08
423.86	4.13
424.064	4.26
424.268	4.38
424.471	4.4
424.675	4.68
424.878	4.73
425.082	4.82
425.285	5.11
425.489	5.08
425.692	5.2
425.896	5.22
426.099	5.31
426.303	5.56
426.506	5.83
426.71	5.95
426.913	6.05
427.116	6.23
427.32	6.26
427.523	6.31
427.726	6.6
427.93	6.67
428.133	7.11
428.336	7.14
428.54	7.35
428.743	7.56
428.946	7.76
429.149	7.77
429.353	7.8
429.556	7.89
429.759	7.97
429.962	8.14
430.165	8.3
430.368	7.89
430.571	7.99
430.775	8.04
430.978	7.98
431.181	8.09
431.384	8.17
431.587	8.2
431.79	8.65
431.993	8.66
432.196	8.89
432.399	9.2
432.602	9.4
432.805	9.53
433.008	10.06
433.211	9.84
433.414	10.27
433.616	10.35
433.819	10.22
434.022	10.41
434.225	10.56
434.428	10.65
434.631	11
434.833	10.82
435.036	11.02
435.239	11.25
435.442	11.29
435.645	11.44
435.847	11.52
436.05	11.76
436.253	12.18
436.455	12.2
436.658	11.82
436.861	12.28
437.063	12.4
437.266	12.27
437.468	12.65
437.671	13.07
437.874	13.08
438.076	12.93
438.279	13.41
438.481	13.34
438.684	14.21
438.886	13.79
439.089	14.05
439.291	14.16
439.494	14.44
439.696	14.51
439.899	15.15
440.101	15.55
440.303	15.8
440.506	16.47
440.708	16.33
440.91	16.37
441.113	16.58
441.315	16.81
441.517	16.82
441.72	17.13
441.922	16.93
442.124	16.72
442.326	17.16
442.529	17.43
442.731	17.4
442.933	17.7
443.135	17.42
443.337	17.33
443.539	18.14
443.742	17.61
443.944	18.35
444.146	18.15
444.348	18.1
444.55	17.84
444.752	18.14
444.954	18.07
445.156	18.01
445.358	18.57
445.56	18.75
445.762	18.47
445.964	18.92
446.166	18.65
446.368	18.48
446.57	18.51
446.772	18.18
446.974	17.98
447.175	18.38
447.377	17.88
447.579	18.58
447.781	18.15
447.983	17.84
448.184	17.48
448.386	17.72
448.588	17.33
448.79	17.17
448.991	17.48
449.193	17.55
449.395	16.93
449.597	16.46
449.798	16.51
450	16.02
450.202	15.89
450.403	15.89
450.605	15.85
450.806	15.59
451.008	15.35
451.21	15.19
451.411	14.8
451.613	13.82
451.814	14.24
452.016	14.11
452.217	13.48
452.419	13.35
452.62	13.15
452.821	12.84
453.023	12.86
453.224	12.35
453.426	11.86
453.627	11.26
453.828	11.42
454.03	11.45
454.231	11.56
454.432	11.2
454.634	10.92
454.835	10.68
455.036	10.64
455.238	10.19
455.439	10.01
455.64	9.63
455.841	9.45
456.042	9.66
456.244	9.29
456.445	9.01
456.646	8.82
456.847	8.6
457.048	8.54
457.249	8.59
457.45	8.31
457.651	7.76
457.852	7.65
458.054	7.36
458.255	7.35
458.456	7.48
458.657	7.29
458.858	6.8
459.058	6.8
459.259	6.79
459.46	6.45
459.661	6.53
459.862	6.46
460.063	6.4
460.264	6.36
460.465	6.03
460.666	6.14
460.866	5.77
461.067	5.56
461.268	5.65
461.469	5.51
461.67	5.42
461.87	5.29
462.071	5.32
462.272	5.21
462.473	5.17
462.673	5.27
462.874	5.2
463.075	5.19
463.275	5.07
463.476	5.21
463.676	5.14
463.877	4.98
464.078	4.97
464.278	5.02
464.479	4.92
464.679	4.79
464.88	4.76
465.08	4.63
465.281	4.53
465.481	4.38
465.682	4.14
465.882	4.19
466.083	4.15
466.283	4.06
466.483	3.94
466.684	3.76
466.884	3.68
467.085	3.7
467.285	3.77
467.485	3.59
467.686	3.56
467.886	3.48
468.086	3.42
468.286	3.4
468.487	3.48
468.687	3.34
468.887	3.2
469.087	3.38
469.287	3.31
469.488	3.06
469.688	3.16
469.888	3.23
470.088	3.18
470.288	3.07
470.488	3.02
470.688	2.9
470.888	2.89
471.088	2.74
471.288	2.8
471.488	2.79
471.688	2.71
471.888	2.67
472.088	2.85
472.288	2.72
472.488	2.65
472.688	2.54
472.888	2.59
473.088	2.6
473.288	2.5
473.488	2.52
473.688	2.65
473.887	2.45
474.087	2.47
474.287	2.48
474.487	2.37
474.687	2.45
474.886	2.36
475.086	2.3
475.286	2.37
475.486	2.28
475.685	2.23
475.885	2.23
476.085	2.29
476.284	2.25
476.484	2.24
476.684	2.22
476.883	2.28
477.083	2.19
477.282	2.14
477.482	2.17
477.681	2.14
477.881	2.07
478.08	2.08
478.28	2.05
478.479	2.08
478.679	2.12
478.878	2.05
479.078	2.05
479.277	2.06
479.477	2.03
479.676	2.04
479.875	2.03
480.075	1.99
480.274	2.03
480.473	2.09
480.673	2.01
480.872	2.12
481.071	2.06
481.271	1.99
481.47	2.02
481.669	1.99
481.868	1.96
482.067	2.03
482.267	1.94
482.466	1.93
482.665	1.96
482.864	1.94
483.063	1.94
483.262	2.01
483.461	2
483.661	2.08
483.86	1.98
484.059	2.05
484.258	2.04
484.457	2.02
484.656	2.06
484.855	2.11
485.054	1.89
485.253	2.01
485.452	2
485.651	2.05
485.849	2
486.048	2
486.247	2.01
486.446	2.08
486.645	2
486.844	2.09
487.043	2.07
487.241	2.09
487.44	2.11
487.639	2.12
487.838	2.12
488.037	2.11
488.235	2.19
488.434	2.17
488.633	2.04
488.831	2.21
489.03	2.22
489.229	2.24
489.427	2.22
489.626	2.26
489.825	2.3
490.023	2.32
490.222	2.23
490.42	2.32
490.619	2.35
490.817	2.35
491.016	2.33
491.214	2.41
491.413	2.39
491.611	2.37
491.81	2.45
492.008	2.43
492.207	2.53
492.405	2.48
492.604	2.5
492.802	2.58
493	2.59
493.199	2.57
493.397	2.68
493.595	2.71
493.794	2.62
493.992	2.75
494.19	2.74
494.388	2.79
494.587	2.73
494.785	2.77
494.983	2.74
495.181	2.87
495.379	2.85
495.578	2.92
495.776	2.91
495.974	2.89
496.172	2.95
496.37	3.09
496.568	3.13
496.766	3.06
496.964	3.13
497.162	3.12
497.36	3.21
497.558	3.25
497.756	3.27
497.954	3.27
498.152	3.35
498.35	3.41
498.548	3.3
498.746	3.37
498.944	3.4
499.142	3.42
499.34	3.48
499.538	3.64
499.736	3.48
499.933	3.59
500.131	3.6
500.329	3.76
500.527	3.78
500.725	3.85
500.922	3.83
501.12	3.86
501.318	3.94
501.516	3.91
501.713	4.01
501.911	4
502.109	3.9
502.306	4.07
502.504	4
