Data from Apollo_Calib_20240827__AbsoluteIrradiance__1__23-10-01-073.txt Node

Date: Tue Aug 27 23:10:01 BST 2024
User: biology
Spectrometer: FLMT08252
Trigger mode: 0
Integration Time (sec): 5.000000E-1
Scans to average: 5
Electric dark correction enabled: true
Nonlinearity correction enabled: false
Boxcar width: 0
XAxis mode: Wavelengths
Number of Pixels in Spectrum: 3648
>>>>>Begin Spectral Data<<<<<
179.588	-0
179.809	-0
180.03	-0
180.251	-0
180.473	-0
180.694	0
180.915	0
181.136	-0
181.357	-0
181.578	-0
181.799	-0
182.02	-0
182.241	0
182.462	-0
182.683	0
182.904	-0
183.125	-0
183.346	0
183.567	0
183.788	0
184.009	0
184.23	0
184.451	0
184.672	0
184.892	0
185.113	0
185.334	0
185.555	0
185.776	0
185.996	0
186.217	0
186.438	0
186.659	0
186.879	0
187.1	0
187.321	0
187.541	0
187.762	0
187.983	0
188.203	0
188.424	0
188.644	0
188.865	0
189.086	0
189.306	0
189.527	0
189.747	0
189.968	0
190.188	0
190.409	0
190.629	0
190.849	0
191.07	0
191.29	0
191.511	0
191.731	0
191.951	0
192.172	0
192.392	0
192.612	0
192.833	0
193.053	0
193.273	0
193.493	0
193.714	0
193.934	0
194.154	0
194.374	0
194.594	0
194.815	0
195.035	0
195.255	0
195.475	0
195.695	0
195.915	0
196.135	0
196.355	0
196.575	0
196.795	0
197.015	0
197.235	0
197.455	0
197.675	0
197.895	0
198.115	0
198.335	0
198.555	0
198.775	0
198.995	0
199.214	0
199.434	0
199.654	0
199.874	0
200.094	3.02
200.313	2.95
200.533	2.89
200.753	1.84
200.973	3.33
201.192	2.51
201.412	1.54
201.632	2.28
201.851	2.55
202.071	2.12
202.291	1.95
202.51	1.59
202.73	2.49
202.95	2.11
203.169	1.88
203.389	2.06
203.608	2.32
203.828	1.42
204.047	2.39
204.267	2.34
204.486	1.99
204.706	1.87
204.925	2.13
205.145	1.81
205.364	1.69
205.583	2
205.803	1.87
206.022	1.51
206.242	1.68
206.461	2.08
206.68	1.59
206.9	1.94
207.119	1.71
207.338	1.78
207.557	1.74
207.777	1.75
207.996	1.65
208.215	1.57
208.434	1.32
208.654	1.44
208.873	1.57
209.092	1.61
209.311	1.53
209.53	1.68
209.749	1.29
209.968	1.06
210.187	1.2
210.407	1.1
210.626	1.4
210.845	1.65
211.064	1.16
211.283	1.06
211.502	1.33
211.721	1.09
211.94	1.17
212.159	1.58
212.377	1.2
212.596	1.11
212.815	1.52
213.034	1.22
213.253	1.29
213.472	1.26
213.691	0.9
213.91	0.81
214.128	1.16
214.347	1.13
214.566	0.84
214.785	0.81
215.003	1.26
215.222	1.11
215.441	1.16
215.66	0.95
215.878	1.11
216.097	1.21
216.316	0.9
216.534	1.01
216.753	1.05
216.972	0.73
217.19	1.01
217.409	0.77
217.627	0.71
217.846	0.72
218.064	1.01
218.283	0.8
218.501	1.17
218.72	1.03
218.938	0.78
219.157	0.95
219.375	1.05
219.594	0.93
219.812	0.67
220.031	0.76
220.249	1.07
220.467	1.09
220.686	0.78
220.904	0.69
221.122	0.78
221.341	1.01
221.559	0.93
221.777	0.63
221.995	0.79
222.214	0.89
222.432	0.72
222.65	0.69
222.868	0.82
223.086	0.8
223.305	0.97
223.523	0.7
223.741	0.94
223.959	0.54
224.177	0.58
224.395	0.52
224.613	0.67
224.831	0.71
225.049	0.67
225.267	0.63
225.485	0.6
225.703	0.72
225.921	0.73
226.139	0.62
226.357	0.77
226.575	0.62
226.793	0.66
227.011	0.95
227.229	0.72
227.447	0.66
227.665	0.59
227.883	0.61
228.1	0.63
228.318	0.61
228.536	0.56
228.754	0.73
228.972	0.65
229.189	0.72
229.407	0.55
229.625	0.71
229.843	0.73
230.06	0.67
230.278	0.6
230.496	0.67
230.713	0.65
230.931	0.6
231.149	0.71
231.366	0.56
231.584	0.55
231.801	0.76
232.019	0.54
232.236	0.64
232.454	0.49
232.671	0.54
232.889	0.66
233.106	0.53
233.324	0.58
233.541	0.58
233.759	0.68
233.976	0.57
234.194	0.6
234.411	0.6
234.628	0.41
234.846	0.51
235.063	0.56
235.28	0.53
235.498	0.7
235.715	0.5
235.932	0.62
236.149	0.54
236.367	0.53
236.584	0.55
236.801	0.61
237.018	0.59
237.236	0.59
237.453	0.3
237.67	0.59
237.887	0.46
238.104	0.48
238.321	0.46
238.538	0.51
238.755	0.59
238.973	0.42
239.19	0.52
239.407	0.6
239.624	0.54
239.841	0.41
240.058	0.43
240.275	0.55
240.492	0.49
240.709	0.52
240.925	0.48
241.142	0.54
241.359	0.37
241.576	0.44
241.793	0.52
242.01	0.4
242.227	0.54
242.444	0.55
242.66	0.57
242.877	0.38
243.094	0.45
243.311	0.53
243.527	0.42
243.744	0.51
243.961	0.51
244.178	0.32
244.394	0.52
244.611	0.58
244.828	0.55
245.044	0.35
245.261	0.48
245.477	0.46
245.694	0.48
245.911	0.44
246.127	0.52
246.344	0.53
246.56	0.43
246.777	0.4
246.993	0.41
247.21	0.47
247.426	0.47
247.643	0.4
247.859	0.42
248.076	0.52
248.292	0.52
248.508	0.37
248.725	0.45
248.941	0.46
249.157	0.43
249.374	0.44
249.59	0.39
249.806	0.45
250.023	0.5
250.239	0.41
250.455	0.44
250.671	0.38
250.888	0.42
251.104	0.53
251.32	0.46
251.536	0.41
251.752	0.44
251.969	0.51
252.185	0.57
252.401	0.56
252.617	0.46
252.833	0.41
253.049	0.46
253.265	0.41
253.481	0.46
253.697	0.44
253.913	0.27
254.129	0.31
254.345	0.36
254.561	0.39
254.777	0.43
254.993	0.53
255.209	0.44
255.425	0.47
255.641	0.39
255.857	0.51
256.073	0.42
256.288	0.28
256.504	0.39
256.72	0.45
256.936	0.44
257.152	0.4
257.367	0.34
257.583	0.42
257.799	0.44
258.015	0.36
258.23	0.33
258.446	0.47
258.662	0.4
258.877	0.4
259.093	0.34
259.309	0.36
259.524	0.38
259.74	0.36
259.955	0.27
260.171	0.42
260.387	0.39
260.602	0.51
260.818	0.4
261.033	0.32
261.249	0.36
261.464	0.37
261.68	0.29
261.895	0.4
262.11	0.42
262.326	0.4
262.541	0.31
262.757	0.4
262.972	0.3
263.187	0.4
263.403	0.42
263.618	0.4
263.833	0.38
264.049	0.35
264.264	0.33
264.479	0.42
264.694	0.37
264.91	0.34
265.125	0.39
265.34	0.42
265.555	0.5
265.77	0.34
265.986	0.36
266.201	0.48
266.416	0.39
266.631	0.39
266.846	0.41
267.061	0.31
267.276	0.34
267.491	0.19
267.706	0.38
267.921	0.36
268.136	0.35
268.351	0.36
268.566	0.31
268.781	0.42
268.996	0.37
269.211	0.38
269.426	0.33
269.641	0.3
269.856	0.32
270.071	0.29
270.285	0.28
270.5	0.41
270.715	0.41
270.93	0.32
271.145	0.37
271.359	0.34
271.574	0.31
271.789	0.37
272.004	0.34
272.218	0.37
272.433	0.42
272.648	0.3
272.862	0.37
273.077	0.32
273.292	0.32
273.506	0.33
273.721	0.33
273.936	0.33
274.15	0.33
274.365	0.34
274.579	0.43
274.794	0.34
275.008	0.39
275.223	0.29
275.437	0.4
275.652	0.44
275.866	0.28
276.081	0.36
276.295	0.36
276.509	0.35
276.724	0.32
276.938	0.34
277.153	0.37
277.367	0.35
277.581	0.28
277.796	0.29
278.01	0.3
278.224	0.33
278.438	0.4
278.653	0.31
278.867	0.28
279.081	0.18
279.295	0.27
279.51	0.34
279.724	0.23
279.938	0.28
280.152	0.29
280.366	0.25
280.58	0.34
280.794	0.38
281.008	0.27
281.222	0.35
281.437	0.4
281.651	0.33
281.865	0.36
282.079	0.33
282.293	0.23
282.507	0.27
282.721	0.29
282.935	0.34
283.148	0.23
283.362	0.29
283.576	0.26
283.79	0.25
284.004	0.25
284.218	0.31
284.432	0.27
284.646	0.31
284.859	0.33
285.073	0.28
285.287	0.3
285.501	0.33
285.714	0.28
285.928	0.3
286.142	0.29
286.356	0.3
286.569	0.28
286.783	0.35
286.997	0.33
287.21	0.32
287.424	0.37
287.637	0.26
287.851	0.29
288.065	0.36
288.278	0.32
288.492	0.35
288.705	0.3
288.919	0.33
289.132	0.26
289.346	0.33
289.559	0.26
289.773	0.28
289.986	0.29
290.2	0.31
290.413	0.26
290.626	0.27
290.84	0.28
291.053	0.34
291.267	0.3
291.48	0.33
291.693	0.3
291.906	0.22
292.12	0.22
292.333	0.24
292.546	0.28
292.76	0.36
292.973	0.29
293.186	0.28
293.399	0.26
293.612	0.29
293.826	0.26
294.039	0.32
294.252	0.27
294.465	0.24
294.678	0.27
294.891	0.29
295.104	0.26
295.317	0.28
295.53	0.29
295.743	0.28
295.956	0.26
296.169	0.31
296.382	0.28
296.595	0.27
296.808	0.24
297.021	0.3
297.234	0.26
297.447	0.27
297.66	0.28
297.873	0.28
298.086	0.25
298.299	0.25
298.511	0.2
298.724	0.28
298.937	0.24
299.15	0.24
299.363	0.3
299.575	0.29
299.788	0.28
300.001	0.33
300.213	0.21
300.426	0.24
300.639	0.23
300.852	0.28
301.064	0.27
301.277	0.26
301.489	0.26
301.702	0.29
301.915	0.22
302.127	0.22
302.34	0.28
302.552	0.29
302.765	0.25
302.977	0.31
303.19	0.23
303.402	0.22
303.615	0.2
303.827	0.25
304.04	0.25
304.252	0.26
304.464	0.23
304.677	0.32
304.889	0.27
305.102	0.24
305.314	0.25
305.526	0.29
305.739	0.28
305.951	0.21
306.163	0.26
306.375	0.31
306.588	0.24
306.8	0.29
307.012	0.25
307.224	0.27
307.436	0.27
307.649	0.18
307.861	0.27
308.073	0.26
308.285	0.23
308.497	0.24
308.709	0.22
308.921	0.28
309.133	0.25
309.346	0.26
309.558	0.26
309.77	0.25
309.982	0.27
310.194	0.32
310.406	0.27
310.617	0.26
310.829	0.31
311.041	0.33
311.253	0.22
311.465	0.25
311.677	0.25
311.889	0.29
312.101	0.23
312.313	0.28
312.524	0.24
312.736	0.2
312.948	0.26
313.16	0.28
313.372	0.25
313.583	0.23
313.795	0.25
314.007	0.18
314.218	0.23
314.43	0.26
314.642	0.24
314.853	0.24
315.065	0.28
315.277	0.23
315.488	0.28
315.7	0.3
315.912	0.26
316.123	0.24
316.335	0.23
316.546	0.32
316.758	0.21
316.969	0.25
317.181	0.25
317.392	0.24
317.604	0.29
317.815	0.22
318.026	0.21
318.238	0.19
318.449	0.27
318.661	0.21
318.872	0.21
319.083	0.21
319.295	0.31
319.506	0.27
319.717	0.27
319.929	0.25
320.14	0.31
320.351	0.32
320.562	0.24
320.774	0.25
320.985	0.25
321.196	0.19
321.407	0.2
321.618	0.26
321.829	0.24
322.041	0.26
322.252	0.26
322.463	0.26
322.674	0.26
322.885	0.25
323.096	0.24
323.307	0.24
323.518	0.27
323.729	0.24
323.94	0.25
324.151	0.21
324.362	0.25
324.573	0.28
324.784	0.24
324.995	0.29
325.206	0.29
325.417	0.26
325.628	0.26
325.838	0.28
326.049	0.24
326.26	0.26
326.471	0.27
326.682	0.26
326.892	0.28
327.103	0.2
327.314	0.19
327.525	0.3
327.735	0.24
327.946	0.26
328.157	0.27
328.368	0.27
328.578	0.23
328.789	0.27
328.999	0.3
329.21	0.26
329.421	0.25
329.631	0.18
329.842	0.26
330.052	0.25
330.263	0.31
330.473	0.32
330.684	0.3
330.894	0.22
331.105	0.22
331.315	0.27
331.526	0.23
331.736	0.32
331.947	0.3
332.157	0.26
332.367	0.24
332.578	0.25
332.788	0.27
332.999	0.29
333.209	0.23
333.419	0.25
333.629	0.19
333.84	0.28
334.05	0.24
334.26	0.3
334.47	0.3
334.681	0.32
334.891	0.23
335.101	0.31
335.311	0.31
335.521	0.25
335.732	0.24
335.942	0.28
336.152	0.29
336.362	0.29
336.572	0.21
336.782	0.25
336.992	0.26
337.202	0.23
337.412	0.19
337.622	0.31
337.832	0.29
338.042	0.29
338.252	0.27
338.462	0.26
338.672	0.27
338.882	0.23
339.092	0.25
339.302	0.3
339.511	0.22
339.721	0.21
339.931	0.2
340.141	0.29
340.351	0.26
340.561	0.3
340.77	0.25
340.98	0.24
341.19	0.27
341.4	0.24
341.609	0.21
341.819	0.26
342.029	0.23
342.238	0.24
342.448	0.22
342.658	0.27
342.867	0.33
343.077	0.3
343.286	0.3
343.496	0.25
343.706	0.24
343.915	0.2
344.125	0.22
344.334	0.31
344.544	0.18
344.753	0.23
344.963	0.24
345.172	0.24
345.381	0.2
345.591	0.24
345.8	0.23
346.01	0.29
346.219	0.29
346.428	0.11
346.638	0.21
346.847	0.21
347.056	0.32
347.266	0.25
347.475	0.27
347.684	0.23
347.893	0.25
348.103	0.28
348.312	0.29
348.521	0.25
348.73	0.2
348.94	0.27
349.149	0.22
349.358	0.19
349.567	0.25
349.776	0.2
349.985	0.21
350.194	0.24
350.403	0.25
350.612	0.22
350.821	0.26
351.03	0.26
351.239	0.19
351.448	0.24
351.657	0.23
351.866	0.3
352.075	0.24
352.284	0.28
352.493	0.17
352.702	0.23
352.911	0.23
353.12	0.25
353.329	0.26
353.538	0.26
353.746	0.23
353.955	0.24
354.164	0.24
354.373	0.28
354.582	0.27
354.79	0.26
354.999	0.29
355.208	0.22
355.416	0.2
355.625	0.22
355.834	0.22
356.042	0.23
356.251	0.25
356.46	0.19
356.668	0.28
356.877	0.28
357.085	0.28
357.294	0.22
357.503	0.28
357.711	0.22
357.92	0.33
358.128	0.22
358.337	0.23
358.545	0.26
358.754	0.25
358.962	0.31
359.17	0.25
359.379	0.23
359.587	0.25
359.796	0.24
360.004	0.27
360.212	0.23
360.421	0.3
360.629	0.24
360.837	0.24
361.046	0.22
361.254	0.3
361.462	0.22
361.67	0.23
361.879	0.28
362.087	0.3
362.295	0.26
362.503	0.21
362.711	0.18
362.92	0.23
363.128	0.27
363.336	0.2
363.544	0.19
363.752	0.23
363.96	0.22
364.168	0.24
364.376	0.22
364.584	0.27
364.792	0.3
365	0.25
365.208	0.25
365.416	0.22
365.624	0.26
365.832	0.21
366.04	0.27
366.248	0.23
366.456	0.27
366.664	0.26
366.872	0.24
367.079	0.2
367.287	0.28
367.495	0.26
367.703	0.26
367.911	0.22
368.118	0.22
368.326	0.21
368.534	0.2
368.742	0.3
368.949	0.22
369.157	0.22
369.365	0.25
369.572	0.24
369.78	0.2
369.988	0.27
370.195	0.29
370.403	0.26
370.61	0.18
370.818	0.26
371.026	0.25
371.233	0.23
371.441	0.3
371.648	0.24
371.856	0.23
372.063	0.24
372.271	0.22
372.478	0.22
372.685	0.23
372.893	0.24
373.1	0.26
373.308	0.27
373.515	0.33
373.722	0.26
373.93	0.25
374.137	0.31
374.344	0.31
374.552	0.31
374.759	0.29
374.966	0.27
375.173	0.2
375.381	0.29
375.588	0.26
375.795	0.16
376.002	0.26
376.209	0.21
376.417	0.26
376.624	0.29
376.831	0.26
377.038	0.25
377.245	0.15
377.452	0.29
377.659	0.28
377.866	0.26
378.073	0.31
378.28	0.24
378.487	0.27
378.694	0.26
378.901	0.26
379.108	0.31
379.315	0.25
379.522	0.29
379.729	0.25
379.936	0.21
380.143	0.24
380.35	0.22
380.557	0.24
380.763	0.3
380.97	0.21
381.177	0.29
381.384	0.3
381.591	0.28
381.797	0.25
382.004	0.25
382.211	0.32
382.418	0.29
382.624	0.31
382.831	0.28
383.038	0.3
383.244	0.29
383.451	0.25
383.658	0.26
383.864	0.3
384.071	0.22
384.277	0.31
384.484	0.22
384.69	0.32
384.897	0.25
385.103	0.28
385.31	0.23
385.516	0.26
385.723	0.22
385.929	0.25
386.136	0.18
386.342	0.26
386.549	0.25
386.755	0.33
386.961	0.28
387.168	0.25
387.374	0.33
387.58	0.29
387.787	0.29
387.993	0.33
388.199	0.27
388.406	0.24
388.612	0.32
388.818	0.24
389.024	0.28
389.231	0.28
389.437	0.31
389.643	0.37
389.849	0.32
390.055	0.31
390.261	0.28
390.467	0.32
390.674	0.27
390.88	0.3
391.086	0.31
391.292	0.24
391.498	0.36
391.704	0.33
391.91	0.32
392.116	0.28
392.322	0.17
392.528	0.32
392.734	0.29
392.94	0.33
393.146	0.32
393.352	0.25
393.557	0.26
393.763	0.31
393.969	0.34
394.175	0.28
394.381	0.29
394.587	0.3
394.792	0.28
394.998	0.37
395.204	0.32
395.41	0.3
395.615	0.32
395.821	0.32
396.027	0.33
396.233	0.29
396.438	0.32
396.644	0.37
396.85	0.38
397.055	0.33
397.261	0.36
397.466	0.43
397.672	0.33
397.878	0.4
398.083	0.33
398.289	0.27
398.494	0.31
398.7	0.34
398.905	0.27
399.111	0.36
399.316	0.29
399.522	0.38
399.727	0.34
399.932	0.29
400.138	0.32
400.343	0.36
400.549	0.39
400.754	0.32
400.959	0.37
401.165	0.36
401.37	0.33
401.575	0.44
401.78	0.38
401.986	0.37
402.191	0.35
402.396	0.38
402.601	0.4
402.807	0.41
403.012	0.41
403.217	0.35
403.422	0.35
403.627	0.39
403.832	0.39
404.037	0.45
404.243	0.45
404.448	0.37
404.653	0.38
404.858	0.44
405.063	0.4
405.268	0.39
405.473	0.39
405.678	0.46
405.883	0.56
406.088	0.49
406.293	0.45
406.498	0.47
406.703	0.45
406.907	0.47
407.112	0.4
407.317	0.49
407.522	0.58
407.727	0.45
407.932	0.56
408.136	0.55
408.341	0.58
408.546	0.6
408.751	0.54
408.956	0.56
409.16	0.6
409.365	0.61
409.57	0.53
409.774	0.59
409.979	0.64
410.184	0.65
410.388	0.66
410.593	0.72
410.798	0.71
411.002	0.73
411.207	0.78
411.411	0.79
411.616	0.76
411.82	0.83
412.025	0.81
412.229	0.83
412.434	0.92
412.638	0.89
412.843	0.91
413.047	0.9
413.252	0.88
413.456	1.02
413.66	1.05
413.865	1.05
414.069	1.09
414.273	1.11
414.478	1.1
414.682	1.16
414.886	1.16
415.091	1.16
415.295	1.22
415.499	1.27
415.703	1.29
415.908	1.38
416.112	1.37
416.316	1.55
416.52	1.45
416.724	1.48
416.929	1.51
417.133	1.77
417.337	1.72
417.541	1.72
417.745	1.79
417.949	1.87
418.153	1.91
418.357	1.94
418.561	2.16
418.765	2.14
418.969	2.23
419.173	2.39
419.377	2.26
419.581	2.5
419.785	2.46
419.989	2.54
420.193	2.71
420.397	2.76
420.601	2.86
420.804	3.02
421.008	2.95
421.212	3.09
421.416	3.1
421.62	3.1
421.823	3.22
422.027	3.36
422.231	3.29
422.435	3.34
422.638	3.45
422.842	3.51
423.046	3.63
423.249	3.76
423.453	3.83
423.657	3.88
423.86	4.04
424.064	4.12
424.268	4.24
424.471	4.28
424.675	4.55
424.878	4.63
425.082	4.76
425.285	4.95
425.489	4.84
425.692	5.01
425.896	5.07
426.099	5.21
426.303	5.4
426.506	5.62
426.71	5.78
426.913	5.95
427.116	6.07
427.32	6.15
427.523	6.19
427.726	6.43
427.93	6.58
428.133	6.85
428.336	7.17
428.54	7.18
428.743	7.37
428.946	7.68
429.149	7.69
429.353	7.67
429.556	7.73
429.759	7.83
429.962	7.96
430.165	8.19
430.368	7.78
430.571	7.94
430.775	7.93
430.978	7.89
431.181	7.96
431.384	8.05
431.587	8.18
431.79	8.55
431.993	8.32
432.196	8.72
432.399	9.03
432.602	9.22
432.805	9.34
433.008	9.87
433.211	9.71
433.414	10.07
433.616	10.07
433.819	9.92
434.022	10.18
434.225	10.36
434.428	10.4
434.631	10.85
434.833	10.65
435.036	10.89
435.239	11.02
435.442	11.12
435.645	11.13
435.847	11.43
436.05	11.67
436.253	11.89
436.455	11.98
436.658	11.87
436.861	12.03
437.063	12.28
437.266	12.28
437.468	12.46
437.671	12.77
437.874	12.93
438.076	12.78
438.279	13.26
438.481	13.28
438.684	14.11
438.886	13.58
439.089	13.94
439.291	13.89
439.494	14.31
439.696	14.53
439.899	15.01
440.101	15.43
440.303	15.65
440.506	16.27
440.708	15.93
440.91	16.22
441.113	16.45
441.315	16.67
441.517	16.52
441.72	16.85
441.922	16.68
442.124	16.73
442.326	16.89
442.529	17.19
442.731	17.22
442.933	17.65
443.135	17.22
443.337	17.41
443.539	17.81
443.742	17.73
443.944	18.12
444.146	17.98
444.348	17.94
444.55	17.67
444.752	18.02
444.954	18.02
445.156	18.07
445.358	18.34
445.56	18.62
445.762	18.24
445.964	18.75
446.166	18.4
446.368	18.45
446.57	18.5
446.772	18.1
446.974	17.91
447.175	18.22
447.377	17.86
447.579	18.49
447.781	18.12
447.983	17.81
448.184	17.44
448.386	17.81
448.588	17.25
448.79	17.25
448.991	17.71
449.193	17.66
449.395	16.95
449.597	16.69
449.798	16.61
450	16.08
450.202	16.05
450.403	16.1
450.605	15.9
450.806	15.69
451.008	15.54
451.21	15.33
451.411	14.84
451.613	14.01
451.814	14.32
452.016	14.33
452.217	13.66
452.419	13.52
452.62	13.27
452.821	12.99
453.023	12.99
453.224	12.56
453.426	12.08
453.627	11.33
453.828	11.62
454.03	11.58
454.231	11.7
454.432	11.47
454.634	11.01
454.835	10.87
455.036	10.86
455.238	10.27
455.439	10.03
455.64	9.96
455.841	9.68
456.042	9.68
456.244	9.35
456.445	9.33
456.646	8.86
456.847	8.83
457.048	8.75
457.249	8.7
457.45	8.35
457.651	8.02
457.852	7.75
458.054	7.47
458.255	7.54
458.456	7.43
458.657	7.41
458.858	6.94
459.058	6.93
459.259	7
459.46	6.63
459.661	6.62
459.862	6.58
460.063	6.62
460.264	6.38
460.465	6.14
460.666	6.2
460.866	5.88
461.067	5.66
461.268	5.76
461.469	5.76
461.67	5.52
461.87	5.34
462.071	5.4
462.272	5.18
462.473	5.34
462.673	5.32
462.874	5.33
463.075	5.2
463.275	5.22
463.476	5.23
463.676	5.26
463.877	5.01
464.078	5.06
464.278	5.05
464.479	4.98
464.679	4.8
464.88	4.81
465.08	4.76
465.281	4.65
465.481	4.37
465.682	4.25
465.882	4.21
466.083	4.15
466.283	4.1
466.483	4.05
466.684	3.83
466.884	3.74
467.085	3.78
467.285	3.9
467.485	3.76
467.686	3.58
467.886	3.53
468.086	3.55
468.286	3.45
468.487	3.51
468.687	3.35
468.887	3.36
469.087	3.43
469.287	3.34
469.488	3.09
469.688	3.23
469.888	3.23
470.088	3.19
470.288	3.16
470.488	3.01
470.688	2.98
470.888	2.93
471.088	2.77
471.288	2.8
471.488	2.77
471.688	2.85
471.888	2.74
472.088	2.84
472.288	2.76
472.488	2.68
472.688	2.57
472.888	2.66
473.088	2.69
473.288	2.55
473.488	2.55
473.688	2.63
473.887	2.46
474.087	2.53
474.287	2.55
474.487	2.44
474.687	2.48
474.886	2.44
475.086	2.39
475.286	2.35
475.486	2.29
475.685	2.25
475.885	2.32
476.085	2.32
476.284	2.31
476.484	2.29
476.684	2.3
476.883	2.37
477.083	2.22
477.282	2.16
477.482	2.19
477.681	2.13
477.881	2.06
478.08	2.08
478.28	2.09
478.479	2.18
478.679	2.16
478.878	2.07
479.078	2.09
479.277	2.12
479.477	2.04
479.676	2.07
479.875	2.05
480.075	2.03
480.274	2.07
480.473	2.04
480.673	2.06
480.872	2.1
481.071	2.08
481.271	2.08
481.47	2.04
481.669	2.02
481.868	1.96
482.067	2.02
482.267	1.95
482.466	1.98
482.665	1.95
482.864	2.02
483.063	1.97
483.262	2.02
483.461	1.99
483.661	2.06
483.86	2.06
484.059	2.01
484.258	2.07
484.457	2.07
484.656	2.03
484.855	2.07
485.054	1.97
485.253	2.04
485.452	1.97
485.651	2.07
485.849	2.03
486.048	2.07
486.247	2.06
486.446	2.08
486.645	2.07
486.844	2.07
487.043	2.07
487.241	2.1
487.44	2.09
487.639	2.17
487.838	2.12
488.037	2.13
488.235	2.17
488.434	2.19
488.633	2.08
488.831	2.22
489.03	2.22
489.229	2.23
489.427	2.22
489.626	2.28
489.825	2.25
490.023	2.3
490.222	2.26
490.42	2.28
490.619	2.33
490.817	2.37
491.016	2.38
491.214	2.39
491.413	2.45
491.611	2.35
491.81	2.42
492.008	2.42
492.207	2.53
492.405	2.51
492.604	2.44
492.802	2.56
493	2.58
493.199	2.64
493.397	2.65
493.595	2.67
493.794	2.62
493.992	2.73
494.19	2.74
494.388	2.78
494.587	2.72
494.785	2.76
494.983	2.72
495.181	2.79
495.379	2.91
495.578	3
495.776	2.91
495.974	2.9
496.172	2.97
496.37	3.06
496.568	3.11
496.766	3.12
496.964	3.16
497.162	3.15
497.36	3.25
497.558	3.2
497.756	3.27
497.954	3.24
498.152	3.34
498.35	3.39
498.548	3.31
498.746	3.37
498.944	3.43
499.142	3.44
499.34	3.53
499.538	3.66
499.736	3.51
499.933	3.58
500.131	3.52
500.329	3.8
500.527	3.71
500.725	3.83
500.922	3.79
501.12	3.83
501.318	3.93
501.516	3.92
501.713	3.97
501.911	3.99
502.109	3.93
502.306	4.09
