Data from Apollo_Calib_20240827__AbsoluteIrradiance__815__12-44-01-304.txt Node

Date: Wed Aug 28 12:44:01 BST 2024
User: biology
Spectrometer: FLMT08252
Trigger mode: 0
Integration Time (sec): 5.000000E-1
Scans to average: 5
Electric dark correction enabled: true
Nonlinearity correction enabled: false
Boxcar width: 0
XAxis mode: Wavelengths
Number of Pixels in Spectrum: 3648
>>>>>Begin Spectral Data<<<<<
179.588	-0
179.809	-0
180.03	-0
180.251	-0
180.473	-0
180.694	0
180.915	0
181.136	-0
181.357	0
181.578	-0
181.799	0
182.02	-0
182.241	0
182.462	-0
182.683	0
182.904	-0
183.125	0
183.346	0
183.567	0
183.788	0
184.009	0
184.23	0
184.451	0
184.672	0
184.892	0
185.113	0
185.334	0
185.555	0
185.776	0
185.996	0
186.217	0
186.438	0
186.659	0
186.879	0
187.1	0
187.321	0
187.541	0
187.762	0
187.983	0
188.203	0
188.424	0
188.644	0
188.865	0
189.086	0
189.306	0
189.527	0
189.747	0
189.968	0
190.188	0
190.409	0
190.629	0
190.849	0
191.07	0
191.29	0
191.511	0
191.731	0
191.951	0
192.172	0
192.392	0
192.612	0
192.833	0
193.053	0
193.273	0
193.493	0
193.714	0
193.934	0
194.154	0
194.374	0
194.594	0
194.815	0
195.035	0
195.255	0
195.475	0
195.695	0
195.915	0
196.135	0
196.355	0
196.575	0
196.795	0
197.015	0
197.235	0
197.455	0
197.675	0
197.895	0
198.115	0
198.335	0
198.555	0
198.775	0
198.995	0
199.214	0
199.434	0
199.654	0
199.874	0
200.094	4.28
200.313	2.13
200.533	1.89
200.753	1.71
200.973	3.63
201.192	2.97
201.412	1.61
201.632	2.05
201.851	3.7
202.071	1.81
202.291	1.69
202.51	1.37
202.73	2.73
202.95	1.7
203.169	1.31
203.389	1.35
203.608	1.92
203.828	1.82
204.047	1.45
204.267	2.38
204.486	2.39
204.706	2.48
204.925	1.88
205.145	1.2
205.364	2.36
205.583	2.77
205.803	1.36
206.022	1.3
206.242	1.76
206.461	1.59
206.68	1.35
206.9	1.17
207.119	2.32
207.338	2.2
207.557	1.17
207.777	1.18
207.996	1.5
208.215	2.47
208.434	1.24
208.654	0.91
208.873	1.62
209.092	2.16
209.311	1.05
209.53	1.23
209.749	1.3
209.968	1.19
210.187	1.2
210.407	0.65
210.626	1.35
210.845	1.66
211.064	1.05
211.283	0.81
211.502	1.5
211.721	1.31
211.94	1.16
212.159	1.35
212.377	1.63
212.596	1.48
212.815	1.06
213.034	1.23
213.253	1.46
213.472	1.41
213.691	0.97
213.91	0.8
214.128	0.72
214.347	1.53
214.566	0.71
214.785	0.39
215.003	1.38
215.222	1.17
215.441	1.03
215.66	0.57
215.878	0.84
216.097	1.15
216.316	0.66
216.534	0.98
216.753	1.12
216.972	0.79
217.19	0.67
217.409	0.65
217.627	0.72
217.846	0.76
218.064	0.9
218.283	0.46
218.501	1.53
218.72	0.92
218.938	0.57
219.157	0.68
219.375	1.11
219.594	1
219.812	0.47
220.031	0.41
220.249	1.23
220.467	1.26
220.686	0.68
220.904	0.46
221.122	0.67
221.341	1.24
221.559	0.89
221.777	0.54
221.995	0.84
222.214	0.93
222.432	0.65
222.65	0.87
222.868	0.79
223.086	0.94
223.305	0.83
223.523	0.62
223.741	1.23
223.959	0.7
224.177	0.41
224.395	0.45
224.613	0.82
224.831	0.86
225.049	0.44
225.267	0.56
225.485	0.73
225.703	0.77
225.921	0.6
226.139	0.49
226.357	0.68
226.575	0.85
226.793	0.51
227.011	1.63
227.229	0.77
227.447	0.86
227.665	0.5
227.883	0.45
228.1	0.73
228.318	0.77
228.536	0.27
228.754	0.39
228.972	0.72
229.189	0.83
229.407	0.43
229.625	0.43
229.843	0.83
230.06	0.83
230.278	0.42
230.496	0.5
230.713	0.75
230.931	0.81
231.149	0.42
231.366	0.39
231.584	0.58
231.801	1
232.019	0.52
232.236	0.39
232.454	0.33
232.671	0.65
232.889	0.53
233.106	0.39
233.324	0.56
233.541	0.58
233.759	0.45
233.976	0.43
234.194	0.53
234.411	0.55
234.628	0.47
234.846	0.47
235.063	0.52
235.28	0.59
235.498	0.49
235.715	0.39
235.932	0.83
236.149	0.53
236.367	0.42
236.584	0.68
236.801	0.46
237.018	0.68
237.236	0.44
237.453	0.24
237.67	0.69
237.887	0.48
238.104	0.46
238.321	0.42
238.538	0.33
238.755	0.71
238.973	0.25
239.19	0.52
239.407	0.54
239.624	0.59
239.841	0.32
240.058	0.34
240.275	0.59
240.492	0.52
240.709	0.41
240.925	0.41
241.142	0.42
241.359	0.32
241.576	0.24
241.793	0.38
242.01	0.43
242.227	0.59
242.444	0.47
242.66	0.64
242.877	0.53
243.094	0.44
243.311	0.4
243.527	0.43
243.744	0.54
243.961	0.43
244.178	0.39
244.394	0.42
244.611	0.58
244.828	0.65
245.044	0.41
245.261	0.39
245.477	0.5
245.694	0.54
245.911	0.33
246.127	0.45
246.344	0.52
246.56	0.5
246.777	0.39
246.993	0.37
247.21	0.42
247.426	0.53
247.643	0.34
247.859	0.37
248.076	0.43
248.292	0.72
248.508	0.33
248.725	0.43
248.941	0.55
249.157	0.63
249.374	0.31
249.59	0.45
249.806	0.44
250.023	0.51
250.239	0.31
250.455	0.32
250.671	0.44
250.888	0.53
251.104	0.47
251.32	0.34
251.536	0.48
251.752	0.44
251.969	0.36
252.185	0.36
252.401	0.63
252.617	0.45
252.833	0.36
253.049	0.43
253.265	0.52
253.481	0.35
253.697	0.34
253.913	0.34
254.129	0.45
254.345	0.48
254.561	0.27
254.777	0.39
254.993	0.47
255.209	0.37
255.425	0.4
255.641	0.37
255.857	0.47
256.073	0.47
256.288	0.25
256.504	0.31
256.72	0.49
256.936	0.53
257.152	0.36
257.367	0.24
257.583	0.35
257.799	0.52
258.015	0.35
258.23	0.34
258.446	0.66
258.662	0.31
258.877	0.33
259.093	0.26
259.309	0.34
259.524	0.42
259.74	0.35
259.955	0.24
260.171	0.39
260.387	0.38
260.602	0.45
260.818	0.46
261.033	0.27
261.249	0.47
261.464	0.3
261.68	0.21
261.895	0.46
262.11	0.46
262.326	0.33
262.541	0.23
262.757	0.49
262.972	0.44
263.187	0.41
263.403	0.38
263.618	0.41
263.833	0.4
264.049	0.33
264.264	0.29
264.479	0.42
264.694	0.54
264.91	0.26
265.125	0.3
265.34	0.41
265.555	0.52
265.77	0.36
265.986	0.37
266.201	0.45
266.416	0.51
266.631	0.3
266.846	0.33
267.061	0.39
267.276	0.45
267.491	0.19
267.706	0.37
267.921	0.39
268.136	0.38
268.351	0.31
268.566	0.26
268.781	0.5
268.996	0.41
269.211	0.36
269.426	0.24
269.641	0.34
269.856	0.51
270.071	0.27
270.285	0.24
270.5	0.46
270.715	0.43
270.93	0.28
271.145	0.31
271.359	0.46
271.574	0.32
271.789	0.39
272.004	0.28
272.218	0.3
272.433	0.41
272.648	0.34
272.862	0.42
273.077	0.31
273.292	0.35
273.506	0.25
273.721	0.31
273.936	0.41
274.15	0.42
274.365	0.31
274.579	0.34
274.794	0.39
275.008	0.42
275.223	0.22
275.437	0.35
275.652	0.38
275.866	0.39
276.081	0.28
276.295	0.39
276.509	0.32
276.724	0.36
276.938	0.28
277.153	0.41
277.367	0.39
277.581	0.24
277.796	0.3
278.01	0.22
278.224	0.39
278.438	0.45
278.653	0.28
278.867	0.22
279.081	0.17
279.295	0.31
279.51	0.32
279.724	0.18
279.938	0.39
280.152	0.38
280.366	0.27
280.58	0.31
280.794	0.5
281.008	0.35
281.222	0.3
281.437	0.45
281.651	0.32
281.865	0.39
282.079	0.25
282.293	0.2
282.507	0.25
282.721	0.33
282.935	0.27
283.148	0.24
283.362	0.32
283.576	0.24
283.79	0.32
284.004	0.25
284.218	0.36
284.432	0.33
284.646	0.3
284.859	0.23
285.073	0.29
285.287	0.31
285.501	0.3
285.714	0.28
285.928	0.34
286.142	0.34
286.356	0.26
286.569	0.28
286.783	0.41
286.997	0.34
287.21	0.32
287.424	0.28
287.637	0.21
287.851	0.31
288.065	0.39
288.278	0.28
288.492	0.28
288.705	0.28
288.919	0.31
289.132	0.15
289.346	0.37
289.559	0.22
289.773	0.25
289.986	0.26
290.2	0.26
290.413	0.38
290.626	0.26
290.84	0.27
291.053	0.29
291.267	0.4
291.48	0.3
291.693	0.25
291.906	0.26
292.12	0.34
292.333	0.23
292.546	0.25
292.76	0.41
292.973	0.31
293.186	0.34
293.399	0.23
293.612	0.36
293.826	0.29
294.039	0.27
294.252	0.27
294.465	0.36
294.678	0.32
294.891	0.3
295.104	0.2
295.317	0.27
295.53	0.3
295.743	0.28
295.956	0.26
296.169	0.41
296.382	0.29
296.595	0.27
296.808	0.2
297.021	0.33
297.234	0.34
297.447	0.25
297.66	0.29
297.873	0.38
298.086	0.36
298.299	0.21
298.511	0.16
298.724	0.28
298.937	0.2
299.15	0.21
299.363	0.29
299.575	0.35
299.788	0.26
300.001	0.23
300.213	0.21
300.426	0.25
300.639	0.24
300.852	0.19
301.064	0.32
301.277	0.39
301.489	0.32
301.702	0.27
301.915	0.23
302.127	0.26
302.34	0.26
302.552	0.27
302.765	0.24
302.977	0.31
303.19	0.22
303.402	0.19
303.615	0.24
303.827	0.27
304.04	0.28
304.252	0.3
304.464	0.27
304.677	0.39
304.889	0.33
305.102	0.24
305.314	0.17
305.526	0.32
305.739	0.31
305.951	0.19
306.163	0.25
306.375	0.34
306.588	0.23
306.8	0.24
307.012	0.17
307.224	0.29
307.436	0.37
307.649	0.19
307.861	0.24
308.073	0.27
308.285	0.24
308.497	0.21
308.709	0.21
308.921	0.26
309.133	0.29
309.346	0.26
309.558	0.2
309.77	0.31
309.982	0.33
310.194	0.31
310.406	0.23
310.617	0.38
310.829	0.27
311.041	0.31
311.253	0.24
311.465	0.24
311.677	0.3
311.889	0.26
312.101	0.21
312.313	0.33
312.524	0.34
312.736	0.2
312.948	0.28
313.16	0.36
313.372	0.33
313.583	0.29
313.795	0.19
314.007	0.28
314.218	0.34
314.43	0.22
314.642	0.23
314.853	0.17
315.065	0.28
315.277	0.27
315.488	0.27
315.7	0.32
315.912	0.31
316.123	0.22
316.335	0.23
316.546	0.41
316.758	0.25
316.969	0.24
317.181	0.25
317.392	0.23
317.604	0.34
317.815	0.25
318.026	0.21
318.238	0.28
318.449	0.3
318.661	0.15
318.872	0.16
319.083	0.23
319.295	0.24
319.506	0.21
319.717	0.25
319.929	0.32
320.14	0.28
320.351	0.26
320.562	0.23
320.774	0.31
320.985	0.28
321.196	0.2
321.407	0.17
321.618	0.3
321.829	0.26
322.041	0.27
322.252	0.27
322.463	0.29
322.674	0.33
322.885	0.17
323.096	0.26
323.307	0.3
323.518	0.26
323.729	0.18
323.94	0.21
324.151	0.26
324.362	0.29
324.573	0.27
324.784	0.21
324.995	0.29
325.206	0.29
325.417	0.2
325.628	0.2
325.838	0.33
326.049	0.3
326.26	0.27
326.471	0.21
326.682	0.3
326.892	0.28
327.103	0.18
327.314	0.2
327.525	0.35
327.735	0.3
327.946	0.25
328.157	0.18
328.368	0.34
328.578	0.33
328.789	0.3
328.999	0.26
329.21	0.25
329.421	0.31
329.631	0.26
329.842	0.24
330.052	0.24
330.263	0.34
330.473	0.29
330.684	0.24
330.894	0.28
331.105	0.28
331.315	0.28
331.526	0.2
331.736	0.37
331.947	0.29
332.157	0.27
332.367	0.2
332.578	0.31
332.788	0.38
332.999	0.31
333.209	0.23
333.419	0.2
333.629	0.3
333.84	0.29
334.05	0.26
334.26	0.34
334.47	0.27
334.681	0.32
334.891	0.23
335.101	0.3
335.311	0.36
335.521	0.27
335.732	0.22
335.942	0.36
336.152	0.29
336.362	0.27
336.572	0.25
336.782	0.29
336.992	0.21
337.202	0.26
337.412	0.24
337.622	0.28
337.832	0.29
338.042	0.24
338.252	0.25
338.462	0.23
338.672	0.25
338.882	0.26
339.092	0.24
339.302	0.34
339.511	0.31
339.721	0.23
339.931	0.19
340.141	0.33
340.351	0.31
340.561	0.26
340.77	0.31
340.98	0.32
341.19	0.27
341.4	0.24
341.609	0.24
341.819	0.25
342.029	0.22
342.238	0.28
342.448	0.25
342.658	0.31
342.867	0.26
343.077	0.23
343.286	0.25
343.496	0.3
343.706	0.3
343.915	0.23
344.125	0.23
344.334	0.27
344.544	0.17
344.753	0.18
344.963	0.24
345.172	0.19
345.381	0.18
345.591	0.22
345.8	0.27
346.01	0.31
346.219	0.33
346.428	0.25
346.638	0.23
346.847	0.28
347.056	0.3
347.266	0.24
347.475	0.2
347.684	0.32
347.893	0.29
348.103	0.26
348.312	0.24
348.521	0.27
348.73	0.29
348.94	0.26
349.149	0.23
349.358	0.26
349.567	0.24
349.776	0.16
349.985	0.2
350.194	0.33
350.403	0.37
350.612	0.16
350.821	0.21
351.03	0.25
351.239	0.19
351.448	0.27
351.657	0.2
351.866	0.35
352.075	0.24
352.284	0.25
352.493	0.22
352.702	0.36
352.911	0.31
353.12	0.24
353.329	0.22
353.538	0.27
353.746	0.27
353.955	0.21
354.164	0.25
354.373	0.24
354.582	0.3
354.79	0.25
354.999	0.27
355.208	0.22
355.416	0.34
355.625	0.2
355.834	0.22
356.042	0.29
356.251	0.24
356.46	0.16
356.668	0.27
356.877	0.37
357.085	0.29
357.294	0.13
357.503	0.28
357.711	0.23
357.92	0.41
358.128	0.27
358.337	0.19
358.545	0.32
358.754	0.24
358.962	0.26
359.17	0.19
359.379	0.25
359.587	0.28
359.796	0.24
360.004	0.33
360.212	0.28
360.421	0.29
360.629	0.27
360.837	0.26
361.046	0.3
361.254	0.4
361.462	0.22
361.67	0.23
361.879	0.29
362.087	0.32
362.295	0.28
362.503	0.24
362.711	0.18
362.92	0.21
363.128	0.21
363.336	0.2
363.544	0.23
363.752	0.27
363.96	0.22
364.168	0.23
364.376	0.28
364.584	0.29
364.792	0.31
365	0.27
365.208	0.25
365.416	0.31
365.624	0.27
365.832	0.2
366.04	0.33
366.248	0.27
366.456	0.28
366.664	0.24
366.872	0.29
367.079	0.24
367.287	0.23
367.495	0.27
367.703	0.24
367.911	0.3
368.118	0.25
368.326	0.27
368.534	0.22
368.742	0.32
368.949	0.16
369.157	0.23
369.365	0.29
369.572	0.24
369.78	0.18
369.988	0.27
370.195	0.25
370.403	0.32
370.61	0.25
370.818	0.23
371.026	0.36
371.233	0.21
371.441	0.24
371.648	0.22
371.856	0.26
372.063	0.29
372.271	0.23
372.478	0.22
372.685	0.24
372.893	0.29
373.1	0.22
373.308	0.25
373.515	0.33
373.722	0.29
373.93	0.24
374.137	0.3
374.344	0.34
374.552	0.32
374.759	0.27
374.966	0.27
375.173	0.23
375.381	0.35
375.588	0.25
375.795	0.22
376.002	0.27
376.209	0.24
376.417	0.25
376.624	0.24
376.831	0.31
377.038	0.26
377.245	0.17
377.452	0.3
377.659	0.26
377.866	0.24
378.073	0.24
378.28	0.25
378.487	0.35
378.694	0.35
378.901	0.26
379.108	0.25
379.315	0.26
379.522	0.39
379.729	0.26
379.936	0.28
380.143	0.28
380.35	0.28
380.557	0.25
380.763	0.27
380.97	0.24
381.177	0.27
381.384	0.29
381.591	0.2
381.797	0.27
382.004	0.31
382.211	0.31
382.418	0.18
382.624	0.33
382.831	0.38
383.038	0.25
383.244	0.3
383.451	0.29
383.658	0.32
383.864	0.23
384.071	0.23
384.277	0.34
384.484	0.26
384.69	0.39
384.897	0.26
385.103	0.3
385.31	0.25
385.516	0.25
385.723	0.23
385.929	0.28
386.136	0.29
386.342	0.28
386.549	0.27
386.755	0.36
386.961	0.32
387.168	0.3
387.374	0.26
387.58	0.32
387.787	0.26
387.993	0.32
388.199	0.27
388.406	0.26
388.612	0.25
388.818	0.23
389.024	0.26
389.231	0.25
389.437	0.43
389.643	0.29
389.849	0.26
390.055	0.29
390.261	0.26
390.467	0.34
390.674	0.21
390.88	0.3
391.086	0.31
391.292	0.24
391.498	0.3
391.704	0.33
391.91	0.32
392.116	0.26
392.322	0.21
392.528	0.38
392.734	0.29
392.94	0.31
393.146	0.28
393.352	0.35
393.557	0.31
393.763	0.3
393.969	0.34
394.175	0.31
394.381	0.34
394.587	0.24
394.792	0.27
394.998	0.4
395.204	0.35
395.41	0.27
395.615	0.36
395.821	0.34
396.027	0.35
396.233	0.26
396.438	0.31
396.644	0.38
396.85	0.3
397.055	0.36
397.261	0.37
397.466	0.32
397.672	0.38
397.878	0.38
398.083	0.37
398.289	0.29
398.494	0.39
398.7	0.38
398.905	0.24
399.111	0.47
399.316	0.27
399.522	0.35
399.727	0.34
399.932	0.35
400.138	0.33
400.343	0.38
400.549	0.33
400.754	0.35
400.959	0.38
401.165	0.35
401.37	0.43
401.575	0.35
401.78	0.37
401.986	0.38
402.191	0.35
402.396	0.37
402.601	0.38
402.807	0.41
403.012	0.38
403.217	0.45
403.422	0.44
403.627	0.4
403.832	0.4
404.037	0.5
404.243	0.49
404.448	0.46
404.653	0.42
404.858	0.47
405.063	0.47
405.268	0.4
405.473	0.4
405.678	0.46
405.883	0.69
406.088	0.51
406.293	0.43
406.498	0.48
406.703	0.5
406.907	0.45
407.112	0.43
407.317	0.53
407.522	0.58
407.727	0.46
407.932	0.51
408.136	0.72
408.341	0.55
408.546	0.61
408.751	0.55
408.956	0.59
409.16	0.69
409.365	0.62
409.57	0.62
409.774	0.64
409.979	0.69
410.184	0.65
410.388	0.61
410.593	0.78
410.798	0.75
411.002	0.75
411.207	0.75
411.411	0.8
411.616	0.77
411.82	0.82
412.025	0.86
412.229	0.83
412.434	0.92
412.638	0.95
412.843	0.91
413.047	0.99
413.252	0.95
413.456	0.96
413.66	1.07
413.865	0.99
414.069	1.17
414.273	1.08
414.478	1.09
414.682	1.16
414.886	1.21
415.091	1.2
415.295	1.22
415.499	1.36
415.703	1.29
415.908	1.47
416.112	1.37
416.316	1.6
416.52	1.55
416.724	1.52
416.929	1.62
417.133	1.81
417.337	1.75
417.541	1.81
417.745	1.84
417.949	1.92
418.153	1.94
418.357	2.05
418.561	2.19
418.765	2.11
418.969	2.35
419.173	2.41
419.377	2.41
419.581	2.67
419.785	2.61
419.989	2.6
420.193	2.78
420.397	2.87
420.601	3
420.804	3.08
421.008	3.06
421.212	3.15
421.416	3.25
421.62	3.21
421.823	3.34
422.027	3.52
422.231	3.51
422.435	3.45
422.638	3.47
422.842	3.67
423.046	3.7
423.249	3.92
423.453	3.81
423.657	4.1
423.86	4.12
424.064	4.26
424.268	4.33
424.471	4.44
424.675	4.61
424.878	4.75
425.082	4.82
425.285	5.11
425.489	5.1
425.692	5.26
425.896	5.27
426.099	5.48
426.303	5.54
426.506	5.7
426.71	5.96
426.913	6.2
427.116	6.37
427.32	6.18
427.523	6.44
427.726	6.67
427.93	6.75
428.133	7.07
428.336	7.27
428.54	7.38
428.743	7.56
428.946	7.76
429.149	7.82
429.353	7.8
429.556	7.98
429.759	7.92
429.962	8.06
430.165	8.24
430.368	7.96
430.571	7.94
430.775	8.12
430.978	8.05
431.181	8.2
431.384	8.14
431.587	8.27
431.79	8.67
431.993	8.56
432.196	8.95
432.399	9.21
432.602	9.36
432.805	9.46
433.008	9.92
433.211	9.88
433.414	10.29
433.616	10.31
433.819	10.19
434.022	10.48
434.225	10.5
434.428	10.52
434.631	11.05
434.833	10.67
435.036	10.95
435.239	11.16
435.442	11.31
435.645	11.44
435.847	11.54
436.05	11.94
436.253	12.01
436.455	12.06
436.658	11.98
436.861	12.25
437.063	12.37
437.266	12.39
437.468	12.6
437.671	13.1
437.874	12.93
438.076	12.98
438.279	13.25
438.481	13.42
438.684	14.15
438.886	13.76
439.089	13.97
439.291	14.05
439.494	14.42
439.696	14.62
439.899	15.18
440.101	15.55
440.303	15.66
440.506	16.3
440.708	16.09
440.91	16.5
441.113	16.52
441.315	16.84
441.517	16.54
441.72	17.27
441.922	16.72
442.124	16.73
442.326	17.11
442.529	17.3
442.731	17.33
442.933	17.74
443.135	17.27
443.337	17.33
443.539	18.05
443.742	17.53
443.944	18.16
444.146	17.93
444.348	17.95
444.55	17.74
444.752	17.91
444.954	18.08
445.156	17.9
445.358	18.34
445.56	18.54
445.762	18.52
445.964	18.84
446.166	18.53
446.368	18.46
446.57	18.41
446.772	18.12
446.974	17.89
447.175	18.27
447.377	17.84
447.579	18.22
447.781	17.99
447.983	17.76
448.184	17.29
448.386	17.69
448.588	17.16
448.79	17.18
448.991	17.43
449.193	17.45
449.395	16.86
449.597	16.47
449.798	16.26
450	15.84
450.202	15.88
450.403	15.78
450.605	15.65
450.806	15.29
451.008	15.2
451.21	14.95
451.411	14.53
451.613	13.84
451.814	14.05
452.016	14.13
452.217	13.35
452.419	13.37
452.62	12.96
452.821	12.92
453.023	12.7
453.224	12.36
453.426	11.78
453.627	11.14
453.828	11.17
454.03	11.4
454.231	11.38
454.432	11.06
454.634	10.65
454.835	10.42
455.036	10.51
455.238	9.97
455.439	9.83
455.64	9.62
455.841	9.41
456.042	9.5
456.244	9.27
456.445	8.97
456.646	8.54
456.847	8.62
457.048	8.43
457.249	8.5
457.45	8.28
457.651	7.73
457.852	7.69
458.054	7.29
458.255	7.24
458.456	7.28
458.657	7.19
458.858	6.75
459.058	6.65
459.259	6.76
459.46	6.45
459.661	6.5
459.862	6.51
460.063	6.34
460.264	6.24
460.465	6
460.666	6.09
460.866	5.77
461.067	5.52
461.268	5.48
461.469	5.48
461.67	5.33
461.87	5.14
462.071	5.25
462.272	5.1
462.473	5.12
462.673	5.31
462.874	5.16
463.075	5.16
463.275	5.17
463.476	5.15
463.676	5.12
463.877	5.08
464.078	4.98
464.278	4.91
464.479	4.87
464.679	4.81
464.88	4.72
465.08	4.72
465.281	4.49
465.481	4.33
465.682	4.14
465.882	4.18
466.083	4.13
466.283	4.07
466.483	3.97
466.684	3.72
466.884	3.64
467.085	3.64
467.285	3.81
467.485	3.59
467.686	3.48
467.886	3.48
468.086	3.37
468.286	3.39
468.487	3.45
468.687	3.26
468.887	3.2
469.087	3.33
469.287	3.22
469.488	3.14
469.688	3.19
469.888	3.2
470.088	3.13
470.288	3.03
470.488	3.14
470.688	2.84
470.888	2.89
471.088	2.65
471.288	2.84
471.488	2.8
471.688	2.73
471.888	2.67
472.088	2.84
472.288	2.76
472.488	2.62
472.688	2.57
472.888	2.62
473.088	2.64
473.288	2.53
473.488	2.49
473.688	2.64
473.887	2.51
474.087	2.41
474.287	2.53
474.487	2.42
474.687	2.44
474.886	2.4
475.086	2.31
475.286	2.3
475.486	2.37
475.685	2.32
475.885	2.23
476.085	2.3
476.284	2.28
476.484	2.25
476.684	2.22
476.883	2.35
477.083	2.21
477.282	2.15
477.482	2.2
477.681	2.18
477.881	2.08
478.08	2.07
478.28	2.03
478.479	2.11
478.679	2.21
478.878	2.07
479.078	2.03
479.277	2.13
479.477	2.08
479.676	2.05
479.875	2.04
480.075	1.93
480.274	2.02
480.473	2.07
480.673	2.06
480.872	2.11
481.071	2.08
481.271	2.08
481.47	2.01
481.669	2
481.868	2
482.067	1.95
482.267	1.88
482.466	1.93
482.665	1.94
482.864	1.99
483.063	1.94
483.262	2.03
483.461	2.06
483.661	2.08
483.86	2
484.059	2.06
484.258	2.03
484.457	1.99
484.656	2.03
484.855	2.06
485.054	1.92
485.253	1.99
485.452	1.92
485.651	2.09
485.849	2.01
486.048	2.01
486.247	2.05
486.446	2.1
486.645	1.99
486.844	2.08
487.043	2.06
487.241	2.09
487.44	2.05
487.639	2.1
487.838	2.15
488.037	2.12
488.235	2.24
488.434	2.17
488.633	2.05
488.831	2.22
489.03	2.22
489.229	2.21
489.427	2.21
489.626	2.26
489.825	2.33
490.023	2.33
490.222	2.3
490.42	2.31
490.619	2.39
490.817	2.31
491.016	2.35
491.214	2.42
491.413	2.42
491.611	2.39
491.81	2.42
492.008	2.48
492.207	2.51
492.405	2.53
492.604	2.46
492.802	2.53
493	2.59
493.199	2.61
493.397	2.6
493.595	2.7
493.794	2.64
493.992	2.76
494.19	2.77
494.388	2.86
494.587	2.73
494.785	2.76
494.983	2.75
495.181	2.86
495.379	2.89
495.578	2.96
495.776	2.99
495.974	2.9
496.172	2.98
496.37	3.08
496.568	3.09
496.766	3.06
496.964	3.2
497.162	3.19
497.36	3.19
497.558	3.21
497.756	3.3
497.954	3.29
498.152	3.32
498.35	3.44
498.548	3.35
498.746	3.37
498.944	3.38
499.142	3.38
499.34	3.55
499.538	3.61
499.736	3.5
499.933	3.63
500.131	3.62
500.329	3.77
500.527	3.73
500.725	3.88
500.922	3.85
501.12	3.87
501.318	3.93
501.516	3.91
501.713	4.04
501.911	3.99
502.109	3.98
502.306	4.09
502.504	3.97
502.701	4.06
