Data from Apollo_Calib_20240827__AbsoluteIrradiance__742__11-31-00-670.txt Node

Date: Wed Aug 28 11:31:00 BST 2024
User: biology
Spectrometer: FLMT08252
Trigger mode: 0
Integration Time (sec): 5.000000E-1
Scans to average: 5
Electric dark correction enabled: true
Nonlinearity correction enabled: false
Boxcar width: 0
XAxis mode: Wavelengths
Number of Pixels in Spectrum: 3648
>>>>>Begin Spectral Data<<<<<
179.588	-0
179.809	-0
180.03	-0
180.251	-0
180.473	-0
180.694	0
180.915	0
181.136	-0
181.357	0
181.578	-0
181.799	-0
182.02	-0
182.241	0
182.462	-0
182.683	0
182.904	-0
183.125	-0
183.346	0
183.567	0
183.788	0
184.009	0
184.23	0
184.451	0
184.672	0
184.892	0
185.113	0
185.334	0
185.555	0
185.776	0
185.996	0
186.217	0
186.438	0
186.659	0
186.879	0
187.1	0
187.321	0
187.541	0
187.762	0
187.983	0
188.203	0
188.424	0
188.644	0
188.865	0
189.086	0
189.306	0
189.527	0
189.747	0
189.968	0
190.188	0
190.409	0
190.629	0
190.849	0
191.07	0
191.29	0
191.511	0
191.731	0
191.951	0
192.172	0
192.392	0
192.612	0
192.833	0
193.053	0
193.273	0
193.493	0
193.714	0
193.934	0
194.154	0
194.374	0
194.594	0
194.815	0
195.035	0
195.255	0
195.475	0
195.695	0
195.915	0
196.135	0
196.355	0
196.575	0
196.795	0
197.015	0
197.235	0
197.455	0
197.675	0
197.895	0
198.115	0
198.335	0
198.555	0
198.775	0
198.995	0
199.214	0
199.434	0
199.654	0
199.874	0
200.094	2.54
200.313	1.82
200.533	0.62
200.753	0.71
200.973	2.63
201.192	1.65
201.412	-0.05
201.632	0.61
201.851	2.56
202.071	0.73
202.291	0.75
202.51	0.45
202.73	1.97
202.95	0.84
203.169	0.34
203.389	1.2
203.608	1.35
203.828	0.37
204.047	0.64
204.267	1.04
204.486	0.99
204.706	1.27
204.925	0.96
205.145	0.55
205.364	1.27
205.583	1.52
205.803	0.66
206.022	0.63
206.242	0.92
206.461	0.96
206.68	0.82
206.9	0.8
207.119	1.93
207.338	1.17
207.557	0.32
207.777	0.71
207.996	0.98
208.215	1.36
208.434	0.72
208.654	-0.08
208.873	1.08
209.092	1.41
209.311	0.3
209.53	0.48
209.749	0.51
209.968	0.41
210.187	0.6
210.407	0.3
210.626	0.44
210.845	1.04
211.064	0.59
211.283	0.32
211.502	0.81
211.721	0.39
211.94	0.53
212.159	0.65
212.377	1.21
212.596	1.03
212.815	0.73
213.034	0.47
213.253	0.79
213.472	0.72
213.691	0.4
213.91	0.25
214.128	0.46
214.347	0.73
214.566	0.25
214.785	0.12
215.003	0.68
215.222	0.8
215.441	0.53
215.66	0.26
215.878	0.57
216.097	0.82
216.316	0.29
216.534	0.19
216.753	0.57
216.972	0.45
217.19	0.39
217.409	0.29
217.627	0.35
217.846	0.28
218.064	0.6
218.283	0.24
218.501	0.85
218.72	0.73
218.938	0.21
219.157	0.33
219.375	0.7
219.594	0.5
219.812	0.09
220.031	0.22
220.249	0.84
220.467	0.6
220.686	0.17
220.904	0.07
221.122	0.34
221.341	0.77
221.559	0.37
221.777	0.02
221.995	0.45
222.214	0.5
222.432	0.22
222.65	0.54
222.868	0.36
223.086	0.43
223.305	0.49
223.523	0.41
223.741	0.67
223.959	0.26
224.177	0.19
224.395	0.29
224.613	0.4
224.831	0.63
225.049	0.06
225.267	0.32
225.485	0.41
225.703	0.24
225.921	0.24
226.139	0.2
226.357	0.41
226.575	0.3
226.793	0.21
227.011	1.06
227.229	0.62
227.447	0.6
227.665	0.42
227.883	0.09
228.1	0.32
228.318	0.35
228.536	-0.04
228.754	0.18
228.972	0.45
229.189	0.48
229.407	0.3
229.625	0.34
229.843	0.42
230.06	0.43
230.278	0.38
230.496	0.32
230.713	0.35
230.931	0.55
231.149	0.16
231.366	0.15
231.584	0.22
231.801	0.71
232.019	0.3
232.236	0.21
232.454	0.2
232.671	0.44
232.889	0.22
233.106	0.28
233.324	0.33
233.541	0.29
233.759	0.24
233.976	0.23
234.194	0.32
234.411	0.22
234.628	0.23
234.846	0.17
235.063	0.36
235.28	0.28
235.498	0.26
235.715	0.17
235.932	0.54
236.149	0.31
236.367	0.18
236.584	0.29
236.801	0.25
237.018	0.37
237.236	0.35
237.453	0.11
237.67	0.37
237.887	0.23
238.104	0.29
238.321	0.16
238.538	0.22
238.755	0.29
238.973	0.07
239.19	0.29
239.407	0.28
239.624	0.3
239.841	0.15
240.058	0.15
240.275	0.25
240.492	0.26
240.709	0.15
240.925	0.17
241.142	0.2
241.359	0.15
241.576	0.16
241.793	0.26
242.01	0.21
242.227	0.34
242.444	0.34
242.66	0.44
242.877	0.27
243.094	0.25
243.311	0.16
243.527	0.14
243.744	0.26
243.961	0.32
244.178	0.12
244.394	0.24
244.611	0.46
244.828	0.43
245.044	0.19
245.261	0.14
245.477	0.29
245.694	0.38
245.911	0.15
246.127	0.22
246.344	0.42
246.56	0.33
246.777	0.22
246.993	0.28
247.21	0.26
247.426	0.33
247.643	0.17
247.859	0.16
248.076	0.15
248.292	0.51
248.508	0.13
248.725	0.4
248.941	0.29
249.157	0.37
249.374	0.17
249.59	0.26
249.806	0.23
250.023	0.38
250.239	0.18
250.455	0.17
250.671	0.2
250.888	0.28
251.104	0.32
251.32	0.23
251.536	0.18
251.752	0.17
251.969	0.2
252.185	0.21
252.401	0.41
252.617	0.32
252.833	0.08
253.049	0.18
253.265	0.17
253.481	0.23
253.697	0.2
253.913	0.09
254.129	0.28
254.345	0.24
254.561	0.13
254.777	0.27
254.993	0.29
255.209	0.25
255.425	0.11
255.641	0.15
255.857	0.26
256.073	0.25
256.288	0.07
256.504	0.19
256.72	0.21
256.936	0.32
257.152	0.21
257.367	0.11
257.583	0.26
257.799	0.28
258.015	0.07
258.23	0.17
258.446	0.36
258.662	0.21
258.877	0.11
259.093	0.1
259.309	0.24
259.524	0.29
259.74	0.2
259.955	0.1
260.171	0.19
260.387	0.23
260.602	0.31
260.818	0.3
261.033	0.11
261.249	0.19
261.464	0.21
261.68	0.12
261.895	0.26
262.11	0.24
262.326	0.18
262.541	0.09
262.757	0.22
262.972	0.25
263.187	0.21
263.403	0.18
263.618	0.28
263.833	0.15
264.049	0.14
264.264	0.22
264.479	0.27
264.694	0.36
264.91	0.11
265.125	0.24
265.34	0.23
265.555	0.34
265.77	0.24
265.986	0.13
266.201	0.29
266.416	0.3
266.631	0.22
266.846	0.1
267.061	0.27
267.276	0.26
267.491	0.05
267.706	0.26
267.921	0.23
268.136	0.17
268.351	0.15
268.566	0.11
268.781	0.3
268.996	0.25
269.211	0.17
269.426	0.06
269.641	0.2
269.856	0.27
270.071	0.15
270.285	0.07
270.5	0.29
270.715	0.23
270.93	0.19
271.145	0.21
271.359	0.25
271.574	0.13
271.789	0.17
272.004	0.11
272.218	0.14
272.433	0.23
272.648	0.14
272.862	0.21
273.077	0.21
273.292	0.19
273.506	0.18
273.721	0.11
273.936	0.23
274.15	0.3
274.365	0.17
274.579	0.18
274.794	0.29
275.008	0.24
275.223	0.09
275.437	0.19
275.652	0.23
275.866	0.3
276.081	0.21
276.295	0.24
276.509	0.18
276.724	0.2
276.938	0.23
277.153	0.17
277.367	0.28
277.581	0.07
277.796	0.13
278.01	0.16
278.224	0.25
278.438	0.34
278.653	0.16
278.867	0.13
279.081	0.24
279.295	0.16
279.51	0.19
279.724	0.1
279.938	0.17
280.152	0.19
280.366	0.14
280.58	0.2
280.794	0.26
281.008	0.17
281.222	0.23
281.437	0.32
281.651	0.17
281.865	0.23
282.079	0.16
282.293	0.11
282.507	0.11
282.721	0.09
282.935	0.15
283.148	0.13
283.362	0.09
283.576	0.13
283.79	0.12
284.004	0.08
284.218	0.24
284.432	0.17
284.646	0.19
284.859	0.13
285.073	0.19
285.287	0.21
285.501	0.14
285.714	0.15
285.928	0.2
286.142	0.17
286.356	0.13
286.569	0.16
286.783	0.22
286.997	0.25
287.21	0.14
287.424	0.16
287.637	0.17
287.851	0.17
288.065	0.17
288.278	0.14
288.492	0.21
288.705	0.14
288.919	0.23
289.132	0.08
289.346	0.24
289.559	0.06
289.773	0.14
289.986	0.11
290.2	0.17
290.413	0.21
290.626	0.08
290.84	0.15
291.053	0.19
291.267	0.23
291.48	0.14
291.693	0.15
291.906	0.13
292.12	0.21
292.333	0.05
292.546	0.13
292.76	0.27
292.973	0.17
293.186	0.16
293.399	0.13
293.612	0.22
293.826	0.16
294.039	0.13
294.252	0.11
294.465	0.17
294.678	0.18
294.891	0.16
295.104	0.07
295.317	0.16
295.53	0.16
295.743	0.15
295.956	0.14
296.169	0.26
296.382	0.23
296.595	0.15
296.808	0.08
297.021	0.14
297.234	0.14
297.447	0.17
297.66	0.14
297.873	0.21
298.086	0.19
298.299	0.09
298.511	0.05
298.724	0.17
298.937	0.12
299.15	0.12
299.363	0.13
299.575	0.19
299.788	0.23
300.001	0.11
300.213	0.14
300.426	0.15
300.639	0.14
300.852	0.12
301.064	0.18
301.277	0.23
301.489	0.17
301.702	0.19
301.915	0.16
302.127	0.17
302.34	0.12
302.552	0.17
302.765	0.08
302.977	0.21
303.19	0.12
303.402	0.13
303.615	0.15
303.827	0.08
304.04	0.11
304.252	0.16
304.464	0.14
304.677	0.26
304.889	0.21
305.102	0.12
305.314	0.1
305.526	0.15
305.739	0.16
305.951	0.13
306.163	0.13
306.375	0.19
306.588	0.12
306.8	0.1
307.012	0.09
307.224	0.15
307.436	0.15
307.649	0.11
307.861	0.15
308.073	0.19
308.285	0.14
308.497	0.12
308.709	0.08
308.921	0.14
309.133	0.18
309.346	0.13
309.558	0.1
309.77	0.18
309.982	0.2
310.194	0.15
310.406	0.08
310.617	0.23
310.829	0.18
311.041	0.19
311.253	0.11
311.465	0.16
311.677	0.14
311.889	0.12
312.101	0.11
312.313	0.22
312.524	0.18
312.736	0.04
312.948	0.14
313.16	0.24
313.372	0.15
313.583	0.14
313.795	0.16
314.007	0.14
314.218	0.19
314.43	0.12
314.642	0.12
314.853	0.11
315.065	0.18
315.277	0.13
315.488	0.16
315.7	0.21
315.912	0.14
316.123	0.11
316.335	0.13
316.546	0.27
316.758	0.15
316.969	0.11
317.181	0.17
317.392	0.17
317.604	0.17
317.815	0.08
318.026	0.1
318.238	0.13
318.449	0.16
318.661	0.1
318.872	0.13
319.083	0.07
319.295	0.2
319.506	0.1
319.717	0.16
319.929	0.16
320.14	0.15
320.351	0.19
320.562	0.11
320.774	0.16
320.985	0.13
321.196	0.12
321.407	0.07
321.618	0.22
321.829	0.17
322.041	0.18
322.252	0.15
322.463	0.16
322.674	0.16
322.885	0.12
323.096	0.16
323.307	0.15
323.518	0.16
323.729	0.14
323.94	0.08
324.151	0.14
324.362	0.16
324.573	0.15
324.784	0.13
324.995	0.2
325.206	0.13
325.417	0.15
325.628	0.15
325.838	0.16
326.049	0.15
326.26	0.2
326.471	0.14
326.682	0.18
326.892	0.13
327.103	0.09
327.314	0.11
327.525	0.26
327.735	0.19
327.946	0.13
328.157	0.12
328.368	0.17
328.578	0.15
328.789	0.16
328.999	0.14
329.21	0.15
329.421	0.19
329.631	0.11
329.842	0.11
330.052	0.15
330.263	0.2
330.473	0.2
330.684	0.14
330.894	0.16
331.105	0.13
331.315	0.12
331.526	0.07
331.736	0.19
331.947	0.16
332.157	0.15
332.367	0.07
332.578	0.2
332.788	0.22
332.999	0.19
333.209	0.13
333.419	0.11
333.629	0.18
333.84	0.16
334.05	0.15
334.26	0.17
334.47	0.15
334.681	0.19
334.891	0.07
335.101	0.18
335.311	0.24
335.521	0.13
335.732	0.1
335.942	0.21
336.152	0.15
336.362	0.15
336.572	0.12
336.782	0.18
336.992	0.13
337.202	0.09
337.412	0.09
337.622	0.16
337.832	0.12
338.042	0.11
338.252	0.09
338.462	0.14
338.672	0.16
338.882	0.17
339.092	0.11
339.302	0.2
339.511	0.2
339.721	0.14
339.931	0.1
340.141	0.22
340.351	0.2
340.561	0.15
340.77	0.17
340.98	0.17
341.19	0.21
341.4	0.16
341.609	0.07
341.819	0.09
342.029	0.06
342.238	0.14
342.448	0.11
342.658	0.15
342.867	0.15
343.077	0.16
343.286	0.13
343.496	0.15
343.706	0.2
343.915	0.06
344.125	0.16
344.334	0.12
344.544	0.08
344.753	0.15
344.963	0.13
345.172	0.08
345.381	0.07
345.591	0.11
345.8	0.12
346.01	0.16
346.219	0.19
346.428	0.02
346.638	0.15
346.847	0.17
347.056	0.19
347.266	0.09
347.475	0.13
347.684	0.2
347.893	0.12
348.103	0.14
348.312	0.1
348.521	0.18
348.73	0.13
348.94	0.15
349.149	0.13
349.358	0.15
349.567	0.09
349.776	0.06
349.985	0.14
350.194	0.17
350.403	0.19
350.612	0.08
350.821	0.1
351.03	0.17
351.239	0.05
351.448	0.15
351.657	0.11
351.866	0.23
352.075	0.12
352.284	0.17
352.493	0.06
352.702	0.22
352.911	0.14
353.12	0.16
353.329	0.11
353.538	0.17
353.746	0.14
353.955	0.12
354.164	0.15
354.373	0.13
354.582	0.16
354.79	0.12
354.999	0.14
355.208	0.16
355.416	0.24
355.625	0.1
355.834	0.17
356.042	0.16
356.251	0.13
356.46	0.11
356.668	0.14
356.877	0.2
357.085	0.17
357.294	0.11
357.503	0.12
357.711	0.16
357.92	0.26
358.128	0.14
358.337	0.08
358.545	0.16
358.754	0.08
358.962	0.19
359.17	0.11
359.379	0.18
359.587	0.18
359.796	0.11
360.004	0.2
360.212	0.14
360.421	0.2
360.629	0.12
360.837	0.14
361.046	0.2
361.254	0.24
361.462	0.09
361.67	0.15
361.879	0.17
362.087	0.2
362.295	0.13
362.503	0.12
362.711	0.11
362.92	0.11
363.128	0.12
363.336	0.08
363.544	0.09
363.752	0.13
363.96	0.14
364.168	0.1
364.376	0.1
364.584	0.15
364.792	0.21
365	0.16
365.208	0.14
365.416	0.13
365.624	0.21
365.832	0.1
366.04	0.2
366.248	0.11
366.456	0.1
366.664	0.11
366.872	0.16
367.079	0.12
367.287	0.13
367.495	0.18
367.703	0.16
367.911	0.15
368.118	0.15
368.326	0.14
368.534	0.09
368.742	0.21
368.949	0.07
369.157	0.12
369.365	0.16
369.572	0.1
369.78	0.13
369.988	0.19
370.195	0.17
370.403	0.14
370.61	0.13
370.818	0.11
371.026	0.23
371.233	0.09
371.441	0.18
371.648	0.12
371.856	0.19
372.063	0.15
372.271	0.11
372.478	0.12
372.685	0.12
372.893	0.2
373.1	0.12
373.308	0.12
373.515	0.24
373.722	0.21
373.93	0.13
374.137	0.16
374.344	0.21
374.552	0.18
374.759	0.17
374.966	0.16
375.173	0.11
375.381	0.19
375.588	0.09
375.795	0.05
376.002	0.1
376.209	0.11
376.417	0.12
376.624	0.17
376.831	0.18
377.038	0.14
377.245	0.09
377.452	0.11
377.659	0.14
377.866	0.11
378.073	0.12
378.28	0.15
378.487	0.19
378.694	0.17
378.901	0.14
379.108	0.13
379.315	0.14
379.522	0.23
379.729	0.21
379.936	0.11
380.143	0.19
380.35	0.17
380.557	0.15
380.763	0.15
380.97	0.14
381.177	0.17
381.384	0.16
381.591	0.15
381.797	0.21
382.004	0.18
382.211	0.19
382.418	0.12
382.624	0.17
382.831	0.21
383.038	0.16
383.244	0.17
383.451	0.15
383.658	0.15
383.864	0.12
384.071	0.12
384.277	0.22
384.484	0.14
384.69	0.19
384.897	0.15
385.103	0.14
385.31	0.15
385.516	0.11
385.723	0.11
385.929	0.16
386.136	0.17
386.342	0.16
386.549	0.11
386.755	0.21
386.961	0.17
387.168	0.12
387.374	0.14
387.58	0.19
387.787	0.2
387.993	0.18
388.199	0.15
388.406	0.15
388.612	0.19
388.818	0.13
389.024	0.12
389.231	0.14
389.437	0.2
389.643	0.16
389.849	0.16
390.055	0.19
390.261	0.17
390.467	0.16
390.674	0.15
390.88	0.17
391.086	0.22
391.292	0.1
391.498	0.22
391.704	0.19
391.91	0.15
392.116	0.14
392.322	0.02
392.528	0.19
392.734	0.16
392.94	0.15
393.146	0.19
393.352	0.2
393.557	0.14
393.763	0.15
393.969	0.18
394.175	0.17
394.381	0.2
394.587	0.14
394.792	0.16
394.998	0.17
395.204	0.26
395.41	0.17
395.615	0.21
395.821	0.2
396.027	0.18
396.233	0.18
396.438	0.17
396.644	0.2
396.85	0.2
397.055	0.2
397.261	0.21
397.466	0.16
397.672	0.24
397.878	0.21
398.083	0.26
398.289	0.18
398.494	0.22
398.7	0.24
398.905	0.1
399.111	0.25
399.316	0.11
399.522	0.19
399.727	0.19
399.932	0.17
400.138	0.11
400.343	0.22
400.549	0.22
400.754	0.19
400.959	0.21
401.165	0.25
401.37	0.21
401.575	0.28
401.78	0.18
401.986	0.17
402.191	0.18
402.396	0.2
402.601	0.26
402.807	0.24
403.012	0.25
403.217	0.26
403.422	0.23
403.627	0.27
403.832	0.2
404.037	0.27
404.243	0.27
404.448	0.22
404.653	0.24
404.858	0.28
405.063	0.25
405.268	0.24
405.473	0.18
405.678	0.22
405.883	0.41
406.088	0.29
406.293	0.21
406.498	0.25
406.703	0.31
406.907	0.25
407.112	0.23
407.317	0.38
407.522	0.34
407.727	0.27
407.932	0.3
408.136	0.37
408.341	0.31
408.546	0.31
408.751	0.34
408.956	0.31
409.16	0.43
409.365	0.31
409.57	0.33
409.774	0.37
409.979	0.35
410.184	0.38
410.388	0.34
410.593	0.4
410.798	0.43
411.002	0.4
411.207	0.47
411.411	0.42
411.616	0.41
411.82	0.43
412.025	0.46
412.229	0.44
412.434	0.55
412.638	0.51
412.843	0.51
413.047	0.55
413.252	0.51
413.456	0.55
413.66	0.65
413.865	0.57
414.069	0.67
414.273	0.56
414.478	0.6
414.682	0.6
414.886	0.66
415.091	0.56
415.295	0.62
415.499	0.8
415.703	0.74
415.908	0.77
416.112	0.72
416.316	0.85
416.52	0.79
416.724	0.78
416.929	0.85
417.133	1.05
417.337	0.9
417.541	0.99
417.745	1
417.949	1.1
418.153	1.09
418.357	1.08
418.561	1.24
418.765	1.23
418.969	1.31
419.173	1.38
419.377	1.29
419.581	1.46
419.785	1.41
419.989	1.36
420.193	1.56
420.397	1.56
420.601	1.63
420.804	1.7
421.008	1.66
421.212	1.8
421.416	1.78
421.62	1.8
421.823	1.81
422.027	2.02
422.231	1.97
422.435	1.91
422.638	2.01
422.842	1.99
423.046	2.03
423.249	2.19
423.453	2.21
423.657	2.25
423.86	2.29
424.064	2.39
424.268	2.55
424.471	2.48
424.675	2.65
424.878	2.68
425.082	2.72
425.285	2.91
425.489	2.89
425.692	2.9
425.896	2.95
426.099	3.04
426.303	3.15
426.506	3.16
426.71	3.38
426.913	3.49
427.116	3.52
427.32	3.58
427.523	3.58
427.726	3.78
427.93	3.76
428.133	3.98
428.336	4.01
428.54	4.09
428.743	4.29
428.946	4.46
429.149	4.38
429.353	4.51
429.556	4.56
429.759	4.57
429.962	4.59
430.165	4.66
430.368	4.54
430.571	4.58
430.775	4.59
430.978	4.56
431.181	4.61
431.384	4.67
431.587	4.68
431.79	4.98
431.993	4.81
432.196	5.01
432.399	5.27
432.602	5.37
432.805	5.39
433.008	5.67
433.211	5.62
433.414	5.82
433.616	5.91
433.819	5.82
434.022	5.94
434.225	6.11
434.428	6.02
434.631	6.39
434.833	6.11
435.036	6.38
435.239	6.34
435.442	6.52
435.645	6.59
435.847	6.65
436.05	6.81
436.253	6.96
436.455	7.03
436.658	6.89
436.861	7.27
437.063	7.19
437.266	7.14
437.468	7.47
437.671	7.58
437.874	7.61
438.076	7.56
438.279	7.75
438.481	7.89
438.684	8.28
438.886	8.1
439.089	8.15
439.291	8.32
439.494	8.51
439.696	8.58
439.899	8.85
440.101	9.31
440.303	9.34
440.506	9.79
440.708	9.65
440.91	9.72
441.113	9.97
441.315	10.05
441.517	9.96
441.72	10.21
441.922	10.03
442.124	10.06
442.326	10.33
442.529	10.57
442.731	10.43
442.933	10.76
443.135	10.41
443.337	10.54
443.539	10.97
443.742	10.83
443.944	11.17
444.146	10.94
444.348	10.99
444.55	10.96
444.752	11.2
444.954	11.08
445.156	11.03
445.358	11.36
445.56	11.58
445.762	11.48
445.964	11.73
446.166	11.53
446.368	11.52
446.57	11.56
446.772	11.29
446.974	11.3
447.175	11.42
447.377	11.29
447.579	11.48
447.781	11.39
447.983	11.33
448.184	11
448.386	11.32
448.588	10.93
448.79	10.91
448.991	11.19
449.193	11.18
449.395	10.78
449.597	10.46
449.798	10.45
450	10.14
450.202	10.17
450.403	10.21
450.605	10.13
450.806	9.91
451.008	9.73
451.21	9.62
451.411	9.37
451.613	8.84
451.814	9.02
452.016	9.05
452.217	8.55
452.419	8.52
452.62	8.3
452.821	8.22
453.023	8.15
453.224	7.85
453.426	7.53
453.627	7.08
453.828	7.18
454.03	7.32
454.231	7.17
454.432	7.03
454.634	6.88
454.835	6.71
455.036	6.62
455.238	6.44
455.439	6.31
455.64	6.01
455.841	5.97
456.042	6.04
456.244	5.8
456.445	5.73
456.646	5.43
456.847	5.36
457.048	5.33
457.249	5.4
457.45	5.26
457.651	4.91
457.852	4.86
458.054	4.57
458.255	4.53
458.456	4.51
458.657	4.56
458.858	4.28
459.058	4.2
459.259	4.25
459.46	4.03
459.661	3.97
459.862	4.1
460.063	4.01
460.264	3.97
460.465	3.73
460.666	3.81
460.866	3.66
461.067	3.43
461.268	3.45
461.469	3.41
461.67	3.4
461.87	3.3
462.071	3.23
462.272	3.21
462.473	3.21
462.673	3.33
462.874	3.21
463.075	3.21
463.275	3.13
463.476	3.25
463.676	3.13
463.877	3.11
464.078	3.09
464.278	3.13
464.479	3.01
464.679	2.97
464.88	2.95
465.08	3
465.281	2.83
465.481	2.65
465.682	2.57
465.882	2.6
466.083	2.49
466.283	2.49
466.483	2.4
466.684	2.26
466.884	2.26
467.085	2.24
467.285	2.34
467.485	2.23
467.686	2.23
467.886	2.12
468.086	2.12
468.286	2.07
468.487	2.12
468.687	2.03
468.887	1.99
469.087	2.02
469.287	2.04
469.488	1.89
469.688	2
469.888	2
470.088	1.93
470.288	1.9
470.488	1.87
470.688	1.76
470.888	1.72
471.088	1.65
471.288	1.73
471.488	1.71
471.688	1.68
471.888	1.6
472.088	1.69
472.288	1.66
472.488	1.59
472.688	1.58
472.888	1.62
473.088	1.6
473.288	1.53
473.488	1.45
473.688	1.62
473.887	1.52
474.087	1.46
474.287	1.5
474.487	1.39
474.687	1.5
474.886	1.44
475.086	1.36
475.286	1.41
475.486	1.42
475.685	1.37
475.885	1.33
476.085	1.41
476.284	1.4
476.484	1.39
476.684	1.37
476.883	1.4
477.083	1.34
477.282	1.32
477.482	1.34
477.681	1.31
477.881	1.32
478.08	1.27
478.28	1.23
478.479	1.26
478.679	1.34
478.878	1.26
479.078	1.21
479.277	1.29
479.477	1.25
479.676	1.27
479.875	1.21
480.075	1.19
480.274	1.24
480.473	1.24
480.673	1.21
480.872	1.31
481.071	1.23
481.271	1.27
481.47	1.18
481.669	1.22
481.868	1.19
482.067	1.2
482.267	1.13
482.466	1.15
482.665	1.14
482.864	1.15
483.063	1.14
483.262	1.24
483.461	1.24
483.661	1.32
483.86	1.2
484.059	1.25
484.258	1.23
484.457	1.19
484.656	1.22
484.855	1.28
485.054	1.14
485.253	1.2
485.452	1.19
485.651	1.25
485.849	1.19
486.048	1.18
486.247	1.23
486.446	1.27
486.645	1.25
486.844	1.26
487.043	1.22
487.241	1.24
487.44	1.24
487.639	1.31
487.838	1.3
488.037	1.28
488.235	1.4
488.434	1.31
488.633	1.28
488.831	1.38
489.03	1.36
489.229	1.35
489.427	1.35
489.626	1.38
489.825	1.43
490.023	1.42
490.222	1.37
490.42	1.43
490.619	1.44
490.817	1.44
491.016	1.43
491.214	1.53
491.413	1.49
491.611	1.46
491.81	1.46
492.008	1.53
492.207	1.54
492.405	1.55
492.604	1.48
492.802	1.57
493	1.61
493.199	1.59
493.397	1.62
493.595	1.67
493.794	1.63
493.992	1.72
494.19	1.67
494.388	1.72
494.587	1.67
494.785	1.74
494.983	1.67
495.181	1.77
495.379	1.77
495.578	1.81
495.776	1.82
495.974	1.79
496.172	1.85
496.37	1.89
496.568	1.91
496.766	1.89
496.964	1.96
497.162	1.99
497.36	1.98
497.558	2.04
497.756	2.06
497.954	2.03
498.152	2.02
498.35	2.12
498.548	2.03
498.746	2.11
498.944	2.07
499.142	2.14
499.34	2.2
499.538	2.19
499.736	2.13
499.933	2.24
500.131	2.24
500.329	2.35
500.527	2.37
500.725	2.41
500.922	2.38
501.12	2.43
501.318	2.45
501.516	2.44
501.713	2.53
501.911	2.47
502.109	2.44
502.306	2.55
502.504	2.5
502.701	2.52
502.899	2.6
503.097	2.74
503.294	2.61
