Data from Apollo_Calib_20240827__AbsoluteIrradiance__839__13-08-01-249.txt Node

Date: Wed Aug 28 13:08:01 BST 2024
User: biology
Spectrometer: FLMT08252
Trigger mode: 0
Integration Time (sec): 5.000000E-1
Scans to average: 5
Electric dark correction enabled: true
Nonlinearity correction enabled: false
Boxcar width: 0
XAxis mode: Wavelengths
Number of Pixels in Spectrum: 3648
>>>>>Begin Spectral Data<<<<<
179.588	-0
179.809	-0
180.03	-0
180.251	-0
180.473	-0
180.694	0
180.915	0
181.136	-0
181.357	0
181.578	-0
181.799	-0
182.02	0
182.241	-0
182.462	-0
182.683	0
182.904	-0
183.125	-0
183.346	0
183.567	0
183.788	0
184.009	0
184.23	0
184.451	0
184.672	0
184.892	0
185.113	0
185.334	0
185.555	0
185.776	0
185.996	0
186.217	0
186.438	0
186.659	0
186.879	0
187.1	0
187.321	0
187.541	0
187.762	0
187.983	0
188.203	0
188.424	0
188.644	0
188.865	0
189.086	0
189.306	0
189.527	0
189.747	0
189.968	0
190.188	0
190.409	0
190.629	0
190.849	0
191.07	0
191.29	0
191.511	0
191.731	0
191.951	0
192.172	0
192.392	0
192.612	0
192.833	0
193.053	0
193.273	0
193.493	0
193.714	0
193.934	0
194.154	0
194.374	0
194.594	0
194.815	0
195.035	0
195.255	0
195.475	0
195.695	0
195.915	0
196.135	0
196.355	0
196.575	0
196.795	0
197.015	0
197.235	0
197.455	0
197.675	0
197.895	0
198.115	0
198.335	0
198.555	0
198.775	0
198.995	0
199.214	0
199.434	0
199.654	0
199.874	0
200.094	3.92
200.313	2.48
200.533	1.73
200.753	1.39
200.973	3.87
201.192	3.31
201.412	1.13
201.632	1.84
201.851	3.43
202.071	1.7
202.291	1.98
202.51	1.09
202.73	2.93
202.95	1.23
203.169	1.06
203.389	1.4
203.608	1.83
203.828	1.49
204.047	1.67
204.267	1.96
204.486	2.25
204.706	2.48
204.925	2.1
205.145	1.78
205.364	2.22
205.583	2.63
205.803	0.94
206.022	1.32
206.242	1.64
206.461	1.9
206.68	1.21
206.9	1.65
207.119	2.56
207.338	2.26
207.557	1.06
207.777	1.4
207.996	1.48
208.215	2.26
208.434	1.29
208.654	0.58
208.873	1.69
209.092	2.04
209.311	1.18
209.53	1.09
209.749	1.37
209.968	1.04
210.187	0.92
210.407	0.9
210.626	1.14
210.845	1.58
211.064	1.09
211.283	0.76
211.502	1.54
211.721	1.11
211.94	0.74
212.159	1.33
212.377	1.65
212.596	1.56
212.815	1.29
213.034	1.26
213.253	1.41
213.472	1.42
213.691	1.12
213.91	0.84
214.128	0.72
214.347	1.42
214.566	0.62
214.785	0.6
215.003	1.33
215.222	1.06
215.441	0.99
215.66	0.55
215.878	0.93
216.097	1.36
216.316	0.61
216.534	0.7
216.753	0.99
216.972	0.84
217.19	0.98
217.409	0.74
217.627	0.82
217.846	0.69
218.064	0.96
218.283	0.72
218.501	1.49
218.72	1.2
218.938	0.48
219.157	0.73
219.375	1.16
219.594	0.97
219.812	0.44
220.031	0.32
220.249	1.3
220.467	1.15
220.686	0.55
220.904	0.53
221.122	0.8
221.341	1.06
221.559	0.9
221.777	0.52
221.995	0.77
222.214	1.04
222.432	0.62
222.65	0.83
222.868	0.91
223.086	0.97
223.305	0.93
223.523	0.57
223.741	1.16
223.959	0.72
224.177	0.33
224.395	0.68
224.613	0.9
224.831	0.89
225.049	0.57
225.267	0.59
225.485	0.74
225.703	0.64
225.921	0.5
226.139	0.54
226.357	0.85
226.575	0.79
226.793	0.47
227.011	1.54
227.229	0.72
227.447	1.11
227.665	0.51
227.883	0.42
228.1	0.61
228.318	0.85
228.536	0.33
228.754	0.39
228.972	0.8
229.189	0.77
229.407	0.64
229.625	0.56
229.843	0.82
230.06	0.84
230.278	0.43
230.496	0.6
230.713	0.73
230.931	0.81
231.149	0.49
231.366	0.32
231.584	0.61
231.801	1.08
232.019	0.49
232.236	0.4
232.454	0.39
232.671	0.61
232.889	0.43
233.106	0.28
233.324	0.53
233.541	0.58
233.759	0.57
233.976	0.42
234.194	0.48
234.411	0.52
234.628	0.42
234.846	0.4
235.063	0.53
235.28	0.59
235.498	0.47
235.715	0.34
235.932	0.82
236.149	0.57
236.367	0.43
236.584	0.55
236.801	0.44
237.018	0.64
237.236	0.53
237.453	0.31
237.67	0.73
237.887	0.56
238.104	0.37
238.321	0.29
238.538	0.41
238.755	0.7
238.973	0.28
239.19	0.51
239.407	0.65
239.624	0.53
239.841	0.28
240.058	0.35
240.275	0.6
240.492	0.48
240.709	0.4
240.925	0.43
241.142	0.5
241.359	0.36
241.576	0.36
241.793	0.39
242.01	0.42
242.227	0.8
242.444	0.55
242.66	0.67
242.877	0.58
243.094	0.37
243.311	0.5
243.527	0.32
243.744	0.5
243.961	0.63
244.178	0.37
244.394	0.35
244.611	0.56
244.828	0.71
245.044	0.3
245.261	0.36
245.477	0.45
245.694	0.52
245.911	0.37
246.127	0.39
246.344	0.58
246.56	0.49
246.777	0.38
246.993	0.43
247.21	0.48
247.426	0.58
247.643	0.27
247.859	0.29
248.076	0.31
248.292	0.77
248.508	0.38
248.725	0.47
248.941	0.49
249.157	0.57
249.374	0.37
249.59	0.39
249.806	0.38
250.023	0.54
250.239	0.41
250.455	0.35
250.671	0.42
250.888	0.52
251.104	0.48
251.32	0.27
251.536	0.46
251.752	0.4
251.969	0.33
252.185	0.4
252.401	0.63
252.617	0.35
252.833	0.37
253.049	0.36
253.265	0.39
253.481	0.52
253.697	0.31
253.913	0.29
254.129	0.51
254.345	0.48
254.561	0.38
254.777	0.38
254.993	0.46
255.209	0.39
255.425	0.39
255.641	0.39
255.857	0.52
256.073	0.43
256.288	0.21
256.504	0.4
256.72	0.45
256.936	0.55
257.152	0.31
257.367	0.22
257.583	0.4
257.799	0.49
258.015	0.33
258.23	0.39
258.446	0.55
258.662	0.39
258.877	0.27
259.093	0.3
259.309	0.43
259.524	0.44
259.74	0.31
259.955	0.3
260.171	0.33
260.387	0.36
260.602	0.44
260.818	0.43
261.033	0.33
261.249	0.39
261.464	0.36
261.68	0.31
261.895	0.47
262.11	0.49
262.326	0.38
262.541	0.27
262.757	0.45
262.972	0.39
263.187	0.4
263.403	0.34
263.618	0.45
263.833	0.36
264.049	0.3
264.264	0.3
264.479	0.43
264.694	0.59
264.91	0.21
265.125	0.28
265.34	0.48
265.555	0.59
265.77	0.34
265.986	0.28
266.201	0.42
266.416	0.5
266.631	0.31
266.846	0.33
267.061	0.44
267.276	0.41
267.491	0.19
267.706	0.35
267.921	0.41
268.136	0.42
268.351	0.37
268.566	0.21
268.781	0.5
268.996	0.45
269.211	0.28
269.426	0.23
269.641	0.31
269.856	0.4
270.071	0.23
270.285	0.21
270.5	0.42
270.715	0.49
270.93	0.34
271.145	0.36
271.359	0.39
271.574	0.32
271.789	0.36
272.004	0.28
272.218	0.27
272.433	0.4
272.648	0.24
272.862	0.43
273.077	0.35
273.292	0.36
273.506	0.26
273.721	0.33
273.936	0.4
274.15	0.41
274.365	0.26
274.579	0.39
274.794	0.33
275.008	0.46
275.223	0.26
275.437	0.32
275.652	0.45
275.866	0.39
276.081	0.31
276.295	0.35
276.509	0.34
276.724	0.32
276.938	0.3
277.153	0.33
277.367	0.39
277.581	0.35
277.796	0.25
278.01	0.19
278.224	0.38
278.438	0.45
278.653	0.24
278.867	0.22
279.081	0.17
279.295	0.28
279.51	0.26
279.724	0.19
279.938	0.38
280.152	0.29
280.366	0.23
280.58	0.34
280.794	0.42
281.008	0.38
281.222	0.31
281.437	0.48
281.651	0.34
281.865	0.35
282.079	0.26
282.293	0.15
282.507	0.24
282.721	0.29
282.935	0.29
283.148	0.17
283.362	0.26
283.576	0.22
283.79	0.28
284.004	0.24
284.218	0.39
284.432	0.28
284.646	0.28
284.859	0.23
285.073	0.28
285.287	0.33
285.501	0.29
285.714	0.26
285.928	0.3
286.142	0.37
286.356	0.28
286.569	0.28
286.783	0.37
286.997	0.37
287.21	0.32
287.424	0.26
287.637	0.26
287.851	0.29
288.065	0.34
288.278	0.26
288.492	0.31
288.705	0.31
288.919	0.3
289.132	0.22
289.346	0.33
289.559	0.21
289.773	0.21
289.986	0.25
290.2	0.27
290.413	0.4
290.626	0.24
290.84	0.28
291.053	0.3
291.267	0.36
291.48	0.26
291.693	0.28
291.906	0.22
292.12	0.29
292.333	0.24
292.546	0.26
292.76	0.37
292.973	0.29
293.186	0.36
293.399	0.21
293.612	0.35
293.826	0.28
294.039	0.26
294.252	0.22
294.465	0.36
294.678	0.28
294.891	0.31
295.104	0.21
295.317	0.29
295.53	0.3
295.743	0.21
295.956	0.25
296.169	0.39
296.382	0.38
296.595	0.25
296.808	0.23
297.021	0.35
297.234	0.31
297.447	0.22
297.66	0.29
297.873	0.35
298.086	0.35
298.299	0.25
298.511	0.16
298.724	0.27
298.937	0.22
299.15	0.22
299.363	0.29
299.575	0.34
299.788	0.33
300.001	0.26
300.213	0.27
300.426	0.26
300.639	0.22
300.852	0.17
301.064	0.31
301.277	0.35
301.489	0.29
301.702	0.24
301.915	0.28
302.127	0.25
302.34	0.25
302.552	0.31
302.765	0.19
302.977	0.33
303.19	0.26
303.402	0.21
303.615	0.21
303.827	0.25
304.04	0.27
304.252	0.34
304.464	0.24
304.677	0.38
304.889	0.32
305.102	0.18
305.314	0.22
305.526	0.28
305.739	0.27
305.951	0.2
306.163	0.25
306.375	0.35
306.588	0.22
306.8	0.25
307.012	0.17
307.224	0.28
307.436	0.38
307.649	0.16
307.861	0.28
308.073	0.32
308.285	0.29
308.497	0.18
308.709	0.2
308.921	0.28
309.133	0.31
309.346	0.23
309.558	0.25
309.77	0.34
309.982	0.32
310.194	0.28
310.406	0.2
310.617	0.35
310.829	0.31
311.041	0.3
311.253	0.18
311.465	0.24
311.677	0.27
311.889	0.27
312.101	0.2
312.313	0.29
312.524	0.37
312.736	0.17
312.948	0.25
313.16	0.36
313.372	0.34
313.583	0.29
313.795	0.21
314.007	0.28
314.218	0.34
314.43	0.28
314.642	0.24
314.853	0.19
315.065	0.35
315.277	0.25
315.488	0.25
315.7	0.33
315.912	0.3
316.123	0.25
316.335	0.28
316.546	0.35
316.758	0.27
316.969	0.27
317.181	0.24
317.392	0.24
317.604	0.33
317.815	0.19
318.026	0.24
318.238	0.29
318.449	0.28
318.661	0.12
318.872	0.21
319.083	0.17
319.295	0.29
319.506	0.24
319.717	0.26
319.929	0.37
320.14	0.28
320.351	0.23
320.562	0.23
320.774	0.29
320.985	0.29
321.196	0.26
321.407	0.17
321.618	0.31
321.829	0.3
322.041	0.27
322.252	0.31
322.463	0.3
322.674	0.34
322.885	0.18
323.096	0.23
323.307	0.22
323.518	0.27
323.729	0.22
323.94	0.17
324.151	0.25
324.362	0.29
324.573	0.27
324.784	0.24
324.995	0.31
325.206	0.28
325.417	0.24
325.628	0.21
325.838	0.25
326.049	0.29
326.26	0.3
326.471	0.25
326.682	0.29
326.892	0.27
327.103	0.16
327.314	0.25
327.525	0.34
327.735	0.26
327.946	0.24
328.157	0.19
328.368	0.33
328.578	0.28
328.789	0.26
328.999	0.26
329.21	0.23
329.421	0.31
329.631	0.22
329.842	0.21
330.052	0.25
330.263	0.29
330.473	0.28
330.684	0.2
330.894	0.23
331.105	0.3
331.315	0.25
331.526	0.18
331.736	0.37
331.947	0.26
332.157	0.29
332.367	0.16
332.578	0.32
332.788	0.34
332.999	0.3
333.209	0.21
333.419	0.2
333.629	0.29
333.84	0.29
334.05	0.28
334.26	0.38
334.47	0.25
334.681	0.34
334.891	0.24
335.101	0.3
335.311	0.35
335.521	0.22
335.732	0.24
335.942	0.33
336.152	0.29
336.362	0.31
336.572	0.24
336.782	0.31
336.992	0.22
337.202	0.24
337.412	0.24
337.622	0.27
337.832	0.23
338.042	0.25
338.252	0.19
338.462	0.23
338.672	0.29
338.882	0.32
339.092	0.27
339.302	0.36
339.511	0.29
339.721	0.24
339.931	0.21
340.141	0.35
340.351	0.34
340.561	0.25
340.77	0.26
340.98	0.28
341.19	0.29
341.4	0.21
341.609	0.2
341.819	0.25
342.029	0.25
342.238	0.27
342.448	0.23
342.658	0.27
342.867	0.28
343.077	0.24
343.286	0.24
343.496	0.26
343.706	0.36
343.915	0.23
344.125	0.22
344.334	0.27
344.544	0.19
344.753	0.24
344.963	0.24
345.172	0.18
345.381	0.23
345.591	0.18
345.8	0.25
346.01	0.33
346.219	0.31
346.428	0.15
346.638	0.23
346.847	0.26
347.056	0.33
347.266	0.23
347.475	0.25
347.684	0.27
347.893	0.28
348.103	0.26
348.312	0.22
348.521	0.24
348.73	0.29
348.94	0.28
349.149	0.22
349.358	0.24
349.567	0.22
349.776	0.23
349.985	0.22
350.194	0.32
350.403	0.34
350.612	0.17
350.821	0.23
351.03	0.22
351.239	0.18
351.448	0.2
351.657	0.21
351.866	0.36
352.075	0.23
352.284	0.31
352.493	0.15
352.702	0.3
352.911	0.27
353.12	0.27
353.329	0.23
353.538	0.27
353.746	0.26
353.955	0.22
354.164	0.29
354.373	0.24
354.582	0.27
354.79	0.26
354.999	0.24
355.208	0.28
355.416	0.34
355.625	0.2
355.834	0.23
356.042	0.26
356.251	0.25
356.46	0.15
356.668	0.24
356.877	0.38
357.085	0.32
357.294	0.13
357.503	0.23
357.711	0.24
357.92	0.41
358.128	0.25
358.337	0.2
358.545	0.27
358.754	0.23
358.962	0.26
359.17	0.21
359.379	0.31
359.587	0.31
359.796	0.26
360.004	0.31
360.212	0.31
360.421	0.37
360.629	0.23
360.837	0.23
361.046	0.35
361.254	0.4
361.462	0.25
361.67	0.22
361.879	0.28
362.087	0.34
362.295	0.25
362.503	0.21
362.711	0.2
362.92	0.21
363.128	0.24
363.336	0.21
363.544	0.16
363.752	0.23
363.96	0.17
364.168	0.24
364.376	0.26
364.584	0.26
364.792	0.27
365	0.27
365.208	0.26
365.416	0.28
365.624	0.31
365.832	0.19
366.04	0.34
366.248	0.24
366.456	0.25
366.664	0.25
366.872	0.28
367.079	0.27
367.287	0.24
367.495	0.24
367.703	0.25
367.911	0.23
368.118	0.26
368.326	0.27
368.534	0.2
368.742	0.33
368.949	0.18
369.157	0.22
369.365	0.25
369.572	0.25
369.78	0.18
369.988	0.27
370.195	0.27
370.403	0.28
370.61	0.24
370.818	0.29
371.026	0.34
371.233	0.2
371.441	0.28
371.648	0.19
371.856	0.28
372.063	0.31
372.271	0.25
372.478	0.17
372.685	0.25
372.893	0.31
373.1	0.23
373.308	0.25
373.515	0.4
373.722	0.32
373.93	0.25
374.137	0.28
374.344	0.37
374.552	0.32
374.759	0.32
374.966	0.23
375.173	0.23
375.381	0.32
375.588	0.25
375.795	0.16
376.002	0.21
376.209	0.24
376.417	0.23
376.624	0.28
376.831	0.29
377.038	0.24
377.245	0.14
377.452	0.23
377.659	0.28
377.866	0.22
378.073	0.27
378.28	0.26
378.487	0.34
378.694	0.32
378.901	0.22
379.108	0.19
379.315	0.29
379.522	0.37
379.729	0.27
379.936	0.24
380.143	0.3
380.35	0.28
380.557	0.27
380.763	0.23
380.97	0.29
381.177	0.33
381.384	0.29
381.591	0.23
381.797	0.28
382.004	0.31
382.211	0.28
382.418	0.19
382.624	0.3
382.831	0.36
383.038	0.26
383.244	0.3
383.451	0.27
383.658	0.34
383.864	0.24
384.071	0.21
384.277	0.37
384.484	0.28
384.69	0.33
384.897	0.25
385.103	0.25
385.31	0.24
385.516	0.23
385.723	0.21
385.929	0.29
386.136	0.24
386.342	0.3
386.549	0.28
386.755	0.33
386.961	0.32
387.168	0.24
387.374	0.25
387.58	0.32
387.787	0.3
387.993	0.33
388.199	0.26
388.406	0.21
388.612	0.24
388.818	0.25
389.024	0.27
389.231	0.29
389.437	0.37
389.643	0.37
389.849	0.27
390.055	0.3
390.261	0.31
390.467	0.33
390.674	0.25
390.88	0.28
391.086	0.34
391.292	0.24
391.498	0.37
391.704	0.35
391.91	0.32
392.116	0.23
392.322	0.2
392.528	0.35
392.734	0.29
392.94	0.32
393.146	0.3
393.352	0.33
393.557	0.29
393.763	0.3
393.969	0.37
394.175	0.32
394.381	0.33
394.587	0.26
394.792	0.29
394.998	0.37
395.204	0.37
395.41	0.28
395.615	0.33
395.821	0.33
396.027	0.33
396.233	0.26
396.438	0.4
396.644	0.35
396.85	0.33
397.055	0.34
397.261	0.34
397.466	0.46
397.672	0.37
397.878	0.35
398.083	0.34
398.289	0.31
398.494	0.44
398.7	0.39
398.905	0.25
399.111	0.46
399.316	0.3
399.522	0.34
399.727	0.31
399.932	0.35
400.138	0.29
400.343	0.36
400.549	0.37
400.754	0.38
400.959	0.41
401.165	0.35
401.37	0.37
401.575	0.48
401.78	0.38
401.986	0.35
402.191	0.34
402.396	0.39
402.601	0.44
402.807	0.41
403.012	0.42
403.217	0.45
403.422	0.41
403.627	0.41
403.832	0.36
404.037	0.48
404.243	0.44
404.448	0.39
404.653	0.43
404.858	0.47
405.063	0.5
405.268	0.43
405.473	0.36
405.678	0.4
405.883	0.64
406.088	0.47
406.293	0.39
406.498	0.47
406.703	0.52
406.907	0.5
407.112	0.44
407.317	0.52
407.522	0.59
407.727	0.5
407.932	0.57
408.136	0.7
408.341	0.52
408.546	0.59
408.751	0.57
408.956	0.6
409.16	0.64
409.365	0.63
409.57	0.6
409.774	0.63
409.979	0.69
410.184	0.69
410.388	0.59
410.593	0.8
410.798	0.77
411.002	0.79
411.207	0.87
411.411	0.74
411.616	0.75
411.82	0.84
412.025	0.87
412.229	0.85
412.434	0.97
412.638	0.93
412.843	0.92
413.047	0.96
413.252	1
413.456	1.06
413.66	1.07
413.865	1.09
414.069	1.21
414.273	1.14
414.478	1.12
414.682	1.23
414.886	1.23
415.091	1.22
415.295	1.25
415.499	1.46
415.703	1.39
415.908	1.4
416.112	1.37
416.316	1.63
416.52	1.51
416.724	1.61
416.929	1.64
417.133	1.87
417.337	1.82
417.541	1.85
417.745	1.84
417.949	2.03
418.153	2.05
418.357	2.07
418.561	2.37
418.765	2.27
418.969	2.47
419.173	2.45
419.377	2.48
419.581	2.75
419.785	2.68
419.989	2.65
420.193	2.84
420.397	2.97
420.601	3.16
420.804	3.18
421.008	3.14
421.212	3.31
421.416	3.37
421.62	3.32
421.823	3.41
422.027	3.58
422.231	3.6
422.435	3.56
422.638	3.64
422.842	3.79
423.046	3.82
423.249	4
423.453	4
423.657	4.19
423.86	4.28
424.064	4.45
424.268	4.55
424.471	4.6
424.675	4.84
424.878	4.89
425.082	5.02
425.285	5.32
425.489	5.19
425.692	5.28
425.896	5.35
426.099	5.66
426.303	5.76
426.506	5.76
426.71	6.03
426.913	6.28
427.116	6.47
427.32	6.42
427.523	6.57
427.726	6.93
427.93	6.86
428.133	7.3
428.336	7.38
428.54	7.52
428.743	7.72
428.946	8.06
429.149	8.05
429.353	7.99
429.556	8.1
429.759	8.22
429.962	8.33
430.165	8.42
430.368	8.16
430.571	8.13
430.775	8.14
430.978	8.08
431.181	8.26
431.384	8.37
431.587	8.45
431.79	8.8
431.993	8.75
432.196	9.13
432.399	9.51
432.602	9.53
432.805	9.76
433.008	10.12
433.211	10.1
433.414	10.46
433.616	10.47
433.819	10.45
434.022	10.5
434.225	10.83
434.428	10.77
434.631	11.17
434.833	10.96
435.036	11.2
435.239	11.5
435.442	11.43
435.645	11.58
435.847	11.71
436.05	12.03
436.253	12.19
436.455	12.3
436.658	12.12
436.861	12.55
437.063	12.61
437.266	12.54
437.468	12.91
437.671	13.31
437.874	13.18
438.076	13.14
438.279	13.58
438.481	13.69
438.684	14.41
438.886	14.01
439.089	14.31
439.291	14.26
439.494	14.68
439.696	14.8
439.899	15.36
440.101	15.75
440.303	15.96
440.506	16.78
440.708	16.36
440.91	16.79
441.113	16.84
441.315	17.16
441.517	16.91
441.72	17.46
441.922	16.99
442.124	16.95
442.326	17.16
442.529	17.64
442.731	17.54
442.933	17.85
443.135	17.53
443.337	17.67
443.539	18.17
443.742	17.91
443.944	18.35
444.146	18.21
444.348	18.25
444.55	17.96
444.752	18.18
444.954	18.23
445.156	18.19
445.358	18.59
445.56	18.82
445.762	18.62
445.964	19.03
446.166	18.6
446.368	18.65
446.57	18.73
446.772	18.16
446.974	18.15
447.175	18.49
447.377	18.15
447.579	18.38
447.781	18.03
447.983	17.95
448.184	17.49
448.386	17.76
448.588	17.23
448.79	17.17
448.991	17.52
449.193	17.53
449.395	16.76
449.597	16.36
449.798	16.4
450	15.9
450.202	15.79
450.403	15.8
450.605	15.81
450.806	15.25
451.008	15.06
451.21	14.9
451.411	14.48
451.613	13.68
451.814	14.01
452.016	14.03
452.217	13.26
452.419	13.19
452.62	12.83
452.821	12.67
453.023	12.48
453.224	12.1
453.426	11.8
453.627	10.94
453.828	11.02
454.03	11.13
454.231	11.26
454.432	10.96
454.634	10.74
454.835	10.48
455.036	10.3
455.238	9.95
455.439	9.79
455.64	9.42
455.841	9.3
456.042	9.44
456.244	9.07
456.445	8.82
456.646	8.56
456.847	8.42
457.048	8.35
457.249	8.4
457.45	8.23
457.651	7.52
457.852	7.53
458.054	7.18
458.255	7.12
458.456	7.17
458.657	7.16
458.858	6.59
459.058	6.62
459.259	6.67
459.46	6.32
459.661	6.35
459.862	6.43
460.063	6.29
460.264	6.18
460.465	5.89
460.666	6.05
460.866	5.63
461.067	5.47
461.268	5.54
461.469	5.41
461.67	5.34
461.87	5.13
462.071	5.11
462.272	5.12
462.473	5.09
462.673	5.3
462.874	5.12
463.075	5.09
463.275	5.1
463.476	5.08
463.676	5.05
463.877	4.89
464.078	4.84
464.278	4.91
464.479	4.71
464.679	4.72
464.88	4.64
465.08	4.61
465.281	4.44
465.481	4.31
465.682	4.17
465.882	4.21
466.083	4.05
466.283	3.94
466.483	3.89
466.684	3.76
466.884	3.64
467.085	3.61
467.285	3.7
467.485	3.51
467.686	3.45
467.886	3.44
468.086	3.33
468.286	3.32
468.487	3.38
468.687	3.21
468.887	3.2
469.087	3.36
469.287	3.15
469.488	3.03
469.688	3.19
469.888	3.17
470.088	3.11
470.288	3.08
470.488	3
470.688	2.85
470.888	2.81
471.088	2.65
471.288	2.8
471.488	2.73
471.688	2.71
471.888	2.63
472.088	2.78
472.288	2.77
472.488	2.55
472.688	2.54
472.888	2.59
473.088	2.55
473.288	2.46
473.488	2.41
473.688	2.62
473.887	2.43
474.087	2.36
474.287	2.47
474.487	2.34
474.687	2.36
474.886	2.3
475.086	2.32
475.286	2.31
475.486	2.26
475.685	2.19
475.885	2.17
476.085	2.24
476.284	2.29
476.484	2.21
476.684	2.19
476.883	2.28
477.083	2.16
477.282	2.1
477.482	2.15
477.681	2.16
477.881	2.1
478.08	2.1
478.28	2.04
478.479	2.14
478.679	2.11
478.878	2
479.078	2.03
479.277	2.05
479.477	2.04
479.676	2
479.875	1.99
480.075	1.96
480.274	2.01
480.473	2.03
480.673	1.97
480.872	2.09
481.071	2.02
481.271	2.03
481.47	2
481.669	2.01
481.868	1.97
482.067	1.96
482.267	1.86
482.466	1.94
482.665	1.91
482.864	1.96
483.063	1.89
483.262	2.01
483.461	2.01
483.661	2.07
483.86	2.01
484.059	2.08
484.258	2.01
484.457	1.97
484.656	2
484.855	2.08
485.054	1.93
485.253	1.95
485.452	1.9
485.651	2.07
485.849	2
486.048	2
486.247	2.03
486.446	2.05
486.645	2.03
486.844	2.02
487.043	2.05
487.241	2.08
487.44	2.05
487.639	2.13
487.838	2.1
488.037	2.13
488.235	2.21
488.434	2.14
488.633	2.03
488.831	2.22
489.03	2.2
489.229	2.23
489.427	2.21
489.626	2.27
489.825	2.28
490.023	2.26
490.222	2.27
490.42	2.34
490.619	2.35
490.817	2.36
491.016	2.34
491.214	2.4
491.413	2.39
491.611	2.38
491.81	2.36
492.008	2.45
492.207	2.56
492.405	2.51
492.604	2.51
492.802	2.6
493	2.59
493.199	2.57
493.397	2.64
493.595	2.69
493.794	2.68
493.992	2.8
494.19	2.77
494.388	2.86
494.587	2.73
494.785	2.83
494.983	2.69
495.181	2.89
495.379	2.91
495.578	2.97
495.776	2.95
495.974	2.91
496.172	2.96
496.37	3.06
496.568	3.1
496.766	3.08
496.964	3.21
497.162	3.22
497.36	3.22
497.558	3.23
497.756	3.32
497.954	3.3
498.152	3.34
498.35	3.44
498.548	3.32
498.746	3.37
498.944	3.4
499.142	3.45
499.34	3.54
499.538	3.62
499.736	3.53
499.933	3.65
500.131	3.67
500.329	3.82
500.527	3.78
500.725	3.87
500.922	3.9
501.12	3.88
501.318	3.93
501.516	3.96
501.713	4.05
501.911	3.99
502.109	3.95
502.306	4.06
502.504	4.01
502.701	4.12
