Data from Apollo_Calib_20240827__AbsoluteIrradiance__775__12-04-01-395.txt Node

Date: Wed Aug 28 12:04:01 BST 2024
User: biology
Spectrometer: FLMT08252
Trigger mode: 0
Integration Time (sec): 5.000000E-1
Scans to average: 5
Electric dark correction enabled: true
Nonlinearity correction enabled: false
Boxcar width: 0
XAxis mode: Wavelengths
Number of Pixels in Spectrum: 3648
>>>>>Begin Spectral Data<<<<<
179.588	-0
179.809	-0
180.03	-0
180.251	-0
180.473	-0
180.694	0
180.915	0
181.136	-0
181.357	0
181.578	0
181.799	0
182.02	-0
182.241	0
182.462	-0
182.683	0
182.904	-0
183.125	-0
183.346	0
183.567	0
183.788	0
184.009	0
184.23	0
184.451	0
184.672	0
184.892	0
185.113	0
185.334	0
185.555	0
185.776	0
185.996	0
186.217	0
186.438	0
186.659	0
186.879	0
187.1	0
187.321	0
187.541	0
187.762	0
187.983	0
188.203	0
188.424	0
188.644	0
188.865	0
189.086	0
189.306	0
189.527	0
189.747	0
189.968	0
190.188	0
190.409	0
190.629	0
190.849	0
191.07	0
191.29	0
191.511	0
191.731	0
191.951	0
192.172	0
192.392	0
192.612	0
192.833	0
193.053	0
193.273	0
193.493	0
193.714	0
193.934	0
194.154	0
194.374	0
194.594	0
194.815	0
195.035	0
195.255	0
195.475	0
195.695	0
195.915	0
196.135	0
196.355	0
196.575	0
196.795	0
197.015	0
197.235	0
197.455	0
197.675	0
197.895	0
198.115	0
198.335	0
198.555	0
198.775	0
198.995	0
199.214	0
199.434	0
199.654	0
199.874	0
200.094	4.57
200.313	2.63
200.533	1.97
200.753	1.43
200.973	3.78
201.192	3.42
201.412	1.73
201.632	1.72
201.851	3.55
202.071	2.19
202.291	1.96
202.51	1.46
202.73	2.22
202.95	1.8
203.169	1.33
203.389	1.88
203.608	2.02
203.828	1.56
204.047	1.53
204.267	2.21
204.486	1.8
204.706	2.25
204.925	1.78
205.145	1.52
205.364	2.38
205.583	2.1
205.803	1.27
206.022	1.35
206.242	1.83
206.461	1.69
206.68	1.23
206.9	1.6
207.119	2.42
207.338	2.27
207.557	1.3
207.777	1.08
207.996	1.38
208.215	2.04
208.434	1.08
208.654	0.99
208.873	1.53
209.092	2.51
209.311	1.24
209.53	1.27
209.749	1.28
209.968	0.91
210.187	0.9
210.407	0.58
210.626	1.37
210.845	1.49
211.064	1.22
211.283	0.8
211.502	1.64
211.721	1.25
211.94	0.9
212.159	1.13
212.377	1.36
212.596	1.54
212.815	1.45
213.034	1.04
213.253	1.5
213.472	1.23
213.691	1.1
213.91	0.73
214.128	0.72
214.347	1.24
214.566	0.49
214.785	0.56
215.003	1.38
215.222	0.99
215.441	0.94
215.66	0.39
215.878	0.93
216.097	1.2
216.316	0.73
216.534	0.8
216.753	1.12
216.972	1.01
217.19	0.68
217.409	0.5
217.627	0.77
217.846	0.91
218.064	0.94
218.283	0.68
218.501	1.54
218.72	1.21
218.938	0.53
219.157	0.76
219.375	1.07
219.594	1.18
219.812	0.65
220.031	0.63
220.249	1.17
220.467	1.07
220.686	0.64
220.904	0.61
221.122	0.7
221.341	1.32
221.559	0.82
221.777	0.48
221.995	0.96
222.214	0.95
222.432	0.68
222.65	0.82
222.868	0.64
223.086	0.8
223.305	0.81
223.523	0.74
223.741	1.04
223.959	0.66
224.177	0.44
224.395	0.56
224.613	0.76
224.831	1.02
225.049	0.48
225.267	0.63
225.485	0.8
225.703	0.62
225.921	0.54
226.139	0.47
226.357	0.65
226.575	0.7
226.793	0.51
227.011	1.46
227.229	0.78
227.447	0.82
227.665	0.46
227.883	0.41
228.1	0.68
228.318	0.62
228.536	0.3
228.754	0.46
228.972	0.69
229.189	0.92
229.407	0.48
229.625	0.49
229.843	0.9
230.06	0.66
230.278	0.49
230.496	0.59
230.713	0.65
230.931	0.73
231.149	0.57
231.366	0.27
231.584	0.59
231.801	1.04
232.019	0.45
232.236	0.38
232.454	0.4
232.671	0.66
232.889	0.54
233.106	0.4
233.324	0.63
233.541	0.53
233.759	0.62
233.976	0.38
234.194	0.55
234.411	0.56
234.628	0.38
234.846	0.42
235.063	0.58
235.28	0.55
235.498	0.4
235.715	0.32
235.932	0.64
236.149	0.54
236.367	0.43
236.584	0.7
236.801	0.53
237.018	0.63
237.236	0.45
237.453	0.24
237.67	0.62
237.887	0.52
238.104	0.42
238.321	0.31
238.538	0.37
238.755	0.63
238.973	0.34
239.19	0.42
239.407	0.54
239.624	0.57
239.841	0.34
240.058	0.37
240.275	0.57
240.492	0.51
240.709	0.39
240.925	0.36
241.142	0.43
241.359	0.26
241.576	0.28
241.793	0.34
242.01	0.49
242.227	0.71
242.444	0.6
242.66	0.65
242.877	0.58
243.094	0.49
243.311	0.51
243.527	0.42
243.744	0.52
243.961	0.55
244.178	0.36
244.394	0.35
244.611	0.65
244.828	0.73
245.044	0.38
245.261	0.44
245.477	0.51
245.694	0.63
245.911	0.34
246.127	0.5
246.344	0.64
246.56	0.56
246.777	0.4
246.993	0.42
247.21	0.42
247.426	0.46
247.643	0.33
247.859	0.25
248.076	0.4
248.292	0.63
248.508	0.39
248.725	0.44
248.941	0.5
249.157	0.62
249.374	0.41
249.59	0.36
249.806	0.53
250.023	0.66
250.239	0.33
250.455	0.37
250.671	0.41
250.888	0.49
251.104	0.5
251.32	0.35
251.536	0.42
251.752	0.36
251.969	0.34
252.185	0.38
252.401	0.57
252.617	0.42
252.833	0.38
253.049	0.39
253.265	0.4
253.481	0.4
253.697	0.34
253.913	0.3
254.129	0.45
254.345	0.4
254.561	0.29
254.777	0.43
254.993	0.48
255.209	0.37
255.425	0.38
255.641	0.28
255.857	0.47
256.073	0.53
256.288	0.24
256.504	0.3
256.72	0.5
256.936	0.54
257.152	0.33
257.367	0.32
257.583	0.47
257.799	0.41
258.015	0.37
258.23	0.27
258.446	0.61
258.662	0.37
258.877	0.34
259.093	0.28
259.309	0.4
259.524	0.44
259.74	0.34
259.955	0.18
260.171	0.34
260.387	0.43
260.602	0.38
260.818	0.44
261.033	0.28
261.249	0.35
261.464	0.28
261.68	0.28
261.895	0.44
262.11	0.43
262.326	0.3
262.541	0.2
262.757	0.46
262.972	0.5
263.187	0.34
263.403	0.37
263.618	0.47
263.833	0.39
264.049	0.29
264.264	0.41
264.479	0.36
264.694	0.46
264.91	0.31
265.125	0.31
265.34	0.5
265.555	0.54
265.77	0.37
265.986	0.28
266.201	0.44
266.416	0.48
266.631	0.35
266.846	0.32
267.061	0.44
267.276	0.38
267.491	0.21
267.706	0.39
267.921	0.4
268.136	0.39
268.351	0.3
268.566	0.18
268.781	0.44
268.996	0.45
269.211	0.36
269.426	0.19
269.641	0.3
269.856	0.41
270.071	0.27
270.285	0.2
270.5	0.44
270.715	0.42
270.93	0.33
271.145	0.4
271.359	0.44
271.574	0.28
271.789	0.35
272.004	0.23
272.218	0.29
272.433	0.4
272.648	0.29
272.862	0.39
273.077	0.37
273.292	0.32
273.506	0.28
273.721	0.3
273.936	0.34
274.15	0.44
274.365	0.31
274.579	0.39
274.794	0.42
275.008	0.42
275.223	0.24
275.437	0.27
275.652	0.48
275.866	0.41
276.081	0.28
276.295	0.4
276.509	0.35
276.724	0.33
276.938	0.28
277.153	0.33
277.367	0.38
277.581	0.32
277.796	0.32
278.01	0.23
278.224	0.44
278.438	0.48
278.653	0.27
278.867	0.26
279.081	0.38
279.295	0.32
279.51	0.32
279.724	0.27
279.938	0.38
280.152	0.36
280.366	0.35
280.58	0.32
280.794	0.42
281.008	0.36
281.222	0.34
281.437	0.46
281.651	0.31
281.865	0.36
282.079	0.29
282.293	0.15
282.507	0.27
282.721	0.3
282.935	0.3
283.148	0.21
283.362	0.2
283.576	0.26
283.79	0.27
284.004	0.21
284.218	0.36
284.432	0.25
284.646	0.27
284.859	0.25
285.073	0.24
285.287	0.31
285.501	0.31
285.714	0.29
285.928	0.33
286.142	0.35
286.356	0.25
286.569	0.26
286.783	0.38
286.997	0.4
287.21	0.31
287.424	0.26
287.637	0.29
287.851	0.28
288.065	0.36
288.278	0.26
288.492	0.3
288.705	0.34
288.919	0.38
289.132	0.17
289.346	0.35
289.559	0.19
289.773	0.18
289.986	0.31
290.2	0.28
290.413	0.31
290.626	0.21
290.84	0.25
291.053	0.28
291.267	0.38
291.48	0.3
291.693	0.23
291.906	0.28
292.12	0.28
292.333	0.27
292.546	0.23
292.76	0.35
292.973	0.35
293.186	0.3
293.399	0.23
293.612	0.37
293.826	0.27
294.039	0.26
294.252	0.26
294.465	0.29
294.678	0.29
294.891	0.26
295.104	0.2
295.317	0.25
295.53	0.27
295.743	0.31
295.956	0.22
296.169	0.4
296.382	0.32
296.595	0.24
296.808	0.2
297.021	0.36
297.234	0.35
297.447	0.26
297.66	0.29
297.873	0.38
298.086	0.29
298.299	0.17
298.511	0.17
298.724	0.24
298.937	0.21
299.15	0.22
299.363	0.22
299.575	0.3
299.788	0.29
300.001	0.24
300.213	0.24
300.426	0.25
300.639	0.19
300.852	0.18
301.064	0.27
301.277	0.35
301.489	0.27
301.702	0.26
301.915	0.25
302.127	0.27
302.34	0.3
302.552	0.25
302.765	0.19
302.977	0.27
303.19	0.21
303.402	0.23
303.615	0.24
303.827	0.25
304.04	0.23
304.252	0.3
304.464	0.26
304.677	0.43
304.889	0.32
305.102	0.21
305.314	0.19
305.526	0.28
305.739	0.29
305.951	0.23
306.163	0.23
306.375	0.34
306.588	0.22
306.8	0.25
307.012	0.17
307.224	0.29
307.436	0.39
307.649	0.18
307.861	0.24
308.073	0.35
308.285	0.23
308.497	0.24
308.709	0.23
308.921	0.31
309.133	0.34
309.346	0.22
309.558	0.25
309.77	0.28
309.982	0.17
310.194	0.28
310.406	0.18
310.617	0.36
310.829	0.22
311.041	0.32
311.253	0.24
311.465	0.24
311.677	0.25
311.889	0.27
312.101	0.17
312.313	0.32
312.524	0.35
312.736	0.16
312.948	0.2
313.16	0.35
313.372	0.27
313.583	0.23
313.795	0.21
314.007	0.25
314.218	0.31
314.43	0.25
314.642	0.25
314.853	0.16
315.065	0.3
315.277	0.24
315.488	0.27
315.7	0.3
315.912	0.31
316.123	0.25
316.335	0.28
316.546	0.38
316.758	0.25
316.969	0.22
317.181	0.24
317.392	0.24
317.604	0.32
317.815	0.22
318.026	0.25
318.238	0.25
318.449	0.28
318.661	0.19
318.872	0.18
319.083	0.21
319.295	0.3
319.506	0.21
319.717	0.25
319.929	0.29
320.14	0.28
320.351	0.21
320.562	0.21
320.774	0.26
320.985	0.28
321.196	0.21
321.407	0.17
321.618	0.32
321.829	0.26
322.041	0.29
322.252	0.28
322.463	0.29
322.674	0.31
322.885	0.19
323.096	0.21
323.307	0.27
323.518	0.31
323.729	0.24
323.94	0.23
324.151	0.23
324.362	0.26
324.573	0.33
324.784	0.21
324.995	0.34
325.206	0.27
325.417	0.22
325.628	0.22
325.838	0.25
326.049	0.29
326.26	0.32
326.471	0.24
326.682	0.34
326.892	0.26
327.103	0.17
327.314	0.17
327.525	0.29
327.735	0.26
327.946	0.22
328.157	0.18
328.368	0.3
328.578	0.23
328.789	0.32
328.999	0.23
329.21	0.24
329.421	0.3
329.631	0.24
329.842	0.22
330.052	0.25
330.263	0.28
330.473	0.3
330.684	0.26
330.894	0.29
331.105	0.25
331.315	0.28
331.526	0.19
331.736	0.34
331.947	0.27
332.157	0.34
332.367	0.23
332.578	0.28
332.788	0.38
332.999	0.33
333.209	0.24
333.419	0.17
333.629	0.34
333.84	0.31
334.05	0.22
334.26	0.34
334.47	0.28
334.681	0.32
334.891	0.22
335.101	0.25
335.311	0.33
335.521	0.22
335.732	0.19
335.942	0.36
336.152	0.31
336.362	0.25
336.572	0.31
336.782	0.32
336.992	0.19
337.202	0.2
337.412	0.24
337.622	0.28
337.832	0.22
338.042	0.28
338.252	0.2
338.462	0.22
338.672	0.29
338.882	0.22
339.092	0.22
339.302	0.36
339.511	0.3
339.721	0.24
339.931	0.18
340.141	0.31
340.351	0.37
340.561	0.29
340.77	0.27
340.98	0.27
341.19	0.29
341.4	0.27
341.609	0.23
341.819	0.27
342.029	0.17
342.238	0.32
342.448	0.21
342.658	0.31
342.867	0.25
343.077	0.26
343.286	0.25
343.496	0.23
343.706	0.29
343.915	0.21
344.125	0.25
344.334	0.27
344.544	0.19
344.753	0.25
344.963	0.2
345.172	0.24
345.381	0.2
345.591	0.16
345.8	0.25
346.01	0.32
346.219	0.3
346.428	0.12
346.638	0.27
346.847	0.26
347.056	0.31
347.266	0.2
347.475	0.26
347.684	0.3
347.893	0.27
348.103	0.26
348.312	0.22
348.521	0.24
348.73	0.25
348.94	0.24
349.149	0.22
349.358	0.24
349.567	0.27
349.776	0.18
349.985	0.22
350.194	0.29
350.403	0.3
350.612	0.18
350.821	0.24
351.03	0.28
351.239	0.18
351.448	0.24
351.657	0.26
351.866	0.36
352.075	0.23
352.284	0.24
352.493	0.17
352.702	0.35
352.911	0.27
353.12	0.25
353.329	0.26
353.538	0.24
353.746	0.24
353.955	0.18
354.164	0.27
354.373	0.2
354.582	0.3
354.79	0.24
354.999	0.29
355.208	0.23
355.416	0.33
355.625	0.22
355.834	0.21
356.042	0.27
356.251	0.23
356.46	0.2
356.668	0.27
356.877	0.31
357.085	0.28
357.294	0.14
357.503	0.27
357.711	0.26
357.92	0.41
358.128	0.23
358.337	0.23
358.545	0.26
358.754	0.2
358.962	0.32
359.17	0.22
359.379	0.26
359.587	0.23
359.796	0.25
360.004	0.31
360.212	0.29
360.421	0.33
360.629	0.22
360.837	0.21
361.046	0.33
361.254	0.4
361.462	0.21
361.67	0.2
361.879	0.29
362.087	0.29
362.295	0.24
362.503	0.21
362.711	0.19
362.92	0.21
363.128	0.22
363.336	0.19
363.544	0.2
363.752	0.24
363.96	0.23
364.168	0.19
364.376	0.27
364.584	0.27
364.792	0.33
365	0.23
365.208	0.23
365.416	0.28
365.624	0.29
365.832	0.17
366.04	0.35
366.248	0.25
366.456	0.28
366.664	0.24
366.872	0.25
367.079	0.23
367.287	0.25
367.495	0.25
367.703	0.24
367.911	0.21
368.118	0.26
368.326	0.24
368.534	0.22
368.742	0.34
368.949	0.21
369.157	0.21
369.365	0.27
369.572	0.21
369.78	0.18
369.988	0.3
370.195	0.28
370.403	0.3
370.61	0.22
370.818	0.25
371.026	0.35
371.233	0.19
371.441	0.2
371.648	0.24
371.856	0.26
372.063	0.24
372.271	0.2
372.478	0.2
372.685	0.22
372.893	0.32
373.1	0.23
373.308	0.23
373.515	0.35
373.722	0.3
373.93	0.24
374.137	0.33
374.344	0.34
374.552	0.32
374.759	0.28
374.966	0.22
375.173	0.23
375.381	0.33
375.588	0.29
375.795	0.19
376.002	0.24
376.209	0.24
376.417	0.22
376.624	0.28
376.831	0.31
377.038	0.27
377.245	0.18
377.452	0.25
377.659	0.27
377.866	0.26
378.073	0.26
378.28	0.22
378.487	0.31
378.694	0.35
378.901	0.24
379.108	0.27
379.315	0.31
379.522	0.37
379.729	0.24
379.936	0.27
380.143	0.25
380.35	0.31
380.557	0.23
380.763	0.3
380.97	0.27
381.177	0.29
381.384	0.27
381.591	0.22
381.797	0.27
382.004	0.33
382.211	0.33
382.418	0.26
382.624	0.34
382.831	0.31
383.038	0.26
383.244	0.27
383.451	0.28
383.658	0.3
383.864	0.21
384.071	0.22
384.277	0.38
384.484	0.24
384.69	0.39
384.897	0.24
385.103	0.25
385.31	0.24
385.516	0.29
385.723	0.23
385.929	0.27
386.136	0.23
386.342	0.32
386.549	0.24
386.755	0.37
386.961	0.3
387.168	0.27
387.374	0.27
387.58	0.33
387.787	0.26
387.993	0.3
388.199	0.25
388.406	0.24
388.612	0.25
388.818	0.23
389.024	0.24
389.231	0.3
389.437	0.38
389.643	0.36
389.849	0.3
390.055	0.32
390.261	0.29
390.467	0.36
390.674	0.3
390.88	0.28
391.086	0.31
391.292	0.26
391.498	0.3
391.704	0.33
391.91	0.34
392.116	0.29
392.322	0.18
392.528	0.34
392.734	0.26
392.94	0.29
393.146	0.32
393.352	0.31
393.557	0.28
393.763	0.27
393.969	0.34
394.175	0.29
394.381	0.3
394.587	0.23
394.792	0.29
394.998	0.38
395.204	0.34
395.41	0.25
395.615	0.33
395.821	0.35
396.027	0.34
396.233	0.27
396.438	0.33
396.644	0.35
396.85	0.34
397.055	0.34
397.261	0.29
397.466	0.36
397.672	0.35
397.878	0.34
398.083	0.34
398.289	0.31
398.494	0.42
398.7	0.33
398.905	0.24
399.111	0.39
399.316	0.29
399.522	0.33
399.727	0.32
399.932	0.33
400.138	0.32
400.343	0.39
400.549	0.33
400.754	0.36
400.959	0.35
401.165	0.34
401.37	0.42
401.575	0.49
401.78	0.36
401.986	0.36
402.191	0.32
402.396	0.38
402.601	0.38
402.807	0.41
403.012	0.39
403.217	0.46
403.422	0.41
403.627	0.41
403.832	0.37
404.037	0.46
404.243	0.44
404.448	0.35
404.653	0.44
404.858	0.43
405.063	0.45
405.268	0.39
405.473	0.39
405.678	0.42
405.883	0.63
406.088	0.48
406.293	0.41
406.498	0.4
406.703	0.55
406.907	0.46
407.112	0.45
407.317	0.55
407.522	0.6
407.727	0.51
407.932	0.5
408.136	0.63
408.341	0.49
408.546	0.6
408.751	0.57
408.956	0.61
409.16	0.68
409.365	0.59
409.57	0.64
409.774	0.59
409.979	0.72
410.184	0.68
410.388	0.68
410.593	0.75
410.798	0.73
411.002	0.73
411.207	0.81
411.411	0.79
411.616	0.71
411.82	0.84
412.025	0.83
412.229	0.8
412.434	1.01
412.638	0.9
412.843	0.93
413.047	1.01
413.252	0.93
413.456	1.04
413.66	1.08
413.865	1.03
414.069	1.16
414.273	1.09
414.478	1.12
414.682	1.16
414.886	1.23
415.091	1.22
415.295	1.27
415.499	1.46
415.703	1.36
415.908	1.46
416.112	1.38
416.316	1.64
416.52	1.54
416.724	1.53
416.929	1.65
417.133	1.82
417.337	1.72
417.541	1.82
417.745	1.85
417.949	2.03
418.153	2
418.357	1.96
418.561	2.27
418.765	2.21
418.969	2.43
419.173	2.43
419.377	2.33
419.581	2.69
419.785	2.63
419.989	2.6
420.193	2.82
420.397	2.85
420.601	3.02
420.804	3.09
421.008	3.15
421.212	3.25
421.416	3.3
421.62	3.27
421.823	3.38
422.027	3.51
422.231	3.52
422.435	3.46
422.638	3.52
422.842	3.67
423.046	3.73
423.249	3.97
423.453	3.93
423.657	4.09
423.86	4.18
424.064	4.32
424.268	4.52
424.471	4.46
424.675	4.65
424.878	4.82
425.082	4.88
425.285	5.18
425.489	5.12
425.692	5.24
425.896	5.24
426.099	5.51
426.303	5.61
426.506	5.76
426.71	5.99
426.913	6.24
427.116	6.38
427.32	6.33
427.523	6.43
427.726	6.7
427.93	6.96
428.133	7.19
428.336	7.33
428.54	7.41
428.743	7.61
428.946	7.95
429.149	7.95
429.353	8.01
429.556	8.1
429.759	8.11
429.962	8.14
430.165	8.35
430.368	8.09
430.571	8.07
430.775	8.18
430.978	8.09
431.181	8.24
431.384	8.2
431.587	8.39
431.79	8.72
431.993	8.7
432.196	8.92
432.399	9.29
432.602	9.47
432.805	9.58
433.008	10.14
433.211	9.97
433.414	10.26
433.616	10.35
433.819	10.39
434.022	10.52
434.225	10.61
434.428	10.65
434.631	11.05
434.833	10.78
435.036	11.07
435.239	11.29
435.442	11.4
435.645	11.59
435.847	11.55
436.05	11.87
436.253	12.23
436.455	12.12
436.658	12.07
436.861	12.29
437.063	12.63
437.266	12.49
437.468	12.77
437.671	13.13
437.874	13.18
438.076	12.99
438.279	13.45
438.481	13.63
438.684	14.29
438.886	13.85
439.089	14.19
439.291	14.17
439.494	14.58
439.696	14.7
439.899	15.39
440.101	15.73
440.303	15.96
440.506	16.51
440.708	16.35
440.91	16.65
441.113	16.66
441.315	16.88
441.517	16.76
441.72	17.38
441.922	16.88
442.124	16.69
442.326	17.19
442.529	17.43
442.731	17.39
442.933	17.82
443.135	17.47
443.337	17.45
443.539	17.99
443.742	17.66
443.944	18.39
444.146	18.1
444.348	18.14
444.55	18.03
444.752	18.02
444.954	18.09
445.156	18.06
445.358	18.45
445.56	18.77
445.762	18.54
445.964	18.93
446.166	18.69
446.368	18.43
446.57	18.58
446.772	18.17
446.974	17.91
447.175	18.29
447.377	18.01
447.579	18.47
447.781	18.08
447.983	17.93
448.184	17.41
448.386	17.84
448.588	17.22
448.79	17.27
448.991	17.47
449.193	17.45
449.395	16.78
449.597	16.39
449.798	16.28
450	15.97
450.202	15.86
450.403	15.89
450.605	15.81
450.806	15.4
451.008	15.26
451.21	14.97
451.411	14.51
451.613	13.79
451.814	14.06
452.016	13.88
452.217	13.2
452.419	13.26
452.62	12.94
452.821	12.76
453.023	12.62
453.224	12.19
453.426	11.71
453.627	11.16
453.828	11.07
454.03	11.22
454.231	11.27
454.432	11
454.634	10.86
454.835	10.48
455.036	10.37
455.238	10.01
455.439	9.74
455.64	9.46
455.841	9.36
456.042	9.53
456.244	9.04
456.445	8.92
456.646	8.55
456.847	8.62
457.048	8.44
457.249	8.45
457.45	8.26
457.651	7.65
457.852	7.59
458.054	7.2
458.255	7.25
458.456	7.21
458.657	7.11
458.858	6.69
459.058	6.58
459.259	6.75
459.46	6.45
459.661	6.37
459.862	6.41
460.063	6.31
460.264	6.14
460.465	5.91
460.666	6.13
460.866	5.76
461.067	5.5
461.268	5.54
461.469	5.45
461.67	5.33
461.87	5.26
462.071	5.18
462.272	5.23
462.473	5.06
462.673	5.32
462.874	5.08
463.075	5.16
463.275	5.1
463.476	5.14
463.676	5.12
463.877	4.87
464.078	4.89
464.278	5.02
464.479	4.77
464.679	4.71
464.88	4.7
465.08	4.64
465.281	4.46
465.481	4.35
465.682	4.16
465.882	4.15
466.083	4.15
466.283	4.04
466.483	3.9
466.684	3.75
466.884	3.59
467.085	3.66
467.285	3.76
467.485	3.61
467.686	3.56
467.886	3.33
468.086	3.36
468.286	3.34
468.487	3.41
468.687	3.19
468.887	3.26
469.087	3.37
469.287	3.32
469.488	3.02
469.688	3.22
469.888	3.12
470.088	3.13
470.288	3.04
470.488	3.01
470.688	2.9
470.888	2.85
471.088	2.69
471.288	2.83
471.488	2.8
471.688	2.73
471.888	2.68
472.088	2.8
472.288	2.73
472.488	2.59
472.688	2.54
472.888	2.63
473.088	2.6
473.288	2.43
473.488	2.42
473.688	2.59
473.887	2.49
474.087	2.42
474.287	2.43
474.487	2.37
474.687	2.42
474.886	2.33
475.086	2.3
475.286	2.29
475.486	2.28
475.685	2.24
475.885	2.22
476.085	2.31
476.284	2.27
476.484	2.25
476.684	2.2
476.883	2.34
477.083	2.17
477.282	2.04
477.482	2.17
477.681	2.14
477.881	2.1
478.08	2.1
478.28	2.04
478.479	2.13
478.679	2.17
478.878	2.05
479.078	2
479.277	2.11
479.477	2.04
479.676	2
479.875	2
480.075	1.97
480.274	2.03
480.473	2.04
480.673	2
480.872	2.08
481.071	2
481.271	2.05
481.47	2
481.669	2.01
481.868	2
482.067	1.97
482.267	1.93
482.466	1.99
482.665	1.95
482.864	1.95
483.063	1.92
483.262	2.03
483.461	2.06
483.661	2.08
483.86	1.98
484.059	2.1
484.258	2.04
484.457	2
484.656	2
484.855	2.06
485.054	1.93
485.253	2.02
485.452	1.97
485.651	2.02
485.849	2.02
486.048	2.01
486.247	2.05
486.446	2.09
486.645	2
486.844	2.07
487.043	2.03
487.241	2.07
487.44	2.06
487.639	2.14
487.838	2.14
488.037	2.1
488.235	2.19
488.434	2.15
488.633	2.05
488.831	2.21
489.03	2.24
489.229	2.23
489.427	2.23
489.626	2.3
489.825	2.28
490.023	2.33
490.222	2.27
490.42	2.34
490.619	2.35
490.817	2.37
491.016	2.36
491.214	2.38
491.413	2.41
491.611	2.36
491.81	2.4
492.008	2.45
492.207	2.56
492.405	2.54
492.604	2.46
492.802	2.56
493	2.56
493.199	2.62
493.397	2.6
493.595	2.7
493.794	2.65
493.992	2.76
494.19	2.74
494.388	2.79
494.587	2.77
494.785	2.77
494.983	2.74
495.181	2.86
495.379	2.89
495.578	2.94
495.776	2.95
495.974	2.92
496.172	3
496.37	3.06
496.568	3.15
496.766	3.07
496.964	3.19
497.162	3.21
497.36	3.21
497.558	3.23
497.756	3.31
497.954	3.3
498.152	3.37
498.35	3.44
498.548	3.39
498.746	3.43
498.944	3.4
499.142	3.44
499.34	3.5
499.538	3.67
499.736	3.52
499.933	3.64
500.131	3.64
500.329	3.82
500.527	3.78
500.725	3.89
500.922	3.87
501.12	3.9
501.318	3.94
501.516	3.97
501.713	4.03
501.911	3.98
502.109	3.97
502.306	4.09
502.504	4.04
502.701	4.14
502.899	4.19
503.097	4.38
