Data from Apollo_Calib_20240827__AbsoluteIrradiance__793__12-22-02-953.txt Node

Date: Wed Aug 28 12:22:02 BST 2024
User: biology
Spectrometer: FLMT08252
Trigger mode: 0
Integration Time (sec): 5.000000E-1
Scans to average: 5
Electric dark correction enabled: true
Nonlinearity correction enabled: false
Boxcar width: 0
XAxis mode: Wavelengths
Number of Pixels in Spectrum: 3648
>>>>>Begin Spectral Data<<<<<
179.588	-0
179.809	-0
180.03	-0
180.251	-0
180.473	-0
180.694	0
180.915	0
181.136	-0
181.357	0
181.578	-0
181.799	-0
182.02	-0
182.241	0
182.462	-0
182.683	0
182.904	-0
183.125	-0
183.346	0
183.567	0
183.788	0
184.009	0
184.23	0
184.451	0
184.672	0
184.892	0
185.113	0
185.334	0
185.555	0
185.776	0
185.996	0
186.217	0
186.438	0
186.659	0
186.879	0
187.1	0
187.321	0
187.541	0
187.762	0
187.983	0
188.203	0
188.424	0
188.644	0
188.865	0
189.086	0
189.306	0
189.527	0
189.747	0
189.968	0
190.188	0
190.409	0
190.629	0
190.849	0
191.07	0
191.29	0
191.511	0
191.731	0
191.951	0
192.172	0
192.392	0
192.612	0
192.833	0
193.053	0
193.273	0
193.493	0
193.714	0
193.934	0
194.154	0
194.374	0
194.594	0
194.815	0
195.035	0
195.255	0
195.475	0
195.695	0
195.915	0
196.135	0
196.355	0
196.575	0
196.795	0
197.015	0
197.235	0
197.455	0
197.675	0
197.895	0
198.115	0
198.335	0
198.555	0
198.775	0
198.995	0
199.214	0
199.434	0
199.654	0
199.874	0
200.094	4.04
200.313	1.91
200.533	1.94
200.753	1.29
200.973	3.45
201.192	3.06
201.412	1.1
201.632	1.58
201.851	3.55
202.071	1.51
202.291	1.67
202.51	1.24
202.73	2.45
202.95	1.72
203.169	1.02
203.389	1.72
203.608	2.13
203.828	1.52
204.047	1.28
204.267	2.25
204.486	2.01
204.706	1.69
204.925	1.87
205.145	1.45
205.364	2.04
205.583	2.44
205.803	1.6
206.022	0.96
206.242	1.4
206.461	1.45
206.68	1.17
206.9	1.48
207.119	2.62
207.338	2.35
207.557	1.29
207.777	1.28
207.996	1.33
208.215	2.04
208.434	0.68
208.654	1
208.873	1.47
209.092	2.19
209.311	0.97
209.53	1
209.749	1.36
209.968	0.87
210.187	0.72
210.407	0.81
210.626	0.98
210.845	1.48
211.064	1
211.283	0.72
211.502	1.51
211.721	1.23
211.94	0.72
212.159	1.19
212.377	1.45
212.596	1.45
212.815	1.64
213.034	1.12
213.253	1.39
213.472	1.41
213.691	0.72
213.91	0.86
214.128	0.84
214.347	1.31
214.566	0.52
214.785	0.38
215.003	1.16
215.222	0.88
215.441	0.72
215.66	0.59
215.878	0.99
216.097	1.19
216.316	0.39
216.534	0.9
216.753	1.23
216.972	0.8
217.19	0.63
217.409	0.53
217.627	0.71
217.846	0.9
218.064	0.96
218.283	0.66
218.501	1.52
218.72	1.25
218.938	0.59
219.157	0.57
219.375	1.09
219.594	1.03
219.812	0.54
220.031	0.41
220.249	1.28
220.467	1.09
220.686	0.63
220.904	0.4
221.122	0.67
221.341	1.09
221.559	0.6
221.777	0.5
221.995	0.85
222.214	0.99
222.432	0.61
222.65	0.89
222.868	0.71
223.086	0.92
223.305	0.87
223.523	0.72
223.741	1.17
223.959	0.66
224.177	0.43
224.395	0.54
224.613	0.81
224.831	0.87
225.049	0.45
225.267	0.61
225.485	0.68
225.703	0.58
225.921	0.53
226.139	0.54
226.357	0.79
226.575	0.59
226.793	0.53
227.011	1.53
227.229	0.62
227.447	0.86
227.665	0.53
227.883	0.38
228.1	0.76
228.318	0.74
228.536	0.14
228.754	0.54
228.972	0.71
229.189	0.7
229.407	0.52
229.625	0.5
229.843	0.88
230.06	0.87
230.278	0.4
230.496	0.57
230.713	0.59
230.931	0.82
231.149	0.53
231.366	0.34
231.584	0.58
231.801	0.95
232.019	0.55
232.236	0.33
232.454	0.5
232.671	0.68
232.889	0.56
233.106	0.39
233.324	0.58
233.541	0.51
233.759	0.57
233.976	0.4
234.194	0.61
234.411	0.61
234.628	0.43
234.846	0.47
235.063	0.51
235.28	0.64
235.498	0.51
235.715	0.48
235.932	0.85
236.149	0.49
236.367	0.31
236.584	0.57
236.801	0.56
237.018	0.65
237.236	0.59
237.453	0.29
237.67	0.67
237.887	0.6
238.104	0.39
238.321	0.41
238.538	0.41
238.755	0.66
238.973	0.29
239.19	0.49
239.407	0.54
239.624	0.5
239.841	0.32
240.058	0.33
240.275	0.43
240.492	0.48
240.709	0.44
240.925	0.39
241.142	0.55
241.359	0.39
241.576	0.3
241.793	0.4
242.01	0.44
242.227	0.62
242.444	0.61
242.66	0.58
242.877	0.53
243.094	0.4
243.311	0.42
243.527	0.32
243.744	0.48
243.961	0.46
244.178	0.29
244.394	0.42
244.611	0.61
244.828	0.61
245.044	0.3
245.261	0.45
245.477	0.48
245.694	0.53
245.911	0.39
246.127	0.47
246.344	0.6
246.56	0.67
246.777	0.42
246.993	0.37
247.21	0.47
247.426	0.65
247.643	0.35
247.859	0.35
248.076	0.37
248.292	0.68
248.508	0.28
248.725	0.44
248.941	0.46
249.157	0.51
249.374	0.26
249.59	0.36
249.806	0.39
250.023	0.53
250.239	0.3
250.455	0.32
250.671	0.42
250.888	0.54
251.104	0.47
251.32	0.32
251.536	0.39
251.752	0.29
251.969	0.39
252.185	0.36
252.401	0.59
252.617	0.33
252.833	0.26
253.049	0.35
253.265	0.42
253.481	0.49
253.697	0.27
253.913	0.26
254.129	0.48
254.345	0.52
254.561	0.36
254.777	0.37
254.993	0.5
255.209	0.41
255.425	0.41
255.641	0.28
255.857	0.4
256.073	0.45
256.288	0.23
256.504	0.36
256.72	0.44
256.936	0.54
257.152	0.35
257.367	0.29
257.583	0.34
257.799	0.51
258.015	0.3
258.23	0.27
258.446	0.59
258.662	0.34
258.877	0.24
259.093	0.25
259.309	0.4
259.524	0.39
259.74	0.33
259.955	0.26
260.171	0.37
260.387	0.39
260.602	0.48
260.818	0.38
261.033	0.33
261.249	0.35
261.464	0.32
261.68	0.22
261.895	0.48
262.11	0.45
262.326	0.28
262.541	0.22
262.757	0.41
262.972	0.44
263.187	0.35
263.403	0.31
263.618	0.53
263.833	0.37
264.049	0.27
264.264	0.3
264.479	0.42
264.694	0.53
264.91	0.24
265.125	0.27
265.34	0.47
265.555	0.55
265.77	0.37
265.986	0.32
266.201	0.39
266.416	0.51
266.631	0.31
266.846	0.28
267.061	0.4
267.276	0.43
267.491	0.13
267.706	0.35
267.921	0.36
268.136	0.36
268.351	0.36
268.566	0.24
268.781	0.44
268.996	0.45
269.211	0.37
269.426	0.26
269.641	0.3
269.856	0.51
270.071	0.21
270.285	0.25
270.5	0.34
270.715	0.41
270.93	0.37
271.145	0.32
271.359	0.41
271.574	0.28
271.789	0.31
272.004	0.22
272.218	0.33
272.433	0.34
272.648	0.25
272.862	0.38
273.077	0.43
273.292	0.32
273.506	0.24
273.721	0.31
273.936	0.43
274.15	0.38
274.365	0.24
274.579	0.35
274.794	0.41
275.008	0.4
275.223	0.22
275.437	0.26
275.652	0.48
275.866	0.35
276.081	0.32
276.295	0.47
276.509	0.3
276.724	0.36
276.938	0.32
277.153	0.34
277.367	0.35
277.581	0.3
277.796	0.29
278.01	0.17
278.224	0.35
278.438	0.47
278.653	0.32
278.867	0.25
279.081	0.17
279.295	0.36
279.51	0.31
279.724	0.21
279.938	0.4
280.152	0.39
280.366	0.28
280.58	0.34
280.794	0.4
281.008	0.36
281.222	0.35
281.437	0.44
281.651	0.37
281.865	0.34
282.079	0.32
282.293	0.17
282.507	0.25
282.721	0.24
282.935	0.32
283.148	0.19
283.362	0.24
283.576	0.25
283.79	0.28
284.004	0.24
284.218	0.38
284.432	0.31
284.646	0.3
284.859	0.24
285.073	0.27
285.287	0.32
285.501	0.32
285.714	0.26
285.928	0.27
286.142	0.27
286.356	0.22
286.569	0.25
286.783	0.4
286.997	0.32
287.21	0.29
287.424	0.27
287.637	0.29
287.851	0.29
288.065	0.37
288.278	0.27
288.492	0.34
288.705	0.31
288.919	0.34
289.132	0.23
289.346	0.35
289.559	0.21
289.773	0.2
289.986	0.25
290.2	0.29
290.413	0.4
290.626	0.26
290.84	0.27
291.053	0.27
291.267	0.41
291.48	0.25
291.693	0.27
291.906	0.24
292.12	0.32
292.333	0.22
292.546	0.24
292.76	0.39
292.973	0.3
293.186	0.31
293.399	0.25
293.612	0.35
293.826	0.25
294.039	0.24
294.252	0.25
294.465	0.33
294.678	0.27
294.891	0.29
295.104	0.15
295.317	0.21
295.53	0.32
295.743	0.27
295.956	0.24
296.169	0.37
296.382	0.33
296.595	0.23
296.808	0.19
297.021	0.37
297.234	0.35
297.447	0.23
297.66	0.29
297.873	0.32
298.086	0.34
298.299	0.18
298.511	0.17
298.724	0.26
298.937	0.23
299.15	0.2
299.363	0.22
299.575	0.3
299.788	0.29
300.001	0.25
300.213	0.22
300.426	0.27
300.639	0.24
300.852	0.18
301.064	0.3
301.277	0.35
301.489	0.27
301.702	0.29
301.915	0.23
302.127	0.26
302.34	0.27
302.552	0.34
302.765	0.21
302.977	0.32
303.19	0.21
303.402	0.22
303.615	0.26
303.827	0.24
304.04	0.23
304.252	0.34
304.464	0.25
304.677	0.4
304.889	0.27
305.102	0.22
305.314	0.19
305.526	0.32
305.739	0.3
305.951	0.18
306.163	0.21
306.375	0.31
306.588	0.23
306.8	0.23
307.012	0.22
307.224	0.24
307.436	0.34
307.649	0.16
307.861	0.22
308.073	0.27
308.285	0.24
308.497	0.2
308.709	0.25
308.921	0.26
309.133	0.32
309.346	0.23
309.558	0.24
309.77	0.31
309.982	0.35
310.194	0.33
310.406	0.2
310.617	0.33
310.829	0.29
311.041	0.29
311.253	0.22
311.465	0.2
311.677	0.25
311.889	0.24
312.101	0.21
312.313	0.35
312.524	0.36
312.736	0.17
312.948	0.22
313.16	0.32
313.372	0.27
313.583	0.25
313.795	0.26
314.007	0.22
314.218	0.32
314.43	0.25
314.642	0.21
314.853	0.17
315.065	0.32
315.277	0.27
315.488	0.32
315.7	0.31
315.912	0.3
316.123	0.25
316.335	0.2
316.546	0.35
316.758	0.25
316.969	0.19
317.181	0.24
317.392	0.26
317.604	0.32
317.815	0.18
318.026	0.21
318.238	0.24
318.449	0.29
318.661	0.19
318.872	0.17
319.083	0.23
319.295	0.31
319.506	0.2
319.717	0.23
319.929	0.32
320.14	0.29
320.351	0.27
320.562	0.2
320.774	0.28
320.985	0.26
321.196	0.2
321.407	0.18
321.618	0.28
321.829	0.27
322.041	0.25
322.252	0.22
322.463	0.3
322.674	0.3
322.885	0.21
323.096	0.24
323.307	0.28
323.518	0.29
323.729	0.2
323.94	0.22
324.151	0.25
324.362	0.28
324.573	0.24
324.784	0.2
324.995	0.3
325.206	0.26
325.417	0.19
325.628	0.21
325.838	0.25
326.049	0.27
326.26	0.28
326.471	0.2
326.682	0.32
326.892	0.27
327.103	0.18
327.314	0.16
327.525	0.33
327.735	0.24
327.946	0.21
328.157	0.21
328.368	0.31
328.578	0.25
328.789	0.27
328.999	0.23
329.21	0.27
329.421	0.33
329.631	0.22
329.842	0.22
330.052	0.28
330.263	0.29
330.473	0.31
330.684	0.21
330.894	0.27
331.105	0.31
331.315	0.28
331.526	0.18
331.736	0.34
331.947	0.27
332.157	0.24
332.367	0.17
332.578	0.27
332.788	0.35
332.999	0.25
333.209	0.23
333.419	0.18
333.629	0.27
333.84	0.3
334.05	0.25
334.26	0.3
334.47	0.26
334.681	0.31
334.891	0.19
335.101	0.3
335.311	0.3
335.521	0.2
335.732	0.21
335.942	0.32
336.152	0.26
336.362	0.26
336.572	0.26
336.782	0.29
336.992	0.2
337.202	0.23
337.412	0.2
337.622	0.28
337.832	0.2
338.042	0.25
338.252	0.21
338.462	0.24
338.672	0.24
338.882	0.22
339.092	0.29
339.302	0.3
339.511	0.22
339.721	0.25
339.931	0.2
340.141	0.3
340.351	0.35
340.561	0.24
340.77	0.3
340.98	0.25
341.19	0.29
341.4	0.24
341.609	0.21
341.819	0.25
342.029	0.18
342.238	0.24
342.448	0.2
342.658	0.32
342.867	0.18
343.077	0.19
343.286	0.28
343.496	0.27
343.706	0.31
343.915	0.21
344.125	0.24
344.334	0.26
344.544	0.19
344.753	0.23
344.963	0.2
345.172	0.24
345.381	0.22
345.591	0.19
345.8	0.22
346.01	0.34
346.219	0.31
346.428	0.14
346.638	0.2
346.847	0.22
347.056	0.33
347.266	0.18
347.475	0.24
347.684	0.29
347.893	0.27
348.103	0.28
348.312	0.22
348.521	0.26
348.73	0.25
348.94	0.25
349.149	0.23
349.358	0.27
349.567	0.19
349.776	0.2
349.985	0.22
350.194	0.28
350.403	0.3
350.612	0.18
350.821	0.18
351.03	0.27
351.239	0.22
351.448	0.24
351.657	0.2
351.866	0.31
352.075	0.27
352.284	0.21
352.493	0.18
352.702	0.3
352.911	0.29
353.12	0.29
353.329	0.23
353.538	0.29
353.746	0.26
353.955	0.2
354.164	0.29
354.373	0.27
354.582	0.28
354.79	0.24
354.999	0.28
355.208	0.22
355.416	0.35
355.625	0.22
355.834	0.22
356.042	0.28
356.251	0.23
356.46	0.21
356.668	0.26
356.877	0.35
357.085	0.31
357.294	0.15
357.503	0.26
357.711	0.22
357.92	0.42
358.128	0.27
358.337	0.23
358.545	0.27
358.754	0.25
358.962	0.24
359.17	0.22
359.379	0.24
359.587	0.26
359.796	0.21
360.004	0.29
360.212	0.3
360.421	0.34
360.629	0.22
360.837	0.2
361.046	0.31
361.254	0.36
361.462	0.26
361.67	0.21
361.879	0.28
362.087	0.32
362.295	0.24
362.503	0.21
362.711	0.21
362.92	0.24
363.128	0.2
363.336	0.18
363.544	0.23
363.752	0.22
363.96	0.22
364.168	0.2
364.376	0.27
364.584	0.25
364.792	0.28
365	0.29
365.208	0.23
365.416	0.29
365.624	0.28
365.832	0.22
366.04	0.31
366.248	0.26
366.456	0.26
366.664	0.26
366.872	0.23
367.079	0.27
367.287	0.27
367.495	0.25
367.703	0.22
367.911	0.23
368.118	0.23
368.326	0.23
368.534	0.22
368.742	0.31
368.949	0.19
369.157	0.18
369.365	0.29
369.572	0.26
369.78	0.2
369.988	0.3
370.195	0.24
370.403	0.3
370.61	0.23
370.818	0.23
371.026	0.34
371.233	0.21
371.441	0.29
371.648	0.19
371.856	0.28
372.063	0.29
372.271	0.24
372.478	0.17
372.685	0.25
372.893	0.29
373.1	0.25
373.308	0.2
373.515	0.33
373.722	0.32
373.93	0.25
374.137	0.29
374.344	0.33
374.552	0.31
374.759	0.28
374.966	0.26
375.173	0.22
375.381	0.33
375.588	0.27
375.795	0.19
376.002	0.24
376.209	0.21
376.417	0.28
376.624	0.22
376.831	0.27
377.038	0.25
377.245	0.21
377.452	0.2
377.659	0.28
377.866	0.26
378.073	0.27
378.28	0.2
378.487	0.33
378.694	0.26
378.901	0.18
379.108	0.25
379.315	0.31
379.522	0.38
379.729	0.29
379.936	0.26
380.143	0.25
380.35	0.3
380.557	0.24
380.763	0.24
380.97	0.29
381.177	0.31
381.384	0.29
381.591	0.18
381.797	0.27
382.004	0.27
382.211	0.26
382.418	0.2
382.624	0.33
382.831	0.36
383.038	0.23
383.244	0.25
383.451	0.29
383.658	0.28
383.864	0.23
384.071	0.22
384.277	0.37
384.484	0.25
384.69	0.35
384.897	0.27
385.103	0.27
385.31	0.22
385.516	0.24
385.723	0.25
385.929	0.26
386.136	0.28
386.342	0.29
386.549	0.22
386.755	0.35
386.961	0.31
387.168	0.26
387.374	0.29
387.58	0.32
387.787	0.32
387.993	0.29
388.199	0.29
388.406	0.23
388.612	0.27
388.818	0.27
389.024	0.24
389.231	0.26
389.437	0.36
389.643	0.34
389.849	0.28
390.055	0.32
390.261	0.3
390.467	0.31
390.674	0.22
390.88	0.29
391.086	0.33
391.292	0.27
391.498	0.34
391.704	0.29
391.91	0.33
392.116	0.3
392.322	0.24
392.528	0.34
392.734	0.24
392.94	0.3
393.146	0.29
393.352	0.35
393.557	0.28
393.763	0.25
393.969	0.33
394.175	0.32
394.381	0.32
394.587	0.25
394.792	0.34
394.998	0.38
395.204	0.44
395.41	0.29
395.615	0.31
395.821	0.34
396.027	0.36
396.233	0.26
396.438	0.34
396.644	0.42
396.85	0.33
397.055	0.28
397.261	0.33
397.466	0.32
397.672	0.3
397.878	0.43
398.083	0.35
398.289	0.27
398.494	0.4
398.7	0.39
398.905	0.22
399.111	0.45
399.316	0.28
399.522	0.31
399.727	0.33
399.932	0.3
400.138	0.33
400.343	0.37
400.549	0.31
400.754	0.37
400.959	0.38
401.165	0.35
401.37	0.33
401.575	0.48
401.78	0.35
401.986	0.34
402.191	0.39
402.396	0.35
402.601	0.42
402.807	0.44
403.012	0.42
403.217	0.39
403.422	0.38
403.627	0.37
403.832	0.36
404.037	0.47
404.243	0.39
404.448	0.38
404.653	0.38
404.858	0.45
405.063	0.46
405.268	0.39
405.473	0.36
405.678	0.37
405.883	0.59
406.088	0.43
406.293	0.4
406.498	0.44
406.703	0.5
406.907	0.47
407.112	0.43
407.317	0.47
407.522	0.56
407.727	0.42
407.932	0.56
408.136	0.62
408.341	0.54
408.546	0.55
408.751	0.52
408.956	0.56
409.16	0.64
409.365	0.63
409.57	0.57
409.774	0.61
409.979	0.69
410.184	0.67
410.388	0.57
410.593	0.74
410.798	0.72
411.002	0.72
411.207	0.8
411.411	0.71
411.616	0.76
411.82	0.74
412.025	0.83
412.229	0.77
412.434	0.91
412.638	0.89
412.843	0.82
413.047	0.89
413.252	0.89
413.456	0.93
413.66	0.97
413.865	0.98
414.069	1.11
414.273	1.01
414.478	1.07
414.682	1.1
414.886	1.14
415.091	1.11
415.295	1.18
415.499	1.31
415.703	1.25
415.908	1.39
416.112	1.28
416.316	1.48
416.52	1.44
416.724	1.39
416.929	1.47
417.133	1.76
417.337	1.62
417.541	1.67
417.745	1.69
417.949	1.88
418.153	1.88
418.357	1.82
418.561	2.08
418.765	2.02
418.969	2.21
419.173	2.32
419.377	2.24
419.581	2.52
419.785	2.4
419.989	2.53
420.193	2.59
420.397	2.69
420.601	2.82
420.804	2.89
421.008	2.78
421.212	3.04
421.416	3.04
421.62	3.04
421.823	3.08
422.027	3.31
422.231	3.17
422.435	3.22
422.638	3.29
422.842	3.42
423.046	3.47
423.249	3.65
423.453	3.63
423.657	3.78
423.86	3.88
424.064	4.04
424.268	4.16
424.471	4.16
424.675	4.33
424.878	4.34
425.082	4.56
425.285	4.76
425.489	4.65
425.692	4.85
425.896	4.91
426.099	5.11
426.303	5.19
426.506	5.27
426.71	5.52
426.913	5.76
427.116	5.86
427.32	5.81
427.523	5.98
427.726	6.29
427.93	6.32
428.133	6.54
428.336	6.71
428.54	7.02
428.743	7.1
428.946	7.38
429.149	7.28
429.353	7.5
429.556	7.51
429.759	7.5
429.962	7.59
430.165	7.83
430.368	7.55
430.571	7.58
430.775	7.69
430.978	7.68
431.181	7.76
431.384	7.83
431.587	7.91
431.79	8.26
431.993	8.27
432.196	8.5
432.399	8.87
432.602	8.95
432.805	9.05
433.008	9.5
433.211	9.49
433.414	9.8
433.616	9.89
433.819	9.9
434.022	9.92
434.225	10.11
434.428	10.12
434.631	10.48
434.833	10.31
435.036	10.65
435.239	10.85
435.442	10.85
435.645	11.06
435.847	11.17
436.05	11.36
436.253	11.61
436.455	11.64
436.658	11.56
436.861	11.83
437.063	11.98
437.266	11.86
437.468	12.23
437.671	12.69
437.874	12.47
438.076	12.5
438.279	12.88
438.481	12.95
438.684	13.72
438.886	13.22
439.089	13.55
439.291	13.67
439.494	13.98
439.696	14.03
439.899	14.59
440.101	14.93
440.303	15.17
440.506	15.81
440.708	15.61
440.91	15.89
441.113	16.06
441.315	16.38
441.517	16.2
441.72	16.56
441.922	16.16
442.124	16.15
442.326	16.53
442.529	16.98
442.731	16.78
442.933	17.07
443.135	16.78
443.337	16.85
443.539	17.45
443.742	17.07
443.944	17.68
444.146	17.4
444.348	17.56
444.55	17.29
444.752	17.53
444.954	17.53
445.156	17.57
445.358	17.89
445.56	18.21
445.762	18.2
445.964	18.44
446.166	18.04
446.368	18.12
446.57	18.15
446.772	17.71
446.974	17.58
447.175	17.85
447.377	17.64
447.579	18.04
447.781	17.75
447.983	17.59
448.184	17.15
448.386	17.56
448.588	17.03
448.79	17.13
448.991	17.36
449.193	17.43
449.395	16.82
449.597	16.49
449.798	16.36
450	15.86
450.202	15.71
450.403	16
450.605	15.84
450.806	15.55
451.008	15.27
451.21	15.25
451.411	14.68
451.613	13.94
451.814	14.12
452.016	14.14
452.217	13.58
452.419	13.61
452.62	13.24
452.821	13.08
453.023	12.94
453.224	12.53
453.426	12.16
453.627	11.37
453.828	11.57
454.03	11.53
454.231	11.64
454.432	11.37
454.634	11.14
454.835	10.95
455.036	10.84
455.238	10.44
455.439	10.14
455.64	9.87
455.841	9.68
456.042	9.87
456.244	9.57
456.445	9.27
456.646	8.83
456.847	8.84
457.048	8.82
457.249	8.79
457.45	8.62
457.651	8.11
457.852	7.85
458.054	7.6
458.255	7.51
458.456	7.59
458.657	7.44
458.858	6.88
459.058	6.92
459.259	6.96
459.46	6.71
459.661	6.66
459.862	6.71
460.063	6.64
460.264	6.51
460.465	6.16
460.666	6.31
460.866	5.98
461.067	5.78
461.268	5.8
461.469	5.62
461.67	5.52
461.87	5.39
462.071	5.43
462.272	5.32
462.473	5.3
462.673	5.48
462.874	5.29
463.075	5.28
463.275	5.29
463.476	5.42
463.676	5.26
463.877	5.2
464.078	5.07
464.278	5.15
464.479	4.99
464.679	4.93
464.88	4.8
465.08	4.84
465.281	4.7
465.481	4.46
465.682	4.26
465.882	4.32
466.083	4.26
466.283	4.26
466.483	4.06
466.684	3.9
466.884	3.82
467.085	3.85
467.285	3.88
467.485	3.74
467.686	3.7
467.886	3.58
468.086	3.49
468.286	3.44
468.487	3.59
468.687	3.36
468.887	3.32
469.087	3.54
469.287	3.35
469.488	3.17
469.688	3.31
469.888	3.41
470.088	3.25
470.288	3.18
470.488	3.08
470.688	3.06
470.888	2.98
471.088	2.85
471.288	2.99
471.488	2.91
471.688	2.86
471.888	2.82
472.088	2.93
472.288	2.85
472.488	2.72
472.688	2.71
472.888	2.7
473.088	2.72
473.288	2.56
473.488	2.56
473.688	2.72
473.887	2.59
474.087	2.52
474.287	2.53
474.487	2.47
474.687	2.52
474.886	2.44
475.086	2.42
475.286	2.43
475.486	2.38
475.685	2.3
475.885	2.26
476.085	2.35
476.284	2.38
476.484	2.36
476.684	2.33
476.883	2.39
477.083	2.27
477.282	2.23
477.482	2.23
477.681	2.24
477.881	2.14
478.08	2.19
478.28	2.12
478.479	2.14
478.679	2.22
478.878	2.11
479.078	2.09
479.277	2.17
479.477	2.08
479.676	2.09
479.875	2.07
480.075	2
480.274	2.09
480.473	2.08
480.673	2.09
480.872	2.13
481.071	2.16
481.271	2.13
481.47	2.02
481.669	2.09
481.868	2
482.067	2.06
482.267	1.98
482.466	2.02
482.665	2.01
482.864	1.97
483.063	2
483.262	2.06
483.461	2.06
483.661	2.1
483.86	2.05
484.059	2.07
484.258	2.07
484.457	2.05
484.656	2.07
484.855	2.15
485.054	1.92
485.253	2.07
485.452	2.02
485.651	2.08
485.849	2.02
486.048	2.03
486.247	2.07
486.446	2.12
486.645	2.1
486.844	2.13
487.043	2.08
487.241	2.11
487.44	2.14
487.639	2.15
487.838	2.16
488.037	2.14
488.235	2.24
488.434	2.2
488.633	2.06
488.831	2.29
489.03	2.26
489.229	2.25
489.427	2.23
489.626	2.31
489.825	2.32
490.023	2.34
490.222	2.32
490.42	2.37
490.619	2.4
490.817	2.39
491.016	2.37
491.214	2.46
491.413	2.43
491.611	2.4
491.81	2.41
492.008	2.47
492.207	2.54
492.405	2.54
492.604	2.48
492.802	2.58
493	2.65
493.199	2.57
493.397	2.68
493.595	2.68
493.794	2.65
493.992	2.81
494.19	2.72
494.388	2.81
494.587	2.77
494.785	2.78
494.983	2.72
495.181	2.86
495.379	2.94
495.578	2.91
495.776	2.94
495.974	2.93
496.172	2.98
496.37	3.08
496.568	3.1
496.766	3.1
496.964	3.19
497.162	3.16
497.36	3.22
497.558	3.21
497.756	3.29
497.954	3.3
498.152	3.33
498.35	3.47
498.548	3.37
498.746	3.39
498.944	3.37
499.142	3.42
499.34	3.53
499.538	3.62
499.736	3.46
499.933	3.64
500.131	3.63
500.329	3.75
500.527	3.72
500.725	3.84
500.922	3.86
501.12	3.82
501.318	3.9
501.516	3.9
501.713	3.99
501.911	3.98
502.109	3.92
502.306	4.04
502.504	4
502.701	4.06
