Data from Apollo_Calib_20240827__AbsoluteIrradiance__873__13-42-02-771.txt Node

Date: Wed Aug 28 13:42:02 BST 2024
User: biology
Spectrometer: FLMT08252
Trigger mode: 0
Integration Time (sec): 5.000000E-1
Scans to average: 5
Electric dark correction enabled: true
Nonlinearity correction enabled: false
Boxcar width: 0
XAxis mode: Wavelengths
Number of Pixels in Spectrum: 3648
>>>>>Begin Spectral Data<<<<<
179.588	-0
179.809	-0
180.03	-0
180.251	-0
180.473	-0
180.694	0
180.915	0
181.136	-0
181.357	0
181.578	-0
181.799	0
182.02	-0
182.241	0
182.462	-0
182.683	0
182.904	-0
183.125	-0
183.346	0
183.567	0
183.788	0
184.009	0
184.23	0
184.451	0
184.672	0
184.892	0
185.113	0
185.334	0
185.555	0
185.776	0
185.996	0
186.217	0
186.438	0
186.659	0
186.879	0
187.1	0
187.321	0
187.541	0
187.762	0
187.983	0
188.203	0
188.424	0
188.644	0
188.865	0
189.086	0
189.306	0
189.527	0
189.747	0
189.968	0
190.188	0
190.409	0
190.629	0
190.849	0
191.07	0
191.29	0
191.511	0
191.731	0
191.951	0
192.172	0
192.392	0
192.612	0
192.833	0
193.053	0
193.273	0
193.493	0
193.714	0
193.934	0
194.154	0
194.374	0
194.594	0
194.815	0
195.035	0
195.255	0
195.475	0
195.695	0
195.915	0
196.135	0
196.355	0
196.575	0
196.795	0
197.015	0
197.235	0
197.455	0
197.675	0
197.895	0
198.115	0
198.335	0
198.555	0
198.775	0
198.995	0
199.214	0
199.434	0
199.654	0
199.874	0
200.094	3.71
200.313	2.21
200.533	1.49
200.753	1.51
200.973	3.52
201.192	3.11
201.412	0.89
201.632	1.8
201.851	3.65
202.071	1.63
202.291	1.45
202.51	1.34
202.73	2.82
202.95	1.97
203.169	1.14
203.389	1.69
203.608	1.98
203.828	1.7
204.047	1.42
204.267	2.26
204.486	2.5
204.706	2.24
204.925	1.63
205.145	1.4
205.364	2.23
205.583	2.67
205.803	1.2
206.022	0.78
206.242	1.61
206.461	1.88
206.68	0.98
206.9	1.42
207.119	2.36
207.338	2.35
207.557	0.86
207.777	1.17
207.996	1.52
208.215	2.14
208.434	1.01
208.654	0.71
208.873	1.52
209.092	2.48
209.311	1.13
209.53	1.16
209.749	1.21
209.968	0.97
210.187	1.07
210.407	0.69
210.626	1.11
210.845	1.48
211.064	1.07
211.283	0.74
211.502	1.49
211.721	1.09
211.94	0.98
212.159	1.53
212.377	1.55
212.596	1.27
212.815	1.31
213.034	1.03
213.253	1.34
213.472	1.49
213.691	0.83
213.91	0.36
214.128	0.5
214.347	1.65
214.566	0.73
214.785	0.42
215.003	1.09
215.222	1.16
215.441	0.86
215.66	0.57
215.878	1.04
216.097	1.23
216.316	0.56
216.534	0.81
216.753	1.11
216.972	0.8
217.19	0.82
217.409	0.62
217.627	0.99
217.846	0.75
218.064	1.03
218.283	0.52
218.501	1.28
218.72	1.06
218.938	0.53
219.157	0.54
219.375	1.08
219.594	1
219.812	0.47
220.031	0.52
220.249	1.24
220.467	1.02
220.686	0.65
220.904	0.44
221.122	0.75
221.341	1.36
221.559	0.76
221.777	0.53
221.995	0.84
222.214	0.96
222.432	0.54
222.65	0.71
222.868	0.86
223.086	0.83
223.305	0.89
223.523	0.52
223.741	1.04
223.959	0.77
224.177	0.44
224.395	0.4
224.613	0.74
224.831	0.97
225.049	0.49
225.267	0.62
225.485	0.77
225.703	0.69
225.921	0.5
226.139	0.5
226.357	0.87
226.575	0.87
226.793	0.55
227.011	1.63
227.229	0.81
227.447	0.97
227.665	0.56
227.883	0.21
228.1	0.62
228.318	0.77
228.536	0.33
228.754	0.42
228.972	0.75
229.189	0.86
229.407	0.51
229.625	0.61
229.843	0.84
230.06	0.78
230.278	0.54
230.496	0.53
230.713	0.68
230.931	0.87
231.149	0.5
231.366	0.24
231.584	0.5
231.801	1.03
232.019	0.43
232.236	0.35
232.454	0.51
232.671	0.66
232.889	0.36
233.106	0.32
233.324	0.64
233.541	0.43
233.759	0.58
233.976	0.38
234.194	0.55
234.411	0.46
234.628	0.4
234.846	0.39
235.063	0.63
235.28	0.61
235.498	0.6
235.715	0.32
235.932	0.72
236.149	0.53
236.367	0.31
236.584	0.52
236.801	0.44
237.018	0.57
237.236	0.48
237.453	0.34
237.67	0.73
237.887	0.48
238.104	0.43
238.321	0.4
238.538	0.34
238.755	0.77
238.973	0.22
239.19	0.5
239.407	0.58
239.624	0.58
239.841	0.37
240.058	0.37
240.275	0.53
240.492	0.42
240.709	0.47
240.925	0.34
241.142	0.52
241.359	0.41
241.576	0.26
241.793	0.32
242.01	0.41
242.227	0.6
242.444	0.45
242.66	0.56
242.877	0.54
243.094	0.36
243.311	0.44
243.527	0.41
243.744	0.56
243.961	0.5
244.178	0.42
244.394	0.34
244.611	0.66
244.828	0.64
245.044	0.3
245.261	0.34
245.477	0.56
245.694	0.55
245.911	0.28
246.127	0.48
246.344	0.63
246.56	0.58
246.777	0.35
246.993	0.45
247.21	0.47
247.426	0.52
247.643	0.28
247.859	0.33
248.076	0.3
248.292	0.69
248.508	0.37
248.725	0.43
248.941	0.51
249.157	0.53
249.374	0.33
249.59	0.34
249.806	0.34
250.023	0.51
250.239	0.28
250.455	0.36
250.671	0.4
250.888	0.47
251.104	0.49
251.32	0.32
251.536	0.39
251.752	0.4
251.969	0.37
252.185	0.36
252.401	0.6
252.617	0.43
252.833	0.28
253.049	0.37
253.265	0.34
253.481	0.4
253.697	0.38
253.913	0.31
254.129	0.45
254.345	0.44
254.561	0.3
254.777	0.33
254.993	0.49
255.209	0.42
255.425	0.27
255.641	0.36
255.857	0.46
256.073	0.44
256.288	0.24
256.504	0.27
256.72	0.53
256.936	0.61
257.152	0.35
257.367	0.28
257.583	0.45
257.799	0.5
258.015	0.36
258.23	0.37
258.446	0.63
258.662	0.39
258.877	0.24
259.093	0.18
259.309	0.39
259.524	0.5
259.74	0.31
259.955	0.23
260.171	0.42
260.387	0.42
260.602	0.47
260.818	0.41
261.033	0.28
261.249	0.45
261.464	0.32
261.68	0.23
261.895	0.5
262.11	0.4
262.326	0.27
262.541	0.22
262.757	0.45
262.972	0.46
263.187	0.32
263.403	0.35
263.618	0.6
263.833	0.37
264.049	0.27
264.264	0.19
264.479	0.38
264.694	0.51
264.91	0.27
265.125	0.27
265.34	0.4
265.555	0.59
265.77	0.35
265.986	0.25
266.201	0.44
266.416	0.47
266.631	0.31
266.846	0.34
267.061	0.49
267.276	0.45
267.491	0.18
267.706	0.39
267.921	0.37
268.136	0.36
268.351	0.31
268.566	0.21
268.781	0.46
268.996	0.51
269.211	0.3
269.426	0.27
269.641	0.28
269.856	0.4
270.071	0.23
270.285	0.24
270.5	0.48
270.715	0.42
270.93	0.29
271.145	0.33
271.359	0.43
271.574	0.26
271.789	0.3
272.004	0.24
272.218	0.31
272.433	0.4
272.648	0.27
272.862	0.39
273.077	0.35
273.292	0.31
273.506	0.27
273.721	0.34
273.936	0.32
274.15	0.39
274.365	0.2
274.579	0.39
274.794	0.37
275.008	0.42
275.223	0.19
275.437	0.28
275.652	0.4
275.866	0.41
276.081	0.24
276.295	0.35
276.509	0.33
276.724	0.32
276.938	0.35
277.153	0.35
277.367	0.4
277.581	0.3
277.796	0.29
278.01	0.21
278.224	0.4
278.438	0.45
278.653	0.19
278.867	0.23
279.081	0.17
279.295	0.3
279.51	0.31
279.724	0.22
279.938	0.42
280.152	0.39
280.366	0.23
280.58	0.25
280.794	0.43
281.008	0.39
281.222	0.38
281.437	0.48
281.651	0.31
281.865	0.41
282.079	0.27
282.293	0.16
282.507	0.26
282.721	0.28
282.935	0.27
283.148	0.27
283.362	0.31
283.576	0.22
283.79	0.28
284.004	0.25
284.218	0.42
284.432	0.28
284.646	0.27
284.859	0.23
285.073	0.24
285.287	0.35
285.501	0.24
285.714	0.27
285.928	0.35
286.142	0.43
286.356	0.21
286.569	0.25
286.783	0.4
286.997	0.37
287.21	0.29
287.424	0.26
287.637	0.26
287.851	0.24
288.065	0.32
288.278	0.26
288.492	0.3
288.705	0.27
288.919	0.32
289.132	0.21
289.346	0.35
289.559	0.22
289.773	0.27
289.986	0.26
290.2	0.28
290.413	0.35
290.626	0.26
290.84	0.23
291.053	0.27
291.267	0.42
291.48	0.2
291.693	0.29
291.906	0.27
292.12	0.29
292.333	0.22
292.546	0.23
292.76	0.37
292.973	0.3
293.186	0.32
293.399	0.24
293.612	0.33
293.826	0.29
294.039	0.26
294.252	0.25
294.465	0.36
294.678	0.29
294.891	0.25
295.104	0.22
295.317	0.27
295.53	0.31
295.743	0.23
295.956	0.28
296.169	0.35
296.382	0.33
296.595	0.22
296.808	0.23
297.021	0.32
297.234	0.31
297.447	0.24
297.66	0.26
297.873	0.31
298.086	0.37
298.299	0.19
298.511	0.13
298.724	0.24
298.937	0.21
299.15	0.16
299.363	0.25
299.575	0.3
299.788	0.28
300.001	0.25
300.213	0.2
300.426	0.26
300.639	0.21
300.852	0.23
301.064	0.29
301.277	0.35
301.489	0.3
301.702	0.29
301.915	0.25
302.127	0.25
302.34	0.3
302.552	0.27
302.765	0.23
302.977	0.34
303.19	0.27
303.402	0.22
303.615	0.22
303.827	0.22
304.04	0.23
304.252	0.26
304.464	0.25
304.677	0.41
304.889	0.31
305.102	0.2
305.314	0.2
305.526	0.25
305.739	0.3
305.951	0.24
306.163	0.26
306.375	0.33
306.588	0.23
306.8	0.21
307.012	0.19
307.224	0.26
307.436	0.3
307.649	0.12
307.861	0.28
308.073	0.31
308.285	0.24
308.497	0.16
308.709	0.21
308.921	0.29
309.133	0.3
309.346	0.23
309.558	0.22
309.77	0.32
309.982	0.33
310.194	0.29
310.406	0.17
310.617	0.4
310.829	0.27
311.041	0.25
311.253	0.19
311.465	0.25
311.677	0.26
311.889	0.2
312.101	0.2
312.313	0.27
312.524	0.38
312.736	0.18
312.948	0.21
313.16	0.34
313.372	0.31
313.583	0.26
313.795	0.26
314.007	0.26
314.218	0.35
314.43	0.23
314.642	0.17
314.853	0.18
315.065	0.34
315.277	0.26
315.488	0.21
315.7	0.35
315.912	0.31
316.123	0.26
316.335	0.21
316.546	0.38
316.758	0.24
316.969	0.23
317.181	0.23
317.392	0.25
317.604	0.35
317.815	0.19
318.026	0.22
318.238	0.23
318.449	0.29
318.661	0.15
318.872	0.18
319.083	0.22
319.295	0.29
319.506	0.23
319.717	0.24
319.929	0.27
320.14	0.24
320.351	0.25
320.562	0.23
320.774	0.29
320.985	0.26
321.196	0.19
321.407	0.19
321.618	0.28
321.829	0.29
322.041	0.29
322.252	0.24
322.463	0.32
322.674	0.27
322.885	0.19
323.096	0.21
323.307	0.27
323.518	0.26
323.729	0.22
323.94	0.24
324.151	0.24
324.362	0.29
324.573	0.26
324.784	0.18
324.995	0.34
325.206	0.3
325.417	0.24
325.628	0.24
325.838	0.3
326.049	0.22
326.26	0.29
326.471	0.18
326.682	0.3
326.892	0.24
327.103	0.16
327.314	0.18
327.525	0.32
327.735	0.3
327.946	0.23
328.157	0.18
328.368	0.25
328.578	0.28
328.789	0.32
328.999	0.24
329.21	0.25
329.421	0.31
329.631	0.23
329.842	0.22
330.052	0.24
330.263	0.36
330.473	0.3
330.684	0.21
330.894	0.28
331.105	0.27
331.315	0.28
331.526	0.16
331.736	0.32
331.947	0.31
332.157	0.3
332.367	0.17
332.578	0.3
332.788	0.34
332.999	0.3
333.209	0.23
333.419	0.17
333.629	0.3
333.84	0.25
334.05	0.23
334.26	0.34
334.47	0.25
334.681	0.27
334.891	0.19
335.101	0.3
335.311	0.39
335.521	0.25
335.732	0.22
335.942	0.31
336.152	0.27
336.362	0.26
336.572	0.25
336.782	0.35
336.992	0.22
337.202	0.23
337.412	0.22
337.622	0.25
337.832	0.24
338.042	0.2
338.252	0.2
338.462	0.25
338.672	0.27
338.882	0.24
339.092	0.25
339.302	0.33
339.511	0.27
339.721	0.24
339.931	0.16
340.141	0.35
340.351	0.34
340.561	0.3
340.77	0.26
340.98	0.29
341.19	0.24
341.4	0.23
341.609	0.23
341.819	0.22
342.029	0.21
342.238	0.25
342.448	0.19
342.658	0.29
342.867	0.26
343.077	0.22
343.286	0.24
343.496	0.25
343.706	0.34
343.915	0.21
344.125	0.24
344.334	0.3
344.544	0.17
344.753	0.21
344.963	0.21
345.172	0.25
345.381	0.2
345.591	0.19
345.8	0.23
346.01	0.38
346.219	0.3
346.428	0.14
346.638	0.27
346.847	0.21
347.056	0.32
347.266	0.21
347.475	0.22
347.684	0.3
347.893	0.28
348.103	0.28
348.312	0.25
348.521	0.26
348.73	0.26
348.94	0.27
349.149	0.23
349.358	0.25
349.567	0.22
349.776	0.14
349.985	0.19
350.194	0.27
350.403	0.31
350.612	0.16
350.821	0.19
351.03	0.22
351.239	0.18
351.448	0.28
351.657	0.23
351.866	0.33
352.075	0.29
352.284	0.32
352.493	0.2
352.702	0.33
352.911	0.27
353.12	0.26
353.329	0.25
353.538	0.28
353.746	0.23
353.955	0.16
354.164	0.25
354.373	0.22
354.582	0.31
354.79	0.26
354.999	0.28
355.208	0.22
355.416	0.33
355.625	0.22
355.834	0.19
356.042	0.31
356.251	0.18
356.46	0.16
356.668	0.28
356.877	0.38
357.085	0.31
357.294	0.16
357.503	0.26
357.711	0.23
357.92	0.45
358.128	0.26
358.337	0.21
358.545	0.26
358.754	0.21
358.962	0.31
359.17	0.2
359.379	0.24
359.587	0.24
359.796	0.22
360.004	0.31
360.212	0.3
360.421	0.33
360.629	0.26
360.837	0.23
361.046	0.29
361.254	0.41
361.462	0.25
361.67	0.22
361.879	0.28
362.087	0.3
362.295	0.21
362.503	0.21
362.711	0.17
362.92	0.2
363.128	0.22
363.336	0.19
363.544	0.21
363.752	0.23
363.96	0.24
364.168	0.2
364.376	0.27
364.584	0.27
364.792	0.31
365	0.27
365.208	0.29
365.416	0.3
365.624	0.27
365.832	0.22
366.04	0.33
366.248	0.25
366.456	0.26
366.664	0.25
366.872	0.25
367.079	0.24
367.287	0.24
367.495	0.23
367.703	0.26
367.911	0.26
368.118	0.24
368.326	0.23
368.534	0.17
368.742	0.32
368.949	0.15
369.157	0.22
369.365	0.27
369.572	0.22
369.78	0.22
369.988	0.31
370.195	0.26
370.403	0.32
370.61	0.23
370.818	0.2
371.026	0.37
371.233	0.19
371.441	0.26
371.648	0.25
371.856	0.29
372.063	0.27
372.271	0.21
372.478	0.22
372.685	0.21
372.893	0.3
373.1	0.26
373.308	0.21
373.515	0.36
373.722	0.3
373.93	0.24
374.137	0.28
374.344	0.36
374.552	0.31
374.759	0.26
374.966	0.29
375.173	0.23
375.381	0.32
375.588	0.23
375.795	0.22
376.002	0.26
376.209	0.23
376.417	0.23
376.624	0.32
376.831	0.3
377.038	0.27
377.245	0.17
377.452	0.25
377.659	0.26
377.866	0.25
378.073	0.25
378.28	0.28
378.487	0.33
378.694	0.31
378.901	0.24
379.108	0.27
379.315	0.32
379.522	0.36
379.729	0.26
379.936	0.25
380.143	0.28
380.35	0.26
380.557	0.26
380.763	0.23
380.97	0.26
381.177	0.3
381.384	0.27
381.591	0.21
381.797	0.29
382.004	0.33
382.211	0.31
382.418	0.19
382.624	0.31
382.831	0.32
383.038	0.21
383.244	0.3
383.451	0.3
383.658	0.33
383.864	0.23
384.071	0.23
384.277	0.35
384.484	0.23
384.69	0.34
384.897	0.22
385.103	0.27
385.31	0.23
385.516	0.22
385.723	0.22
385.929	0.26
386.136	0.24
386.342	0.34
386.549	0.26
386.755	0.32
386.961	0.33
387.168	0.26
387.374	0.28
387.58	0.33
387.787	0.28
387.993	0.32
388.199	0.29
388.406	0.26
388.612	0.29
388.818	0.23
389.024	0.21
389.231	0.3
389.437	0.42
389.643	0.3
389.849	0.3
390.055	0.29
390.261	0.3
390.467	0.32
390.674	0.24
390.88	0.28
391.086	0.36
391.292	0.24
391.498	0.32
391.704	0.33
391.91	0.27
392.116	0.26
392.322	0.2
392.528	0.32
392.734	0.32
392.94	0.26
393.146	0.32
393.352	0.32
393.557	0.29
393.763	0.3
393.969	0.34
394.175	0.33
394.381	0.32
394.587	0.28
394.792	0.3
394.998	0.38
395.204	0.36
395.41	0.27
395.615	0.34
395.821	0.31
396.027	0.33
396.233	0.29
396.438	0.33
396.644	0.42
396.85	0.34
397.055	0.31
397.261	0.33
397.466	0.33
397.672	0.34
397.878	0.39
398.083	0.32
398.289	0.32
398.494	0.41
398.7	0.33
398.905	0.27
399.111	0.45
399.316	0.29
399.522	0.35
399.727	0.31
399.932	0.35
400.138	0.28
400.343	0.39
400.549	0.34
400.754	0.38
400.959	0.42
401.165	0.32
401.37	0.42
401.575	0.32
401.78	0.37
401.986	0.36
402.191	0.37
402.396	0.37
402.601	0.47
402.807	0.42
403.012	0.38
403.217	0.44
403.422	0.41
403.627	0.42
403.832	0.4
404.037	0.51
404.243	0.42
404.448	0.43
404.653	0.39
404.858	0.5
405.063	0.44
405.268	0.4
405.473	0.37
405.678	0.44
405.883	0.67
406.088	0.53
406.293	0.43
406.498	0.45
406.703	0.48
406.907	0.54
407.112	0.41
407.317	0.49
407.522	0.62
407.727	0.46
407.932	0.56
408.136	0.67
408.341	0.55
408.546	0.57
408.751	0.54
408.956	0.58
409.16	0.68
409.365	0.57
409.57	0.59
409.774	0.68
409.979	0.71
410.184	0.66
410.388	0.63
410.593	0.86
410.798	0.72
411.002	0.7
411.207	0.83
411.411	0.79
411.616	0.76
411.82	0.88
412.025	0.81
412.229	0.83
412.434	0.99
412.638	0.98
412.843	0.91
413.047	0.96
413.252	0.98
413.456	1.01
413.66	1.06
413.865	1.06
414.069	1.13
414.273	1.14
414.478	1.14
414.682	1.2
414.886	1.31
415.091	1.23
415.295	1.25
415.499	1.43
415.703	1.37
415.908	1.47
416.112	1.38
416.316	1.59
416.52	1.6
416.724	1.57
416.929	1.63
417.133	1.92
417.337	1.8
417.541	1.85
417.745	1.89
417.949	2.02
418.153	2.06
418.357	2.04
418.561	2.3
418.765	2.24
418.969	2.43
419.173	2.54
419.377	2.52
419.581	2.74
419.785	2.71
419.989	2.7
420.193	2.8
420.397	2.95
420.601	3.13
420.804	3.16
421.008	3.14
421.212	3.35
421.416	3.36
421.62	3.35
421.823	3.46
422.027	3.62
422.231	3.58
422.435	3.51
422.638	3.68
422.842	3.75
423.046	3.84
423.249	4.02
423.453	4.04
423.657	4.25
423.86	4.33
424.064	4.42
424.268	4.58
424.471	4.6
424.675	4.78
424.878	4.87
425.082	5.01
425.285	5.29
425.489	5.22
425.692	5.36
425.896	5.34
426.099	5.63
426.303	5.75
426.506	5.87
426.71	6.12
426.913	6.38
427.116	6.45
427.32	6.36
427.523	6.48
427.726	6.85
427.93	6.89
428.133	7.27
428.336	7.44
428.54	7.55
428.743	7.84
428.946	7.93
429.149	8.16
429.353	8.04
429.556	8.19
429.759	8.14
429.962	8.3
430.165	8.46
430.368	8.11
430.571	8.18
430.775	8.31
430.978	8.17
431.181	8.36
431.384	8.44
431.587	8.43
431.79	8.9
431.993	8.76
432.196	9.06
432.399	9.46
432.602	9.49
432.805	9.66
433.008	10.2
433.211	10.11
433.414	10.46
433.616	10.42
433.819	10.37
434.022	10.63
434.225	10.78
434.428	10.82
434.631	11.24
434.833	11.01
435.036	11.19
435.239	11.5
435.442	11.51
435.645	11.62
435.847	11.65
436.05	12.01
436.253	12.23
436.455	12.33
436.658	12.08
436.861	12.5
437.063	12.58
437.266	12.54
437.468	12.87
437.671	13.26
437.874	13.29
438.076	13.18
438.279	13.55
438.481	13.61
438.684	14.41
438.886	13.95
439.089	14.27
439.291	14.4
439.494	14.55
439.696	14.84
439.899	15.35
440.101	15.87
440.303	15.93
440.506	16.7
440.708	16.43
440.91	16.67
441.113	16.99
441.315	17.19
441.517	16.96
441.72	17.4
441.922	16.99
442.124	16.94
442.326	17.32
442.529	17.58
442.731	17.61
442.933	17.88
443.135	17.52
443.337	17.64
443.539	18.14
443.742	17.71
443.944	18.51
444.146	18.27
444.348	18.12
444.55	18
444.752	18.28
444.954	18.28
445.156	18.09
445.358	18.63
445.56	18.87
445.762	18.54
445.964	18.92
446.166	18.87
446.368	18.64
446.57	18.75
446.772	18.17
446.974	18.01
447.175	18.31
447.377	18.04
447.579	18.33
447.781	18.08
447.983	17.81
448.184	17.39
448.386	17.79
448.588	17.29
448.79	17.18
448.991	17.62
449.193	17.46
449.395	16.85
449.597	16.45
449.798	16.45
450	15.86
450.202	15.82
450.403	15.82
450.605	15.72
450.806	15.25
451.008	15.2
451.21	14.85
451.411	14.39
451.613	13.67
451.814	13.97
452.016	13.94
452.217	13.2
452.419	13.28
452.62	12.9
452.821	12.47
453.023	12.55
453.224	12.09
453.426	11.6
453.627	11.06
453.828	11.1
454.03	11.22
454.231	11.07
454.432	10.87
454.634	10.65
454.835	10.27
455.036	10.31
455.238	9.93
455.439	9.75
455.64	9.43
455.841	9.3
456.042	9.39
456.244	9.03
456.445	8.84
456.646	8.49
456.847	8.39
457.048	8.43
457.249	8.28
457.45	8.14
457.651	7.61
457.852	7.5
458.054	7.1
458.255	7.16
458.456	7.22
458.657	7.07
458.858	6.63
459.058	6.56
459.259	6.62
459.46	6.29
459.661	6.34
459.862	6.43
460.063	6.15
460.264	6.17
460.465	5.9
460.666	6.01
460.866	5.6
461.067	5.41
461.268	5.48
461.469	5.43
461.67	5.34
461.87	5.2
462.071	5.2
462.272	5.13
462.473	5.02
462.673	5.21
462.874	5.09
463.075	5.05
463.275	5.01
463.476	5.09
463.676	5.01
463.877	4.85
464.078	4.87
464.278	4.91
464.479	4.82
464.679	4.63
464.88	4.64
465.08	4.62
465.281	4.41
465.481	4.22
465.682	4.06
465.882	4.04
466.083	4.02
466.283	3.98
466.483	3.86
466.684	3.68
466.884	3.5
467.085	3.65
467.285	3.69
467.485	3.6
467.686	3.5
467.886	3.38
468.086	3.32
468.286	3.32
468.487	3.43
468.687	3.2
468.887	3.19
469.087	3.37
469.287	3.24
469.488	3.03
469.688	3.15
469.888	3.16
470.088	3.09
470.288	3.03
470.488	3.04
470.688	2.84
470.888	2.78
471.088	2.66
471.288	2.74
471.488	2.75
471.688	2.72
471.888	2.62
472.088	2.75
472.288	2.67
472.488	2.57
472.688	2.53
472.888	2.59
473.088	2.52
473.288	2.46
473.488	2.48
473.688	2.56
473.887	2.42
474.087	2.41
474.287	2.39
474.487	2.39
474.687	2.41
474.886	2.31
475.086	2.28
475.286	2.29
475.486	2.29
475.685	2.24
475.885	2.19
476.085	2.23
476.284	2.23
476.484	2.25
476.684	2.14
476.883	2.31
477.083	2.15
477.282	2.1
477.482	2.19
477.681	2.13
477.881	2.1
478.08	2.02
478.28	2
478.479	2.09
478.679	2.12
478.878	2
479.078	2.01
479.277	2.04
479.477	1.99
479.676	1.98
479.875	1.98
480.075	1.95
480.274	1.97
480.473	2.08
480.673	2
480.872	2.06
481.071	2
481.271	2.01
481.47	1.98
481.669	1.98
481.868	1.97
482.067	1.95
482.267	1.88
482.466	1.91
482.665	1.9
482.864	1.92
483.063	1.91
483.262	1.99
483.461	2.01
483.661	2.07
483.86	1.94
484.059	2.06
484.258	2.05
484.457	1.96
484.656	2.03
484.855	2.11
485.054	1.89
485.253	1.94
485.452	1.94
485.651	2.05
485.849	2.04
486.048	1.99
486.247	2.02
486.446	2.04
486.645	1.99
486.844	2
487.043	2.04
487.241	2.06
487.44	2.05
487.639	2.1
487.838	2.12
488.037	2.09
488.235	2.22
488.434	2.17
488.633	2.03
488.831	2.19
489.03	2.23
489.229	2.2
489.427	2.15
489.626	2.27
489.825	2.28
490.023	2.31
490.222	2.25
490.42	2.3
490.619	2.34
490.817	2.36
491.016	2.35
491.214	2.37
491.413	2.39
491.611	2.4
491.81	2.39
492.008	2.48
492.207	2.52
492.405	2.52
492.604	2.48
492.802	2.56
493	2.59
493.199	2.63
493.397	2.6
493.595	2.67
493.794	2.65
493.992	2.74
494.19	2.69
494.388	2.8
494.587	2.74
494.785	2.77
494.983	2.72
495.181	2.88
495.379	2.91
495.578	2.94
495.776	2.96
495.974	2.94
496.172	2.96
496.37	3.06
496.568	3.1
496.766	3.09
496.964	3.18
497.162	3.15
497.36	3.2
497.558	3.27
497.756	3.34
497.954	3.32
498.152	3.34
498.35	3.51
498.548	3.39
498.746	3.4
498.944	3.4
499.142	3.43
499.34	3.53
499.538	3.66
499.736	3.53
499.933	3.69
500.131	3.64
500.329	3.8
500.527	3.73
500.725	3.92
500.922	3.89
501.12	3.92
501.318	3.97
501.516	3.92
501.713	4.03
501.911	4
502.109	3.95
502.306	4.09
502.504	4.04
502.701	4.14
502.899	4.17
