Data from Apollo_Calib_20240827__AbsoluteIrradiance__32__23-41-00-202.txt Node

Date: Tue Aug 27 23:41:00 BST 2024
User: biology
Spectrometer: FLMT08252
Trigger mode: 0
Integration Time (sec): 5.000000E-1
Scans to average: 5
Electric dark correction enabled: true
Nonlinearity correction enabled: false
Boxcar width: 0
XAxis mode: Wavelengths
Number of Pixels in Spectrum: 3648
>>>>>Begin Spectral Data<<<<<
179.588	-0
179.809	-0
180.03	-0
180.251	-0
180.473	-0
180.694	0
180.915	0
181.136	-0
181.357	0
181.578	-0
181.799	-0
182.02	-0
182.241	0
182.462	-0
182.683	0
182.904	-0
183.125	-0
183.346	0
183.567	0
183.788	0
184.009	0
184.23	0
184.451	0
184.672	0
184.892	0
185.113	0
185.334	0
185.555	0
185.776	0
185.996	0
186.217	0
186.438	0
186.659	0
186.879	0
187.1	0
187.321	0
187.541	0
187.762	0
187.983	0
188.203	0
188.424	0
188.644	0
188.865	0
189.086	0
189.306	0
189.527	0
189.747	0
189.968	0
190.188	0
190.409	0
190.629	0
190.849	0
191.07	0
191.29	0
191.511	0
191.731	0
191.951	0
192.172	0
192.392	0
192.612	0
192.833	0
193.053	0
193.273	0
193.493	0
193.714	0
193.934	0
194.154	0
194.374	0
194.594	0
194.815	0
195.035	0
195.255	0
195.475	0
195.695	0
195.915	0
196.135	0
196.355	0
196.575	0
196.795	0
197.015	0
197.235	0
197.455	0
197.675	0
197.895	0
198.115	0
198.335	0
198.555	0
198.775	0
198.995	0
199.214	0
199.434	0
199.654	0
199.874	0
200.094	3.4
200.313	2.71
200.533	2.29
200.753	1.67
200.973	3.17
201.192	3.21
201.412	1.51
201.632	1.72
201.851	3.37
202.071	2.05
202.291	1.76
202.51	2.06
202.73	2.44
202.95	1.78
203.169	1.07
203.389	1.6
203.608	2.24
203.828	1.52
204.047	1.35
204.267	2.53
204.486	2.1
204.706	2.19
204.925	1.92
205.145	1.71
205.364	2.43
205.583	2.79
205.803	1.25
206.022	1.42
206.242	1.69
206.461	1.73
206.68	1.22
206.9	2.03
207.119	2.4
207.338	1.85
207.557	1.06
207.777	1.34
207.996	1.29
208.215	1.95
208.434	1.28
208.654	1.01
208.873	1.54
209.092	1.85
209.311	1.17
209.53	1.41
209.749	0.97
209.968	1.22
210.187	1.24
210.407	0.77
210.626	1.33
210.845	1.32
211.064	1.03
211.283	0.89
211.502	1.55
211.721	0.99
211.94	1.23
212.159	1.38
212.377	1.5
212.596	1.3
212.815	1.41
213.034	1.08
213.253	1.31
213.472	1.04
213.691	0.98
213.91	0.55
214.128	0.87
214.347	1.26
214.566	0.7
214.785	0.66
215.003	1.15
215.222	1.18
215.441	1.04
215.66	0.58
215.878	0.92
216.097	0.87
216.316	0.59
216.534	0.76
216.753	1.24
216.972	0.81
217.19	0.88
217.409	0.73
217.627	0.56
217.846	0.83
218.064	0.83
218.283	0.6
218.501	1.19
218.72	1.11
218.938	0.65
219.157	0.74
219.375	0.93
219.594	0.99
219.812	0.57
220.031	0.58
220.249	1.1
220.467	1.19
220.686	0.7
220.904	0.68
221.122	0.77
221.341	1.1
221.559	0.83
221.777	0.72
221.995	0.89
222.214	0.94
222.432	0.62
222.65	0.84
222.868	0.76
223.086	0.93
223.305	0.76
223.523	0.61
223.741	1.19
223.959	0.56
224.177	0.51
224.395	0.65
224.613	0.88
224.831	1
225.049	0.53
225.267	0.63
225.485	0.75
225.703	0.71
225.921	0.74
226.139	0.73
226.357	0.79
226.575	0.78
226.793	0.59
227.011	1.27
227.229	0.69
227.447	0.78
227.665	0.54
227.883	0.34
228.1	0.73
228.318	0.79
228.536	0.37
228.754	0.46
228.972	0.71
229.189	0.77
229.407	0.77
229.625	0.55
229.843	0.71
230.06	0.77
230.278	0.47
230.496	0.67
230.713	0.71
230.931	0.68
231.149	0.56
231.366	0.4
231.584	0.52
231.801	0.95
232.019	0.54
232.236	0.38
232.454	0.46
232.671	0.61
232.889	0.49
233.106	0.47
233.324	0.56
233.541	0.55
233.759	0.53
233.976	0.51
234.194	0.6
234.411	0.46
234.628	0.32
234.846	0.53
235.063	0.56
235.28	0.48
235.498	0.57
235.715	0.42
235.932	0.69
236.149	0.52
236.367	0.41
236.584	0.57
236.801	0.53
237.018	0.69
237.236	0.55
237.453	0.35
237.67	0.65
237.887	0.42
238.104	0.46
238.321	0.47
238.538	0.44
238.755	0.63
238.973	0.37
239.19	0.54
239.407	0.56
239.624	0.56
239.841	0.34
240.058	0.35
240.275	0.58
240.492	0.49
240.709	0.57
240.925	0.35
241.142	0.43
241.359	0.35
241.576	0.33
241.793	0.44
242.01	0.49
242.227	0.5
242.444	0.51
242.66	0.6
242.877	0.46
243.094	0.45
243.311	0.48
243.527	0.44
243.744	0.53
243.961	0.5
244.178	0.39
244.394	0.35
244.611	0.59
244.828	0.66
245.044	0.34
245.261	0.5
245.477	0.49
245.694	0.56
245.911	0.36
246.127	0.53
246.344	0.65
246.56	0.53
246.777	0.35
246.993	0.51
247.21	0.5
247.426	0.56
247.643	0.29
247.859	0.31
248.076	0.29
248.292	0.65
248.508	0.41
248.725	0.47
248.941	0.4
249.157	0.56
249.374	0.44
249.59	0.36
249.806	0.44
250.023	0.52
250.239	0.35
250.455	0.43
250.671	0.36
250.888	0.43
251.104	0.47
251.32	0.37
251.536	0.37
251.752	0.44
251.969	0.53
252.185	0.4
252.401	0.63
252.617	0.42
252.833	0.31
253.049	0.44
253.265	0.4
253.481	0.5
253.697	0.41
253.913	0.35
254.129	0.42
254.345	0.41
254.561	0.38
254.777	0.38
254.993	0.51
255.209	0.39
255.425	0.31
255.641	0.38
255.857	0.49
256.073	0.41
256.288	0.32
256.504	0.34
256.72	0.4
256.936	0.57
257.152	0.37
257.367	0.31
257.583	0.39
257.799	0.37
258.015	0.35
258.23	0.34
258.446	0.52
258.662	0.37
258.877	0.32
259.093	0.35
259.309	0.38
259.524	0.4
259.74	0.37
259.955	0.24
260.171	0.35
260.387	0.29
260.602	0.46
260.818	0.47
261.033	0.24
261.249	0.3
261.464	0.34
261.68	0.29
261.895	0.49
262.11	0.46
262.326	0.29
262.541	0.25
262.757	0.45
262.972	0.41
263.187	0.43
263.403	0.39
263.618	0.51
263.833	0.38
264.049	0.35
264.264	0.32
264.479	0.39
264.694	0.46
264.91	0.25
265.125	0.28
265.34	0.36
265.555	0.55
265.77	0.43
265.986	0.25
266.201	0.38
266.416	0.51
266.631	0.33
266.846	0.37
267.061	0.41
267.276	0.36
267.491	0.25
267.706	0.34
267.921	0.38
268.136	0.42
268.351	0.34
268.566	0.3
268.781	0.42
268.996	0.44
269.211	0.41
269.426	0.26
269.641	0.28
269.856	0.32
270.071	0.22
270.285	0.3
270.5	0.41
270.715	0.38
270.93	0.38
271.145	0.33
271.359	0.37
271.574	0.26
271.789	0.3
272.004	0.36
272.218	0.31
272.433	0.39
272.648	0.27
272.862	0.42
273.077	0.35
273.292	0.36
273.506	0.32
273.721	0.24
273.936	0.37
274.15	0.41
274.365	0.27
274.579	0.31
274.794	0.38
275.008	0.43
275.223	0.28
275.437	0.31
275.652	0.53
275.866	0.35
276.081	0.34
276.295	0.37
276.509	0.3
276.724	0.3
276.938	0.29
277.153	0.34
277.367	0.34
277.581	0.31
277.796	0.25
278.01	0.26
278.224	0.37
278.438	0.43
278.653	0.27
278.867	0.28
279.081	0.16
279.295	0.29
279.51	0.35
279.724	0.22
279.938	0.34
280.152	0.33
280.366	0.29
280.58	0.33
280.794	0.35
281.008	0.32
281.222	0.39
281.437	0.5
281.651	0.29
281.865	0.43
282.079	0.28
282.293	0.19
282.507	0.28
282.721	0.32
282.935	0.28
283.148	0.21
283.362	0.29
283.576	0.27
283.79	0.26
284.004	0.27
284.218	0.37
284.432	0.28
284.646	0.29
284.859	0.25
285.073	0.24
285.287	0.29
285.501	0.33
285.714	0.31
285.928	0.33
286.142	0.23
286.356	0.24
286.569	0.25
286.783	0.36
286.997	0.29
287.21	0.29
287.424	0.3
287.637	0.29
287.851	0.24
288.065	0.33
288.278	0.32
288.492	0.31
288.705	0.33
288.919	0.29
289.132	0.2
289.346	0.31
289.559	0.18
289.773	0.25
289.986	0.26
290.2	0.29
290.413	0.34
290.626	0.23
290.84	0.22
291.053	0.24
291.267	0.35
291.48	0.28
291.693	0.27
291.906	0.25
292.12	0.27
292.333	0.23
292.546	0.25
292.76	0.36
292.973	0.29
293.186	0.31
293.399	0.23
293.612	0.32
293.826	0.3
294.039	0.3
294.252	0.24
294.465	0.27
294.678	0.31
294.891	0.23
295.104	0.24
295.317	0.25
295.53	0.3
295.743	0.26
295.956	0.24
296.169	0.35
296.382	0.31
296.595	0.26
296.808	0.2
297.021	0.34
297.234	0.32
297.447	0.24
297.66	0.32
297.873	0.32
298.086	0.31
298.299	0.26
298.511	0.23
298.724	0.25
298.937	0.22
299.15	0.21
299.363	0.23
299.575	0.29
299.788	0.27
300.001	0.25
300.213	0.21
300.426	0.25
300.639	0.23
300.852	0.23
301.064	0.28
301.277	0.34
301.489	0.29
301.702	0.27
301.915	0.28
302.127	0.27
302.34	0.26
302.552	0.24
302.765	0.24
302.977	0.35
303.19	0.24
303.402	0.25
303.615	0.22
303.827	0.24
304.04	0.26
304.252	0.31
304.464	0.27
304.677	0.35
304.889	0.26
305.102	0.24
305.314	0.2
305.526	0.33
305.739	0.29
305.951	0.25
306.163	0.2
306.375	0.31
306.588	0.22
306.8	0.23
307.012	0.25
307.224	0.28
307.436	0.35
307.649	0.19
307.861	0.32
308.073	0.3
308.285	0.26
308.497	0.2
308.709	0.22
308.921	0.27
309.133	0.32
309.346	0.26
309.558	0.25
309.77	0.3
309.982	0.34
310.194	0.28
310.406	0.25
310.617	0.27
310.829	0.26
311.041	0.3
311.253	0.16
311.465	0.25
311.677	0.25
311.889	0.24
312.101	0.23
312.313	0.32
312.524	0.3
312.736	0.2
312.948	0.21
313.16	0.37
313.372	0.28
313.583	0.27
313.795	0.25
314.007	0.22
314.218	0.3
314.43	0.25
314.642	0.23
314.853	0.19
315.065	0.27
315.277	0.27
315.488	0.24
315.7	0.32
315.912	0.28
316.123	0.24
316.335	0.25
316.546	0.37
316.758	0.25
316.969	0.2
317.181	0.24
317.392	0.27
317.604	0.28
317.815	0.23
318.026	0.22
318.238	0.24
318.449	0.29
318.661	0.2
318.872	0.2
319.083	0.21
319.295	0.27
319.506	0.23
319.717	0.3
319.929	0.27
320.14	0.25
320.351	0.27
320.562	0.22
320.774	0.27
320.985	0.3
321.196	0.23
321.407	0.18
321.618	0.28
321.829	0.26
322.041	0.28
322.252	0.24
322.463	0.24
322.674	0.29
322.885	0.24
323.096	0.26
323.307	0.24
323.518	0.26
323.729	0.21
323.94	0.27
324.151	0.18
324.362	0.28
324.573	0.27
324.784	0.23
324.995	0.31
325.206	0.26
325.417	0.24
325.628	0.27
325.838	0.23
326.049	0.26
326.26	0.28
326.471	0.24
326.682	0.3
326.892	0.26
327.103	0.23
327.314	0.22
327.525	0.3
327.735	0.23
327.946	0.24
328.157	0.23
328.368	0.33
328.578	0.26
328.789	0.33
328.999	0.28
329.21	0.24
329.421	0.27
329.631	0.21
329.842	0.19
330.052	0.22
330.263	0.27
330.473	0.26
330.684	0.21
330.894	0.25
331.105	0.29
331.315	0.25
331.526	0.19
331.736	0.32
331.947	0.27
332.157	0.3
332.367	0.24
332.578	0.29
332.788	0.31
332.999	0.27
333.209	0.25
333.419	0.23
333.629	0.26
333.84	0.29
334.05	0.28
334.26	0.31
334.47	0.31
334.681	0.28
334.891	0.23
335.101	0.3
335.311	0.31
335.521	0.26
335.732	0.25
335.942	0.28
336.152	0.3
336.362	0.29
336.572	0.29
336.782	0.3
336.992	0.25
337.202	0.27
337.412	0.2
337.622	0.25
337.832	0.24
338.042	0.23
338.252	0.23
338.462	0.21
338.672	0.26
338.882	0.27
339.092	0.21
339.302	0.31
339.511	0.28
339.721	0.26
339.931	0.23
340.141	0.3
340.351	0.31
340.561	0.27
340.77	0.25
340.98	0.24
341.19	0.32
341.4	0.24
341.609	0.15
341.819	0.25
342.029	0.25
342.238	0.27
342.448	0.24
342.658	0.25
342.867	0.23
343.077	0.25
343.286	0.23
343.496	0.24
343.706	0.37
343.915	0.21
344.125	0.25
344.334	0.23
344.544	0.2
344.753	0.24
344.963	0.25
345.172	0.21
345.381	0.24
345.591	0.21
345.8	0.22
346.01	0.27
346.219	0.31
346.428	0.13
346.638	0.24
346.847	0.26
347.056	0.31
347.266	0.2
347.475	0.31
347.684	0.27
347.893	0.22
348.103	0.28
348.312	0.24
348.521	0.24
348.73	0.2
348.94	0.24
349.149	0.22
349.358	0.21
349.567	0.22
349.776	0.18
349.985	0.24
350.194	0.29
350.403	0.27
350.612	0.17
350.821	0.2
351.03	0.27
351.239	0.2
351.448	0.23
351.657	0.22
351.866	0.35
352.075	0.24
352.284	0.29
352.493	0.21
352.702	0.29
352.911	0.28
353.12	0.24
353.329	0.26
353.538	0.26
353.746	0.23
353.955	0.21
354.164	0.26
354.373	0.25
354.582	0.27
354.79	0.23
354.999	0.29
355.208	0.2
355.416	0.29
355.625	0.19
355.834	0.24
356.042	0.26
356.251	0.21
356.46	0.26
356.668	0.27
356.877	0.3
357.085	0.28
357.294	0.27
357.503	0.24
357.711	0.23
357.92	0.44
358.128	0.28
358.337	0.24
358.545	0.24
358.754	0.2
358.962	0.29
359.17	0.24
359.379	0.28
359.587	0.25
359.796	0.28
360.004	0.28
360.212	0.26
360.421	0.29
360.629	0.22
360.837	0.18
361.046	0.29
361.254	0.37
361.462	0.24
361.67	0.22
361.879	0.25
362.087	0.32
362.295	0.28
362.503	0.21
362.711	0.19
362.92	0.28
363.128	0.17
363.336	0.23
363.544	0.18
363.752	0.22
363.96	0.22
364.168	0.25
364.376	0.24
364.584	0.25
364.792	0.29
365	0.27
365.208	0.28
365.416	0.24
365.624	0.31
365.832	0.22
366.04	0.3
366.248	0.22
366.456	0.25
366.664	0.24
366.872	0.25
367.079	0.23
367.287	0.24
367.495	0.23
367.703	0.22
367.911	0.21
368.118	0.24
368.326	0.22
368.534	0.22
368.742	0.3
368.949	0.2
369.157	0.25
369.365	0.27
369.572	0.22
369.78	0.21
369.988	0.25
370.195	0.29
370.403	0.26
370.61	0.21
370.818	0.3
371.026	0.32
371.233	0.23
371.441	0.28
371.648	0.23
371.856	0.24
372.063	0.25
372.271	0.27
372.478	0.21
372.685	0.22
372.893	0.32
373.1	0.29
373.308	0.25
373.515	0.28
373.722	0.26
373.93	0.27
374.137	0.26
374.344	0.31
374.552	0.28
374.759	0.28
374.966	0.23
375.173	0.2
375.381	0.33
375.588	0.23
375.795	0.22
376.002	0.23
376.209	0.23
376.417	0.26
376.624	0.31
376.831	0.27
377.038	0.2
377.245	0.19
377.452	0.24
377.659	0.26
377.866	0.24
378.073	0.24
378.28	0.21
378.487	0.3
378.694	0.31
378.901	0.27
379.108	0.29
379.315	0.3
379.522	0.34
379.729	0.29
379.936	0.22
380.143	0.25
380.35	0.31
380.557	0.27
380.763	0.28
380.97	0.28
381.177	0.23
381.384	0.25
381.591	0.27
381.797	0.26
382.004	0.3
382.211	0.29
382.418	0.26
382.624	0.33
382.831	0.32
383.038	0.27
383.244	0.26
383.451	0.27
383.658	0.33
383.864	0.28
384.071	0.23
384.277	0.34
384.484	0.26
384.69	0.3
384.897	0.29
385.103	0.25
385.31	0.24
385.516	0.24
385.723	0.24
385.929	0.23
386.136	0.28
386.342	0.25
386.549	0.25
386.755	0.33
386.961	0.31
387.168	0.28
387.374	0.25
387.58	0.3
387.787	0.25
387.993	0.26
388.199	0.28
388.406	0.28
388.612	0.33
388.818	0.24
389.024	0.24
389.231	0.31
389.437	0.36
389.643	0.31
389.849	0.31
390.055	0.33
390.261	0.29
390.467	0.34
390.674	0.26
390.88	0.3
391.086	0.3
391.292	0.27
391.498	0.32
391.704	0.33
391.91	0.32
392.116	0.28
392.322	0.16
392.528	0.31
392.734	0.29
392.94	0.29
393.146	0.31
393.352	0.31
393.557	0.27
393.763	0.25
393.969	0.33
394.175	0.31
394.381	0.32
394.587	0.24
394.792	0.32
394.998	0.34
395.204	0.35
395.41	0.28
395.615	0.36
395.821	0.33
396.027	0.34
396.233	0.29
396.438	0.36
396.644	0.44
396.85	0.38
397.055	0.32
397.261	0.31
397.466	0.3
397.672	0.34
397.878	0.37
398.083	0.39
398.289	0.33
398.494	0.35
398.7	0.4
398.905	0.28
399.111	0.42
399.316	0.29
399.522	0.42
399.727	0.31
399.932	0.32
400.138	0.31
400.343	0.37
400.549	0.29
400.754	0.38
400.959	0.42
401.165	0.35
401.37	0.38
401.575	0.3
401.78	0.36
401.986	0.38
402.191	0.38
402.396	0.38
402.601	0.42
402.807	0.42
403.012	0.37
403.217	0.42
403.422	0.42
403.627	0.39
403.832	0.4
404.037	0.47
404.243	0.41
404.448	0.39
404.653	0.4
404.858	0.38
405.063	0.45
405.268	0.45
405.473	0.4
405.678	0.41
405.883	0.59
406.088	0.46
406.293	0.41
406.498	0.46
406.703	0.48
406.907	0.51
407.112	0.41
407.317	0.51
407.522	0.56
407.727	0.5
407.932	0.52
408.136	0.62
408.341	0.52
408.546	0.6
408.751	0.59
408.956	0.58
409.16	0.66
409.365	0.63
409.57	0.6
409.774	0.59
409.979	0.66
410.184	0.68
410.388	0.63
410.593	0.72
410.798	0.76
411.002	0.73
411.207	0.85
411.411	0.8
411.616	0.72
411.82	0.86
412.025	0.85
412.229	0.82
412.434	0.9
412.638	0.91
412.843	0.97
413.047	0.97
413.252	0.93
413.456	0.98
413.66	1.03
413.865	1.06
414.069	1.12
414.273	1.11
414.478	1.07
414.682	1.15
414.886	1.21
415.091	1.23
415.295	1.19
415.499	1.33
415.703	1.29
415.908	1.39
416.112	1.35
416.316	1.57
416.52	1.54
416.724	1.53
416.929	1.66
417.133	1.81
417.337	1.72
417.541	1.75
417.745	1.86
417.949	2.01
418.153	1.94
418.357	2.04
418.561	2.19
418.765	2.24
418.969	2.32
419.173	2.44
419.377	2.4
419.581	2.65
419.785	2.52
419.989	2.65
420.193	2.74
420.397	2.91
420.601	2.96
420.804	3.08
421.008	3.08
421.212	3.23
421.416	3.2
421.62	3.31
421.823	3.39
422.027	3.51
422.231	3.52
422.435	3.47
422.638	3.53
422.842	3.66
423.046	3.76
423.249	3.93
423.453	3.93
423.657	4.15
423.86	4.13
424.064	4.29
424.268	4.48
424.471	4.47
424.675	4.67
424.878	4.78
425.082	4.82
425.285	5.16
425.489	5.12
425.692	5.23
425.896	5.19
426.099	5.48
426.303	5.6
426.506	5.79
426.71	5.96
426.913	6.14
427.116	6.3
427.32	6.26
427.523	6.44
427.726	6.73
427.93	6.75
428.133	7.11
428.336	7.22
428.54	7.31
428.743	7.57
428.946	7.92
429.149	7.81
429.353	7.99
429.556	8.01
429.759	8.05
429.962	8.15
430.165	8.25
430.368	7.94
430.571	8.04
430.775	8.14
430.978	8.06
431.181	8.02
431.384	8.16
431.587	8.34
431.79	8.76
431.993	8.63
432.196	8.97
432.399	9.26
432.602	9.4
432.805	9.52
433.008	9.96
433.211	9.85
433.414	10.39
433.616	10.41
433.819	10.19
434.022	10.47
434.225	10.58
434.428	10.61
434.631	11.2
434.833	10.84
435.036	11.11
435.239	11.38
435.442	11.41
435.645	11.5
435.847	11.54
436.05	11.91
436.253	12.12
436.455	12.22
436.658	12.1
436.861	12.34
437.063	12.6
437.266	12.48
437.468	12.81
437.671	13.07
437.874	13.14
438.076	12.97
438.279	13.54
438.481	13.52
438.684	14.27
438.886	13.79
439.089	14.23
439.291	14.25
439.494	14.48
439.696	14.62
439.899	15.12
440.101	15.67
440.303	15.75
440.506	16.59
440.708	16.34
440.91	16.5
441.113	16.73
441.315	16.89
441.517	16.69
441.72	17.25
441.922	16.85
442.124	16.79
442.326	17.15
442.529	17.41
442.731	17.36
442.933	17.63
443.135	17.51
443.337	17.47
443.539	18
443.742	17.63
443.944	18.37
444.146	18.05
444.348	18.16
444.55	17.89
444.752	18.1
444.954	18.07
445.156	18.03
445.358	18.56
445.56	18.72
445.762	18.52
445.964	18.86
446.166	18.76
446.368	18.61
446.57	18.66
446.772	18.18
446.974	17.84
447.175	18.38
447.377	18.02
447.579	18.43
447.781	18.11
447.983	17.88
448.184	17.44
448.386	17.63
448.588	17.38
448.79	17.25
448.991	17.54
449.193	17.5
449.395	16.88
449.597	16.42
449.798	16.5
450	15.9
450.202	15.83
450.403	15.89
450.605	15.86
450.806	15.52
451.008	15.33
451.21	15.02
451.411	14.59
451.613	13.94
451.814	14.1
452.016	14.03
452.217	13.38
452.419	13.34
452.62	13.2
452.821	12.79
453.023	12.62
453.224	12.29
453.426	11.98
453.627	11.15
453.828	11.17
454.03	11.39
454.231	11.29
454.432	11.07
454.634	10.73
454.835	10.55
455.036	10.45
455.238	10.06
455.439	9.89
455.64	9.68
455.841	9.42
456.042	9.52
456.244	9.2
456.445	8.91
456.646	8.59
456.847	8.6
457.048	8.45
457.249	8.52
457.45	8.23
457.651	7.79
457.852	7.62
458.054	7.35
458.255	7.26
458.456	7.25
458.657	7.14
458.858	6.79
459.058	6.69
459.259	6.78
459.46	6.45
459.661	6.4
459.862	6.35
460.063	6.34
460.264	6.27
460.465	6.08
460.666	6.12
460.866	5.79
461.067	5.59
461.268	5.6
461.469	5.5
461.67	5.35
461.87	5.26
462.071	5.24
462.272	5.06
462.473	5.08
462.673	5.27
462.874	5.15
463.075	5.11
463.275	5.16
463.476	5.23
463.676	5.06
463.877	4.93
464.078	4.92
464.278	4.98
464.479	4.91
464.679	4.77
464.88	4.66
465.08	4.72
465.281	4.52
465.481	4.33
465.682	4.15
465.882	4.17
466.083	4.09
466.283	4
466.483	3.92
466.684	3.8
466.884	3.63
467.085	3.68
467.285	3.76
467.485	3.63
467.686	3.56
467.886	3.47
468.086	3.46
468.286	3.38
468.487	3.41
468.687	3.22
468.887	3.19
469.087	3.33
469.287	3.31
469.488	3.09
469.688	3.22
469.888	3.22
470.088	3.1
470.288	3.05
470.488	3
470.688	2.87
470.888	2.81
471.088	2.72
471.288	2.85
471.488	2.75
471.688	2.74
471.888	2.69
472.088	2.76
472.288	2.68
472.488	2.56
472.688	2.55
472.888	2.57
473.088	2.57
473.288	2.5
473.488	2.51
473.688	2.62
473.887	2.53
474.087	2.44
474.287	2.45
474.487	2.37
474.687	2.37
474.886	2.38
475.086	2.3
475.286	2.34
475.486	2.27
475.685	2.23
475.885	2.21
476.085	2.33
476.284	2.22
476.484	2.26
476.684	2.19
476.883	2.28
477.083	2.13
477.282	2.12
477.482	2.18
477.681	2.11
477.881	2.07
478.08	2.06
478.28	2.02
478.479	2.12
478.679	2.14
478.878	2.05
479.078	2.05
479.277	2.09
479.477	2.08
479.676	2.07
479.875	2.06
480.075	1.91
480.274	2
480.473	2.06
480.673	2.05
480.872	2.05
481.071	2.07
481.271	2.02
481.47	2.02
481.669	2.02
481.868	2.01
482.067	1.99
482.267	1.94
482.466	1.95
482.665	1.92
482.864	1.96
483.063	1.98
483.262	2
483.461	2.05
483.661	2.08
483.86	1.98
484.059	2.04
484.258	2.02
484.457	2.08
484.656	2.04
484.855	2.11
485.054	1.95
485.253	1.96
485.452	1.92
485.651	2.06
485.849	2.01
486.048	1.99
486.247	2.01
486.446	2.09
486.645	2.03
486.844	2.08
487.043	2.02
487.241	2.1
487.44	2.05
487.639	2.13
487.838	2.13
488.037	2.08
488.235	2.19
488.434	2.15
488.633	2.05
488.831	2.2
489.03	2.21
489.229	2.19
489.427	2.21
489.626	2.29
489.825	2.27
490.023	2.32
490.222	2.27
490.42	2.34
490.619	2.34
490.817	2.36
491.016	2.36
491.214	2.4
491.413	2.4
491.611	2.32
491.81	2.38
492.008	2.39
492.207	2.54
492.405	2.51
492.604	2.43
492.802	2.55
493	2.6
493.199	2.59
493.397	2.65
493.595	2.7
493.794	2.66
493.992	2.8
494.19	2.71
494.388	2.79
494.587	2.71
494.785	2.77
494.983	2.74
495.181	2.85
495.379	2.89
495.578	2.93
495.776	2.91
495.974	2.88
496.172	2.95
496.37	3.06
496.568	3.08
496.766	3.07
496.964	3.11
497.162	3.13
497.36	3.23
497.558	3.2
497.756	3.28
497.954	3.24
498.152	3.32
498.35	3.42
498.548	3.39
498.746	3.37
498.944	3.41
499.142	3.41
499.34	3.48
499.538	3.6
499.736	3.51
499.933	3.63
500.131	3.59
500.329	3.77
500.527	3.71
500.725	3.89
500.922	3.86
501.12	3.85
501.318	3.95
501.516	3.92
501.713	4.01
501.911	3.98
502.109	3.98
502.306	4.08
502.504	3.98
