Data from Apollo_Calib_20240827__AbsoluteIrradiance__12__23-21-00-247.txt Node

Date: Tue Aug 27 23:21:00 BST 2024
User: biology
Spectrometer: FLMT08252
Trigger mode: 0
Integration Time (sec): 5.000000E-1
Scans to average: 5
Electric dark correction enabled: true
Nonlinearity correction enabled: false
Boxcar width: 0
XAxis mode: Wavelengths
Number of Pixels in Spectrum: 3648
>>>>>Begin Spectral Data<<<<<
179.588	-0
179.809	-0
180.03	-0
180.251	-0
180.473	-0
180.694	0
180.915	0
181.136	-0
181.357	-0
181.578	-0
181.799	0
182.02	-0
182.241	-0
182.462	-0
182.683	0
182.904	-0
183.125	-0
183.346	0
183.567	0
183.788	0
184.009	0
184.23	0
184.451	0
184.672	0
184.892	0
185.113	0
185.334	0
185.555	0
185.776	0
185.996	0
186.217	0
186.438	0
186.659	0
186.879	0
187.1	0
187.321	0
187.541	0
187.762	0
187.983	0
188.203	0
188.424	0
188.644	0
188.865	0
189.086	0
189.306	0
189.527	0
189.747	0
189.968	0
190.188	0
190.409	0
190.629	0
190.849	0
191.07	0
191.29	0
191.511	0
191.731	0
191.951	0
192.172	0
192.392	0
192.612	0
192.833	0
193.053	0
193.273	0
193.493	0
193.714	0
193.934	0
194.154	0
194.374	0
194.594	0
194.815	0
195.035	0
195.255	0
195.475	0
195.695	0
195.915	0
196.135	0
196.355	0
196.575	0
196.795	0
197.015	0
197.235	0
197.455	0
197.675	0
197.895	0
198.115	0
198.335	0
198.555	0
198.775	0
198.995	0
199.214	0
199.434	0
199.654	0
199.874	0
200.094	3.66
200.313	2.46
200.533	2.76
200.753	1.75
200.973	3.68
201.192	3.15
201.412	1.54
201.632	2.11
201.851	3.04
202.071	2.43
202.291	2.41
202.51	1.87
202.73	2.4
202.95	1.74
203.169	1.77
203.389	2.3
203.608	2.16
203.828	2
204.047	2.28
204.267	2.36
204.486	2.17
204.706	2.36
204.925	1.93
205.145	1.83
205.364	2.12
205.583	2.43
205.803	1.72
206.022	1.57
206.242	1.89
206.461	1.73
206.68	1.26
206.9	1.59
207.119	2.19
207.338	1.45
207.557	1.31
207.777	1.64
207.996	1.24
208.215	2.18
208.434	1.49
208.654	1.55
208.873	1.5
209.092	1.75
209.311	1.4
209.53	1.37
209.749	1.35
209.968	1.05
210.187	1.41
210.407	0.98
210.626	0.96
210.845	1.35
211.064	1.24
211.283	1.1
211.502	1.79
211.721	1.36
211.94	1.05
212.159	1.41
212.377	1.49
212.596	1.54
212.815	1.28
213.034	1.25
213.253	1.25
213.472	1.49
213.691	1.26
213.91	0.8
214.128	1
214.347	1.42
214.566	1.05
214.785	0.82
215.003	1.22
215.222	1.09
215.441	1.04
215.66	0.85
215.878	0.91
216.097	1.09
216.316	0.86
216.534	1.01
216.753	1.06
216.972	0.88
217.19	0.96
217.409	0.85
217.627	0.63
217.846	0.86
218.064	0.96
218.283	0.84
218.501	1.46
218.72	1.21
218.938	0.81
219.157	0.76
219.375	1.2
219.594	0.92
219.812	0.6
220.031	0.72
220.249	1.19
220.467	1.05
220.686	0.82
220.904	0.66
221.122	0.81
221.341	1.1
221.559	1.09
221.777	0.7
221.995	0.72
222.214	0.92
222.432	0.81
222.65	1.05
222.868	0.89
223.086	0.81
223.305	0.92
223.523	0.67
223.741	1.09
223.959	0.56
224.177	0.6
224.395	0.56
224.613	0.81
224.831	0.88
225.049	0.68
225.267	0.64
225.485	0.68
225.703	0.65
225.921	0.82
226.139	0.76
226.357	0.97
226.575	0.72
226.793	0.65
227.011	1.26
227.229	0.7
227.447	0.87
227.665	0.5
227.883	0.5
228.1	0.73
228.318	0.68
228.536	0.52
228.754	0.57
228.972	0.64
229.189	0.73
229.407	0.5
229.625	0.57
229.843	0.76
230.06	0.83
230.278	0.67
230.496	0.73
230.713	0.8
230.931	0.79
231.149	0.61
231.366	0.57
231.584	0.68
231.801	1.05
232.019	0.58
232.236	0.5
232.454	0.53
232.671	0.77
232.889	0.59
233.106	0.51
233.324	0.55
233.541	0.54
233.759	0.65
233.976	0.52
234.194	0.61
234.411	0.62
234.628	0.53
234.846	0.49
235.063	0.59
235.28	0.53
235.498	0.6
235.715	0.43
235.932	0.73
236.149	0.6
236.367	0.49
236.584	0.52
236.801	0.51
237.018	0.58
237.236	0.63
237.453	0.44
237.67	0.59
237.887	0.5
238.104	0.49
238.321	0.46
238.538	0.49
238.755	0.58
238.973	0.32
239.19	0.5
239.407	0.58
239.624	0.57
239.841	0.4
240.058	0.46
240.275	0.6
240.492	0.54
240.709	0.44
240.925	0.43
241.142	0.54
241.359	0.43
241.576	0.46
241.793	0.48
242.01	0.51
242.227	0.53
242.444	0.58
242.66	0.51
242.877	0.5
243.094	0.52
243.311	0.57
243.527	0.48
243.744	0.65
243.961	0.54
244.178	0.44
244.394	0.45
244.611	0.45
244.828	0.58
245.044	0.34
245.261	0.55
245.477	0.43
245.694	0.47
245.911	0.47
246.127	0.57
246.344	0.6
246.56	0.49
246.777	0.33
246.993	0.5
247.21	0.45
247.426	0.46
247.643	0.45
247.859	0.41
248.076	0.33
248.292	0.57
248.508	0.4
248.725	0.45
248.941	0.44
249.157	0.57
249.374	0.47
249.59	0.46
249.806	0.43
250.023	0.46
250.239	0.4
250.455	0.41
250.671	0.44
250.888	0.46
251.104	0.51
251.32	0.41
251.536	0.48
251.752	0.45
251.969	0.5
252.185	0.53
252.401	0.58
252.617	0.48
252.833	0.43
253.049	0.4
253.265	0.42
253.481	0.43
253.697	0.39
253.913	0.34
254.129	0.48
254.345	0.43
254.561	0.43
254.777	0.44
254.993	0.53
255.209	0.41
255.425	0.4
255.641	0.38
255.857	0.45
256.073	0.54
256.288	0.35
256.504	0.4
256.72	0.45
256.936	0.52
257.152	0.46
257.367	0.33
257.583	0.47
257.799	0.47
258.015	0.29
258.23	0.36
258.446	0.58
258.662	0.43
258.877	0.39
259.093	0.39
259.309	0.43
259.524	0.39
259.74	0.34
259.955	0.32
260.171	0.47
260.387	0.37
260.602	0.52
260.818	0.49
261.033	0.36
261.249	0.41
261.464	0.39
261.68	0.28
261.895	0.39
262.11	0.49
262.326	0.36
262.541	0.29
262.757	0.37
262.972	0.42
263.187	0.46
263.403	0.4
263.618	0.4
263.833	0.36
264.049	0.32
264.264	0.43
264.479	0.44
264.694	0.49
264.91	0.32
265.125	0.32
265.34	0.42
265.555	0.52
265.77	0.43
265.986	0.31
266.201	0.4
266.416	0.44
266.631	0.39
266.846	0.38
267.061	0.41
267.276	0.37
267.491	0.27
267.706	0.35
267.921	0.39
268.136	0.37
268.351	0.37
268.566	0.29
268.781	0.48
268.996	0.32
269.211	0.36
269.426	0.33
269.641	0.33
269.856	0.34
270.071	0.31
270.285	0.34
270.5	0.43
270.715	0.36
270.93	0.41
271.145	0.38
271.359	0.44
271.574	0.29
271.789	0.3
272.004	0.37
272.218	0.34
272.433	0.39
272.648	0.28
272.862	0.4
273.077	0.28
273.292	0.35
273.506	0.33
273.721	0.33
273.936	0.36
274.15	0.4
274.365	0.32
274.579	0.44
274.794	0.38
275.008	0.45
275.223	0.27
275.437	0.35
275.652	0.5
275.866	0.37
276.081	0.31
276.295	0.44
276.509	0.32
276.724	0.35
276.938	0.36
277.153	0.35
277.367	0.35
277.581	0.27
277.796	0.3
278.01	0.31
278.224	0.39
278.438	0.46
278.653	0.26
278.867	0.28
279.081	0.12
279.295	0.28
279.51	0.35
279.724	0.27
279.938	0.41
280.152	0.36
280.366	0.29
280.58	0.35
280.794	0.43
281.008	0.41
281.222	0.35
281.437	0.45
281.651	0.37
281.865	0.38
282.079	0.29
282.293	0.24
282.507	0.26
282.721	0.32
282.935	0.29
283.148	0.25
283.362	0.31
283.576	0.24
283.79	0.35
284.004	0.26
284.218	0.33
284.432	0.24
284.646	0.32
284.859	0.27
285.073	0.34
285.287	0.32
285.501	0.3
285.714	0.28
285.928	0.3
286.142	0.24
286.356	0.28
286.569	0.25
286.783	0.39
286.997	0.33
287.21	0.33
287.424	0.33
287.637	0.3
287.851	0.35
288.065	0.33
288.278	0.28
288.492	0.37
288.705	0.27
288.919	0.35
289.132	0.25
289.346	0.34
289.559	0.24
289.773	0.22
289.986	0.28
290.2	0.31
290.413	0.35
290.626	0.23
290.84	0.27
291.053	0.24
291.267	0.35
291.48	0.3
291.693	0.32
291.906	0.3
292.12	0.27
292.333	0.27
292.546	0.27
292.76	0.38
292.973	0.29
293.186	0.31
293.399	0.27
293.612	0.32
293.826	0.23
294.039	0.3
294.252	0.34
294.465	0.3
294.678	0.3
294.891	0.26
295.104	0.23
295.317	0.28
295.53	0.3
295.743	0.3
295.956	0.25
296.169	0.37
296.382	0.3
296.595	0.26
296.808	0.26
297.021	0.3
297.234	0.31
297.447	0.24
297.66	0.31
297.873	0.33
298.086	0.32
298.299	0.23
298.511	0.24
298.724	0.28
298.937	0.21
299.15	0.24
299.363	0.28
299.575	0.31
299.788	0.26
300.001	0.26
300.213	0.21
300.426	0.31
300.639	0.26
300.852	0.23
301.064	0.32
301.277	0.33
301.489	0.31
301.702	0.29
301.915	0.31
302.127	0.25
302.34	0.3
302.552	0.3
302.765	0.26
302.977	0.32
303.19	0.24
303.402	0.27
303.615	0.28
303.827	0.24
304.04	0.28
304.252	0.26
304.464	0.31
304.677	0.37
304.889	0.34
305.102	0.21
305.314	0.29
305.526	0.29
305.739	0.29
305.951	0.25
306.163	0.28
306.375	0.38
306.588	0.19
306.8	0.26
307.012	0.19
307.224	0.31
307.436	0.32
307.649	0.21
307.861	0.25
308.073	0.28
308.285	0.27
308.497	0.27
308.709	0.24
308.921	0.25
309.133	0.32
309.346	0.3
309.558	0.27
309.77	0.3
309.982	0.32
310.194	0.29
310.406	0.24
310.617	0.32
310.829	0.26
311.041	0.32
311.253	0.23
311.465	0.24
311.677	0.29
311.889	0.23
312.101	0.22
312.313	0.33
312.524	0.26
312.736	0.22
312.948	0.26
313.16	0.34
313.372	0.31
313.583	0.29
313.795	0.26
314.007	0.24
314.218	0.29
314.43	0.21
314.642	0.24
314.853	0.23
315.065	0.29
315.277	0.24
315.488	0.29
315.7	0.32
315.912	0.28
316.123	0.21
316.335	0.26
316.546	0.31
316.758	0.25
316.969	0.27
317.181	0.29
317.392	0.26
317.604	0.32
317.815	0.24
318.026	0.19
318.238	0.24
318.449	0.25
318.661	0.22
318.872	0.21
319.083	0.24
319.295	0.33
319.506	0.23
319.717	0.31
319.929	0.27
320.14	0.23
320.351	0.27
320.562	0.23
320.774	0.23
320.985	0.29
321.196	0.2
321.407	0.2
321.618	0.34
321.829	0.25
322.041	0.31
322.252	0.25
322.463	0.35
322.674	0.28
322.885	0.23
323.096	0.27
323.307	0.26
323.518	0.3
323.729	0.24
323.94	0.3
324.151	0.26
324.362	0.28
324.573	0.28
324.784	0.23
324.995	0.28
325.206	0.27
325.417	0.18
325.628	0.24
325.838	0.25
326.049	0.29
326.26	0.29
326.471	0.26
326.682	0.26
326.892	0.3
327.103	0.22
327.314	0.25
327.525	0.28
327.735	0.3
327.946	0.31
328.157	0.23
328.368	0.28
328.578	0.28
328.789	0.32
328.999	0.26
329.21	0.3
329.421	0.28
329.631	0.25
329.842	0.24
330.052	0.28
330.263	0.27
330.473	0.3
330.684	0.23
330.894	0.22
331.105	0.25
331.315	0.28
331.526	0.24
331.736	0.29
331.947	0.34
332.157	0.24
332.367	0.21
332.578	0.3
332.788	0.32
332.999	0.34
333.209	0.24
333.419	0.2
333.629	0.28
333.84	0.29
334.05	0.31
334.26	0.36
334.47	0.32
334.681	0.31
334.891	0.23
335.101	0.33
335.311	0.35
335.521	0.23
335.732	0.24
335.942	0.34
336.152	0.29
336.362	0.24
336.572	0.25
336.782	0.3
336.992	0.24
337.202	0.24
337.412	0.3
337.622	0.25
337.832	0.28
338.042	0.27
338.252	0.27
338.462	0.28
338.672	0.28
338.882	0.22
339.092	0.2
339.302	0.35
339.511	0.3
339.721	0.23
339.931	0.25
340.141	0.29
340.351	0.34
340.561	0.29
340.77	0.27
340.98	0.23
341.19	0.32
341.4	0.24
341.609	0.25
341.819	0.22
342.029	0.27
342.238	0.26
342.448	0.22
342.658	0.27
342.867	0.26
343.077	0.21
343.286	0.27
343.496	0.27
343.706	0.3
343.915	0.23
344.125	0.3
344.334	0.27
344.544	0.21
344.753	0.29
344.963	0.23
345.172	0.25
345.381	0.23
345.591	0.25
345.8	0.26
346.01	0.29
346.219	0.31
346.428	0.11
346.638	0.24
346.847	0.26
347.056	0.32
347.266	0.22
347.475	0.3
347.684	0.27
347.893	0.28
348.103	0.26
348.312	0.22
348.521	0.24
348.73	0.25
348.94	0.26
349.149	0.24
349.358	0.26
349.567	0.21
349.776	0.21
349.985	0.24
350.194	0.3
350.403	0.32
350.612	0.22
350.821	0.24
351.03	0.27
351.239	0.24
351.448	0.24
351.657	0.18
351.866	0.29
352.075	0.27
352.284	0.32
352.493	0.17
352.702	0.31
352.911	0.25
353.12	0.29
353.329	0.28
353.538	0.27
353.746	0.28
353.955	0.23
354.164	0.27
354.373	0.27
354.582	0.31
354.79	0.25
354.999	0.29
355.208	0.24
355.416	0.25
355.625	0.25
355.834	0.26
356.042	0.27
356.251	0.23
356.46	0.2
356.668	0.27
356.877	0.32
357.085	0.31
357.294	0.22
357.503	0.27
357.711	0.24
357.92	0.39
358.128	0.23
358.337	0.2
358.545	0.24
358.754	0.23
358.962	0.27
359.17	0.28
359.379	0.25
359.587	0.25
359.796	0.19
360.004	0.28
360.212	0.29
360.421	0.26
360.629	0.22
360.837	0.26
361.046	0.29
361.254	0.34
361.462	0.25
361.67	0.25
361.879	0.24
362.087	0.29
362.295	0.26
362.503	0.21
362.711	0.17
362.92	0.31
363.128	0.24
363.336	0.19
363.544	0.22
363.752	0.24
363.96	0.25
364.168	0.24
364.376	0.24
364.584	0.23
364.792	0.28
365	0.24
365.208	0.29
365.416	0.28
365.624	0.31
365.832	0.21
366.04	0.31
366.248	0.27
366.456	0.31
366.664	0.31
366.872	0.26
367.079	0.2
367.287	0.24
367.495	0.26
367.703	0.27
367.911	0.24
368.118	0.23
368.326	0.27
368.534	0.22
368.742	0.3
368.949	0.18
369.157	0.23
369.365	0.27
369.572	0.25
369.78	0.24
369.988	0.3
370.195	0.28
370.403	0.24
370.61	0.24
370.818	0.23
371.026	0.31
371.233	0.22
371.441	0.25
371.648	0.22
371.856	0.27
372.063	0.24
372.271	0.24
372.478	0.22
372.685	0.24
372.893	0.33
373.1	0.23
373.308	0.29
373.515	0.38
373.722	0.29
373.93	0.26
374.137	0.28
374.344	0.35
374.552	0.27
374.759	0.28
374.966	0.35
375.173	0.25
375.381	0.33
375.588	0.24
375.795	0.21
376.002	0.26
376.209	0.23
376.417	0.27
376.624	0.28
376.831	0.3
377.038	0.27
377.245	0.2
377.452	0.22
377.659	0.29
377.866	0.19
378.073	0.32
378.28	0.29
378.487	0.25
378.694	0.27
378.901	0.28
379.108	0.32
379.315	0.31
379.522	0.32
379.729	0.23
379.936	0.25
380.143	0.26
380.35	0.28
380.557	0.25
380.763	0.26
380.97	0.25
381.177	0.29
381.384	0.3
381.591	0.26
381.797	0.21
382.004	0.31
382.211	0.32
382.418	0.31
382.624	0.33
382.831	0.31
383.038	0.26
383.244	0.25
383.451	0.29
383.658	0.32
383.864	0.3
384.071	0.21
384.277	0.33
384.484	0.25
384.69	0.35
384.897	0.27
385.103	0.24
385.31	0.27
385.516	0.25
385.723	0.23
385.929	0.3
386.136	0.25
386.342	0.28
386.549	0.27
386.755	0.31
386.961	0.29
387.168	0.3
387.374	0.33
387.58	0.29
387.787	0.29
387.993	0.33
388.199	0.27
388.406	0.29
388.612	0.26
388.818	0.28
389.024	0.28
389.231	0.3
389.437	0.34
389.643	0.29
389.849	0.35
390.055	0.31
390.261	0.3
390.467	0.36
390.674	0.27
390.88	0.29
391.086	0.28
391.292	0.28
391.498	0.35
391.704	0.37
391.91	0.28
392.116	0.26
392.322	0.22
392.528	0.36
392.734	0.3
392.94	0.33
393.146	0.34
393.352	0.27
393.557	0.33
393.763	0.27
393.969	0.34
394.175	0.31
394.381	0.32
394.587	0.27
394.792	0.32
394.998	0.34
395.204	0.36
395.41	0.33
395.615	0.3
395.821	0.33
396.027	0.36
396.233	0.31
396.438	0.34
396.644	0.37
396.85	0.31
397.055	0.29
397.261	0.43
397.466	0.43
397.672	0.35
397.878	0.37
398.083	0.28
398.289	0.34
398.494	0.39
398.7	0.39
398.905	0.28
399.111	0.4
399.316	0.31
399.522	0.36
399.727	0.36
399.932	0.36
400.138	0.32
400.343	0.38
400.549	0.36
400.754	0.37
400.959	0.4
401.165	0.35
401.37	0.38
401.575	0.46
401.78	0.34
401.986	0.33
402.191	0.33
402.396	0.38
402.601	0.45
402.807	0.46
403.012	0.43
403.217	0.42
403.422	0.38
403.627	0.42
403.832	0.38
404.037	0.44
404.243	0.44
404.448	0.42
404.653	0.38
404.858	0.47
405.063	0.48
405.268	0.41
405.473	0.39
405.678	0.43
405.883	0.62
406.088	0.5
406.293	0.48
406.498	0.44
406.703	0.52
406.907	0.44
407.112	0.47
407.317	0.55
407.522	0.58
407.727	0.51
407.932	0.51
408.136	0.58
408.341	0.58
408.546	0.63
408.751	0.6
408.956	0.57
409.16	0.66
409.365	0.64
409.57	0.6
409.774	0.6
409.979	0.67
410.184	0.67
410.388	0.66
410.593	0.71
410.798	0.73
411.002	0.72
411.207	0.79
411.411	0.8
411.616	0.76
411.82	0.85
412.025	0.82
412.229	0.84
412.434	0.96
412.638	0.93
412.843	0.95
413.047	0.99
413.252	0.92
413.456	0.97
413.66	1.06
413.865	1
414.069	1.13
414.273	1.13
414.478	1.14
414.682	1.15
414.886	1.18
415.091	1.24
415.295	1.26
415.499	1.4
415.703	1.31
415.908	1.45
416.112	1.36
416.316	1.56
416.52	1.58
416.724	1.54
416.929	1.6
417.133	1.82
417.337	1.69
417.541	1.8
417.745	1.85
417.949	1.93
418.153	1.97
418.357	1.98
418.561	2.15
418.765	2.11
418.969	2.31
419.173	2.39
419.377	2.44
419.581	2.61
419.785	2.57
419.989	2.6
420.193	2.8
420.397	2.8
420.601	2.99
420.804	3.06
421.008	3.06
421.212	3.21
421.416	3.22
421.62	3.23
421.823	3.29
422.027	3.46
422.231	3.36
422.435	3.44
422.638	3.53
422.842	3.59
423.046	3.73
423.249	3.9
423.453	3.9
423.657	4.12
423.86	4.13
424.064	4.28
424.268	4.36
424.471	4.42
424.675	4.68
424.878	4.72
425.082	4.81
425.285	5.11
425.489	4.95
425.692	5.2
425.896	5.21
426.099	5.43
426.303	5.46
426.506	5.73
426.71	5.82
426.913	5.97
427.116	6.27
427.32	6.22
427.523	6.38
427.726	6.61
427.93	6.71
428.133	7.08
428.336	7.15
428.54	7.29
428.743	7.49
428.946	7.84
429.149	7.71
429.353	7.82
429.556	7.9
429.759	8.03
429.962	8.13
430.165	8.23
430.368	7.85
430.571	7.98
430.775	7.98
430.978	8.07
431.181	8.07
431.384	8.07
431.587	8.27
431.79	8.64
431.993	8.56
432.196	8.82
432.399	9.32
432.602	9.39
432.805	9.42
433.008	9.97
433.211	9.87
433.414	10.14
433.616	10.17
433.819	10.18
434.022	10.42
434.225	10.5
434.428	10.44
434.631	11.04
434.833	10.83
435.036	11.05
435.239	11.24
435.442	11.3
435.645	11.49
435.847	11.52
436.05	11.97
436.253	12.03
436.455	12.12
436.658	11.92
436.861	12.18
437.063	12.36
437.266	12.38
437.468	12.75
437.671	13.01
437.874	13.09
438.076	12.94
438.279	13.38
438.481	13.46
438.684	14.15
438.886	13.84
439.089	14.11
439.291	14.1
439.494	14.43
439.696	14.68
439.899	15.14
440.101	15.52
440.303	15.78
440.506	16.44
440.708	16.23
440.91	16.29
441.113	16.67
441.315	16.9
441.517	16.63
441.72	17.22
441.922	16.87
442.124	16.73
442.326	17.15
442.529	17.3
442.731	17.33
442.933	17.65
443.135	17.42
443.337	17.41
443.539	18.07
443.742	17.59
443.944	18.41
444.146	18.08
444.348	18.08
444.55	17.95
444.752	18.01
444.954	18.07
445.156	17.95
445.358	18.41
445.56	18.69
445.762	18.43
445.964	18.85
446.166	18.6
446.368	18.65
446.57	18.6
446.772	18.18
446.974	17.95
447.175	18.37
447.377	17.92
447.579	18.47
447.781	18.17
447.983	17.96
448.184	17.45
448.386	17.79
448.588	17.3
448.79	17.3
448.991	17.58
449.193	17.74
449.395	16.9
449.597	16.57
449.798	16.54
450	16.09
450.202	15.92
450.403	16.02
450.605	15.8
450.806	15.55
451.008	15.43
451.21	15.22
451.411	14.76
451.613	13.98
451.814	14.27
452.016	14.12
452.217	13.43
452.419	13.58
452.62	13.13
452.821	12.95
453.023	12.82
453.224	12.43
453.426	12.15
453.627	11.24
453.828	11.41
454.03	11.45
454.231	11.47
454.432	11.2
454.634	10.93
454.835	10.77
455.036	10.56
455.238	10.22
455.439	9.89
455.64	9.66
455.841	9.6
456.042	9.61
456.244	9.38
456.445	9.09
456.646	8.72
456.847	8.72
457.048	8.63
457.249	8.57
457.45	8.29
457.651	7.9
457.852	7.65
458.054	7.35
458.255	7.35
458.456	7.43
458.657	7.31
458.858	6.87
459.058	6.75
459.259	6.86
459.46	6.51
459.661	6.5
459.862	6.55
460.063	6.51
460.264	6.36
460.465	6.11
460.666	6.12
460.866	5.89
461.067	5.51
461.268	5.57
461.469	5.61
461.67	5.46
461.87	5.29
462.071	5.27
462.272	5.23
462.473	5.2
462.673	5.27
462.874	5.35
463.075	5.19
463.275	5.22
463.476	5.19
463.676	5.12
463.877	5.02
464.078	4.96
464.278	4.99
464.479	4.95
464.679	4.88
464.88	4.8
465.08	4.74
465.281	4.67
465.481	4.35
465.682	4.23
465.882	4.28
466.083	4.15
466.283	4.1
466.483	3.97
466.684	3.8
466.884	3.73
467.085	3.73
467.285	3.82
467.485	3.7
467.686	3.58
467.886	3.53
468.086	3.45
468.286	3.39
468.487	3.46
468.687	3.35
468.887	3.28
469.087	3.39
469.287	3.31
469.488	3.14
469.688	3.21
469.888	3.15
470.088	3.13
470.288	3.06
470.488	3.04
470.688	2.87
470.888	2.85
471.088	2.7
471.288	2.85
471.488	2.76
471.688	2.74
471.888	2.71
472.088	2.85
472.288	2.74
472.488	2.65
472.688	2.61
472.888	2.67
473.088	2.57
473.288	2.55
473.488	2.49
473.688	2.62
473.887	2.48
474.087	2.45
474.287	2.49
474.487	2.48
474.687	2.44
474.886	2.39
475.086	2.35
475.286	2.42
475.486	2.24
475.685	2.28
475.885	2.24
476.085	2.28
476.284	2.29
476.484	2.33
476.684	2.24
476.883	2.33
477.083	2.15
477.282	2.15
477.482	2.17
477.681	2.14
477.881	2.09
478.08	2.08
478.28	2.04
478.479	2.14
478.679	2.13
478.878	2.06
479.078	2.07
479.277	2.09
479.477	2.04
479.676	2
479.875	2.04
480.075	1.99
480.274	2.06
480.473	2.09
480.673	2.03
480.872	2.06
481.071	2.02
481.271	2.05
481.47	1.98
481.669	2.08
481.868	1.96
482.067	2
482.267	1.91
482.466	1.96
482.665	1.96
482.864	1.95
483.063	1.93
483.262	2.01
483.461	2.02
483.661	2.07
483.86	2.01
484.059	2.06
484.258	2.03
484.457	2.06
484.656	2.05
484.855	2.07
485.054	1.95
485.253	2
485.452	1.99
485.651	2.1
485.849	2.01
486.048	2.02
486.247	2.04
486.446	2.08
486.645	2.07
486.844	2.07
487.043	2.08
487.241	2.05
487.44	2.06
487.639	2.18
487.838	2.13
488.037	2.12
488.235	2.17
488.434	2.17
488.633	2.06
488.831	2.27
489.03	2.21
489.229	2.24
489.427	2.23
489.626	2.23
489.825	2.3
490.023	2.29
490.222	2.32
490.42	2.31
490.619	2.37
490.817	2.37
491.016	2.38
491.214	2.4
491.413	2.47
491.611	2.36
491.81	2.39
492.008	2.44
492.207	2.54
492.405	2.54
492.604	2.46
492.802	2.58
493	2.59
493.199	2.6
493.397	2.64
493.595	2.7
493.794	2.67
493.992	2.78
494.19	2.7
494.388	2.82
494.587	2.72
494.785	2.8
494.983	2.7
495.181	2.87
495.379	2.91
495.578	2.98
495.776	2.96
495.974	2.9
496.172	3.02
496.37	3.08
496.568	3.09
496.766	3.03
496.964	3.2
497.162	3.2
497.36	3.22
497.558	3.21
497.756	3.31
497.954	3.32
498.152	3.32
498.35	3.43
498.548	3.36
498.746	3.41
498.944	3.41
499.142	3.44
499.34	3.49
499.538	3.66
499.736	3.5
499.933	3.55
500.131	3.59
500.329	3.77
500.527	3.76
500.725	3.89
500.922	3.84
501.12	3.87
501.318	3.93
501.516	3.92
501.713	4.02
501.911	4
502.109	3.95
502.306	4.1
502.504	3.99
502.701	4.09
