Data from Apollo_Calib_20240827__AbsoluteIrradiance__816__12-45-02-103.txt Node

Date: Wed Aug 28 12:45:02 BST 2024
User: biology
Spectrometer: FLMT08252
Trigger mode: 0
Integration Time (sec): 5.000000E-1
Scans to average: 5
Electric dark correction enabled: true
Nonlinearity correction enabled: false
Boxcar width: 0
XAxis mode: Wavelengths
Number of Pixels in Spectrum: 3648
>>>>>Begin Spectral Data<<<<<
179.588	-0
179.809	-0
180.03	-0
180.251	-0
180.473	-0
180.694	0
180.915	0
181.136	-0
181.357	0
181.578	-0
181.799	-0
182.02	-0
182.241	-0
182.462	-0
182.683	0
182.904	-0
183.125	-0
183.346	0
183.567	0
183.788	0
184.009	0
184.23	0
184.451	0
184.672	0
184.892	0
185.113	0
185.334	0
185.555	0
185.776	0
185.996	0
186.217	0
186.438	0
186.659	0
186.879	0
187.1	0
187.321	0
187.541	0
187.762	0
187.983	0
188.203	0
188.424	0
188.644	0
188.865	0
189.086	0
189.306	0
189.527	0
189.747	0
189.968	0
190.188	0
190.409	0
190.629	0
190.849	0
191.07	0
191.29	0
191.511	0
191.731	0
191.951	0
192.172	0
192.392	0
192.612	0
192.833	0
193.053	0
193.273	0
193.493	0
193.714	0
193.934	0
194.154	0
194.374	0
194.594	0
194.815	0
195.035	0
195.255	0
195.475	0
195.695	0
195.915	0
196.135	0
196.355	0
196.575	0
196.795	0
197.015	0
197.235	0
197.455	0
197.675	0
197.895	0
198.115	0
198.335	0
198.555	0
198.775	0
198.995	0
199.214	0
199.434	0
199.654	0
199.874	0
200.094	3.69
200.313	2.71
200.533	1.98
200.753	1.8
200.973	3.85
201.192	3.23
201.412	1.39
201.632	1.71
201.851	3.47
202.071	1.68
202.291	1.81
202.51	1.54
202.73	3.02
202.95	1.73
203.169	1.12
203.389	1.92
203.608	2.43
203.828	1.49
204.047	1.34
204.267	1.69
204.486	2.16
204.706	2.17
204.925	1.34
205.145	1.44
205.364	1.98
205.583	2.84
205.803	1.19
206.022	1.23
206.242	1.99
206.461	2.02
206.68	1.25
206.9	1.47
207.119	2.34
207.338	2.14
207.557	1.3
207.777	1.09
207.996	1.5
208.215	2.01
208.434	1.13
208.654	0.61
208.873	1.7
209.092	2.37
209.311	1.11
209.53	1.08
209.749	1.25
209.968	1.2
210.187	1.02
210.407	0.68
210.626	1.16
210.845	1.68
211.064	1.14
211.283	0.7
211.502	1.34
211.721	1.19
211.94	0.98
212.159	1.37
212.377	1.36
212.596	1.46
212.815	1.24
213.034	1.11
213.253	1.52
213.472	1.11
213.691	0.89
213.91	0.43
214.128	0.93
214.347	1.51
214.566	0.42
214.785	0.56
215.003	1.37
215.222	1.21
215.441	0.77
215.66	0.49
215.878	0.79
216.097	1.32
216.316	0.67
216.534	0.7
216.753	1.15
216.972	0.8
217.19	0.9
217.409	0.65
217.627	0.75
217.846	0.9
218.064	0.95
218.283	0.57
218.501	1.47
218.72	1.16
218.938	0.58
219.157	0.62
219.375	1.04
219.594	1.18
219.812	0.53
220.031	0.61
220.249	1.19
220.467	1.23
220.686	0.52
220.904	0.44
221.122	0.66
221.341	1.17
221.559	0.75
221.777	0.56
221.995	0.69
222.214	0.83
222.432	0.6
222.65	0.89
222.868	0.7
223.086	0.92
223.305	0.86
223.523	0.57
223.741	1.11
223.959	0.66
224.177	0.27
224.395	0.59
224.613	0.92
224.831	0.94
225.049	0.44
225.267	0.65
225.485	0.65
225.703	0.75
225.921	0.67
226.139	0.41
226.357	0.73
226.575	0.85
226.793	0.5
227.011	1.55
227.229	0.8
227.447	0.86
227.665	0.52
227.883	0.38
228.1	0.63
228.318	0.62
228.536	0.22
228.754	0.45
228.972	0.79
229.189	0.84
229.407	0.35
229.625	0.56
229.843	0.83
230.06	0.76
230.278	0.56
230.496	0.61
230.713	0.68
230.931	0.88
231.149	0.48
231.366	0.23
231.584	0.64
231.801	1.18
232.019	0.42
232.236	0.38
232.454	0.44
232.671	0.62
232.889	0.49
233.106	0.41
233.324	0.71
233.541	0.49
233.759	0.53
233.976	0.39
234.194	0.55
234.411	0.6
234.628	0.42
234.846	0.44
235.063	0.6
235.28	0.54
235.498	0.44
235.715	0.31
235.932	0.82
236.149	0.5
236.367	0.36
236.584	0.56
236.801	0.44
237.018	0.62
237.236	0.49
237.453	0.33
237.67	0.63
237.887	0.42
238.104	0.45
238.321	0.32
238.538	0.34
238.755	0.73
238.973	0.35
239.19	0.5
239.407	0.6
239.624	0.58
239.841	0.32
240.058	0.27
240.275	0.56
240.492	0.48
240.709	0.36
240.925	0.39
241.142	0.41
241.359	0.41
241.576	0.37
241.793	0.35
242.01	0.49
242.227	0.67
242.444	0.51
242.66	0.67
242.877	0.43
243.094	0.39
243.311	0.44
243.527	0.52
243.744	0.57
243.961	0.53
244.178	0.4
244.394	0.42
244.611	0.56
244.828	0.63
245.044	0.34
245.261	0.43
245.477	0.44
245.694	0.53
245.911	0.33
246.127	0.44
246.344	0.62
246.56	0.53
246.777	0.28
246.993	0.3
247.21	0.51
247.426	0.56
247.643	0.29
247.859	0.37
248.076	0.35
248.292	0.64
248.508	0.33
248.725	0.42
248.941	0.5
249.157	0.63
249.374	0.28
249.59	0.36
249.806	0.33
250.023	0.54
250.239	0.39
250.455	0.3
250.671	0.45
250.888	0.45
251.104	0.46
251.32	0.39
251.536	0.36
251.752	0.41
251.969	0.34
252.185	0.32
252.401	0.7
252.617	0.56
252.833	0.29
253.049	0.47
253.265	0.32
253.481	0.43
253.697	0.41
253.913	0.33
254.129	0.47
254.345	0.45
254.561	0.24
254.777	0.33
254.993	0.41
255.209	0.4
255.425	0.35
255.641	0.23
255.857	0.47
256.073	0.42
256.288	0.25
256.504	0.32
256.72	0.46
256.936	0.54
257.152	0.3
257.367	0.27
257.583	0.39
257.799	0.46
258.015	0.34
258.23	0.31
258.446	0.55
258.662	0.42
258.877	0.26
259.093	0.24
259.309	0.38
259.524	0.44
259.74	0.3
259.955	0.21
260.171	0.44
260.387	0.41
260.602	0.41
260.818	0.38
261.033	0.25
261.249	0.39
261.464	0.33
261.68	0.24
261.895	0.44
262.11	0.41
262.326	0.29
262.541	0.24
262.757	0.45
262.972	0.41
263.187	0.37
263.403	0.37
263.618	0.45
263.833	0.42
264.049	0.22
264.264	0.34
264.479	0.38
264.694	0.48
264.91	0.25
265.125	0.43
265.34	0.45
265.555	0.54
265.77	0.39
265.986	0.33
266.201	0.44
266.416	0.44
266.631	0.28
266.846	0.3
267.061	0.43
267.276	0.43
267.491	0.17
267.706	0.37
267.921	0.34
268.136	0.37
268.351	0.33
268.566	0.19
268.781	0.42
268.996	0.41
269.211	0.28
269.426	0.31
269.641	0.33
269.856	0.47
270.071	0.3
270.285	0.2
270.5	0.46
270.715	0.39
270.93	0.37
271.145	0.38
271.359	0.41
271.574	0.28
271.789	0.34
272.004	0.23
272.218	0.36
272.433	0.37
272.648	0.25
272.862	0.32
273.077	0.34
273.292	0.36
273.506	0.25
273.721	0.31
273.936	0.37
274.15	0.36
274.365	0.22
274.579	0.37
274.794	0.4
275.008	0.41
275.223	0.22
275.437	0.29
275.652	0.4
275.866	0.36
276.081	0.27
276.295	0.38
276.509	0.37
276.724	0.38
276.938	0.32
277.153	0.38
277.367	0.41
277.581	0.27
277.796	0.32
278.01	0.22
278.224	0.4
278.438	0.47
278.653	0.24
278.867	0.2
279.081	0.15
279.295	0.29
279.51	0.31
279.724	0.19
279.938	0.4
280.152	0.41
280.366	0.26
280.58	0.31
280.794	0.43
281.008	0.41
281.222	0.35
281.437	0.52
281.651	0.31
281.865	0.45
282.079	0.23
282.293	0.14
282.507	0.26
282.721	0.32
282.935	0.3
283.148	0.16
283.362	0.26
283.576	0.26
283.79	0.32
284.004	0.28
284.218	0.38
284.432	0.3
284.646	0.29
284.859	0.27
285.073	0.23
285.287	0.31
285.501	0.29
285.714	0.29
285.928	0.25
286.142	0.35
286.356	0.23
286.569	0.28
286.783	0.4
286.997	0.42
287.21	0.28
287.424	0.31
287.637	0.3
287.851	0.28
288.065	0.34
288.278	0.24
288.492	0.31
288.705	0.28
288.919	0.32
289.132	0.19
289.346	0.35
289.559	0.19
289.773	0.2
289.986	0.24
290.2	0.25
290.413	0.34
290.626	0.23
290.84	0.19
291.053	0.33
291.267	0.38
291.48	0.24
291.693	0.31
291.906	0.25
292.12	0.26
292.333	0.22
292.546	0.25
292.76	0.37
292.973	0.31
293.186	0.32
293.399	0.23
293.612	0.36
293.826	0.3
294.039	0.21
294.252	0.26
294.465	0.36
294.678	0.24
294.891	0.24
295.104	0.2
295.317	0.22
295.53	0.28
295.743	0.23
295.956	0.26
296.169	0.36
296.382	0.35
296.595	0.23
296.808	0.21
297.021	0.35
297.234	0.32
297.447	0.29
297.66	0.33
297.873	0.36
298.086	0.31
298.299	0.21
298.511	0.18
298.724	0.26
298.937	0.24
299.15	0.25
299.363	0.24
299.575	0.32
299.788	0.28
300.001	0.23
300.213	0.16
300.426	0.24
300.639	0.24
300.852	0.2
301.064	0.29
301.277	0.34
301.489	0.28
301.702	0.28
301.915	0.24
302.127	0.28
302.34	0.29
302.552	0.26
302.765	0.18
302.977	0.36
303.19	0.19
303.402	0.22
303.615	0.22
303.827	0.24
304.04	0.29
304.252	0.31
304.464	0.21
304.677	0.46
304.889	0.27
305.102	0.19
305.314	0.18
305.526	0.28
305.739	0.29
305.951	0.17
306.163	0.27
306.375	0.33
306.588	0.2
306.8	0.23
307.012	0.24
307.224	0.27
307.436	0.35
307.649	0.18
307.861	0.25
308.073	0.27
308.285	0.26
308.497	0.19
308.709	0.24
308.921	0.27
309.133	0.33
309.346	0.25
309.558	0.25
309.77	0.33
309.982	0.39
310.194	0.31
310.406	0.23
310.617	0.37
310.829	0.27
311.041	0.27
311.253	0.21
311.465	0.26
311.677	0.27
311.889	0.24
312.101	0.21
312.313	0.34
312.524	0.34
312.736	0.19
312.948	0.22
313.16	0.35
313.372	0.3
313.583	0.32
313.795	0.23
314.007	0.25
314.218	0.32
314.43	0.24
314.642	0.19
314.853	0.22
315.065	0.28
315.277	0.2
315.488	0.27
315.7	0.35
315.912	0.24
316.123	0.26
316.335	0.21
316.546	0.4
316.758	0.29
316.969	0.21
317.181	0.27
317.392	0.25
317.604	0.33
317.815	0.22
318.026	0.21
318.238	0.3
318.449	0.29
318.661	0.18
318.872	0.15
319.083	0.19
319.295	0.32
319.506	0.21
319.717	0.22
319.929	0.29
320.14	0.26
320.351	0.25
320.562	0.25
320.774	0.27
320.985	0.25
321.196	0.24
321.407	0.19
321.618	0.3
321.829	0.29
322.041	0.26
322.252	0.24
322.463	0.24
322.674	0.3
322.885	0.2
323.096	0.23
323.307	0.24
323.518	0.23
323.729	0.19
323.94	0.2
324.151	0.21
324.362	0.3
324.573	0.3
324.784	0.24
324.995	0.35
325.206	0.3
325.417	0.23
325.628	0.22
325.838	0.26
326.049	0.29
326.26	0.32
326.471	0.2
326.682	0.29
326.892	0.28
327.103	0.17
327.314	0.24
327.525	0.29
327.735	0.28
327.946	0.22
328.157	0.21
328.368	0.29
328.578	0.24
328.789	0.29
328.999	0.26
329.21	0.2
329.421	0.31
329.631	0.22
329.842	0.18
330.052	0.2
330.263	0.31
330.473	0.33
330.684	0.22
330.894	0.29
331.105	0.22
331.315	0.29
331.526	0.19
331.736	0.32
331.947	0.29
332.157	0.31
332.367	0.13
332.578	0.28
332.788	0.31
332.999	0.31
333.209	0.21
333.419	0.2
333.629	0.28
333.84	0.26
334.05	0.24
334.26	0.37
334.47	0.25
334.681	0.29
334.891	0.22
335.101	0.31
335.311	0.38
335.521	0.25
335.732	0.19
335.942	0.34
336.152	0.25
336.362	0.26
336.572	0.26
336.782	0.32
336.992	0.21
337.202	0.22
337.412	0.24
337.622	0.26
337.832	0.19
338.042	0.26
338.252	0.22
338.462	0.25
338.672	0.24
338.882	0.24
339.092	0.28
339.302	0.37
339.511	0.35
339.721	0.21
339.931	0.23
340.141	0.29
340.351	0.29
340.561	0.27
340.77	0.26
340.98	0.29
341.19	0.29
341.4	0.22
341.609	0.23
341.819	0.25
342.029	0.2
342.238	0.26
342.448	0.18
342.658	0.28
342.867	0.22
343.077	0.24
343.286	0.26
343.496	0.31
343.706	0.38
343.915	0.21
344.125	0.22
344.334	0.27
344.544	0.2
344.753	0.21
344.963	0.16
345.172	0.21
345.381	0.24
345.591	0.17
345.8	0.23
346.01	0.29
346.219	0.26
346.428	0.21
346.638	0.25
346.847	0.3
347.056	0.36
347.266	0.17
347.475	0.27
347.684	0.29
347.893	0.27
348.103	0.31
348.312	0.22
348.521	0.25
348.73	0.23
348.94	0.26
349.149	0.23
349.358	0.25
349.567	0.22
349.776	0.19
349.985	0.19
350.194	0.3
350.403	0.3
350.612	0.16
350.821	0.2
351.03	0.21
351.239	0.22
351.448	0.23
351.657	0.2
351.866	0.34
352.075	0.25
352.284	0.19
352.493	0.17
352.702	0.34
352.911	0.28
353.12	0.28
353.329	0.2
353.538	0.27
353.746	0.24
353.955	0.21
354.164	0.27
354.373	0.24
354.582	0.28
354.79	0.27
354.999	0.3
355.208	0.25
355.416	0.31
355.625	0.17
355.834	0.25
356.042	0.28
356.251	0.2
356.46	0.18
356.668	0.26
356.877	0.36
357.085	0.3
357.294	0.14
357.503	0.24
357.711	0.22
357.92	0.43
358.128	0.24
358.337	0.23
358.545	0.27
358.754	0.27
358.962	0.29
359.17	0.21
359.379	0.25
359.587	0.27
359.796	0.22
360.004	0.34
360.212	0.27
360.421	0.34
360.629	0.24
360.837	0.21
361.046	0.29
361.254	0.36
361.462	0.25
361.67	0.22
361.879	0.29
362.087	0.28
362.295	0.25
362.503	0.23
362.711	0.21
362.92	0.22
363.128	0.22
363.336	0.16
363.544	0.17
363.752	0.25
363.96	0.22
364.168	0.21
364.376	0.24
364.584	0.27
364.792	0.29
365	0.31
365.208	0.26
365.416	0.3
365.624	0.33
365.832	0.21
366.04	0.33
366.248	0.24
366.456	0.26
366.664	0.25
366.872	0.23
367.079	0.24
367.287	0.23
367.495	0.29
367.703	0.26
367.911	0.23
368.118	0.21
368.326	0.23
368.534	0.17
368.742	0.31
368.949	0.19
369.157	0.17
369.365	0.26
369.572	0.2
369.78	0.2
369.988	0.27
370.195	0.24
370.403	0.31
370.61	0.21
370.818	0.25
371.026	0.38
371.233	0.23
371.441	0.27
371.648	0.2
371.856	0.28
372.063	0.28
372.271	0.23
372.478	0.22
372.685	0.22
372.893	0.28
373.1	0.31
373.308	0.23
373.515	0.37
373.722	0.31
373.93	0.2
374.137	0.27
374.344	0.33
374.552	0.31
374.759	0.3
374.966	0.25
375.173	0.27
375.381	0.34
375.588	0.24
375.795	0.18
376.002	0.23
376.209	0.24
376.417	0.28
376.624	0.27
376.831	0.29
377.038	0.21
377.245	0.2
377.452	0.24
377.659	0.29
377.866	0.23
378.073	0.24
378.28	0.25
378.487	0.31
378.694	0.3
378.901	0.24
379.108	0.25
379.315	0.34
379.522	0.33
379.729	0.27
379.936	0.27
380.143	0.28
380.35	0.26
380.557	0.25
380.763	0.25
380.97	0.29
381.177	0.28
381.384	0.25
381.591	0.19
381.797	0.31
382.004	0.29
382.211	0.35
382.418	0.21
382.624	0.3
382.831	0.31
383.038	0.24
383.244	0.28
383.451	0.26
383.658	0.34
383.864	0.23
384.071	0.22
384.277	0.35
384.484	0.22
384.69	0.34
384.897	0.21
385.103	0.3
385.31	0.21
385.516	0.28
385.723	0.19
385.929	0.29
386.136	0.28
386.342	0.28
386.549	0.22
386.755	0.31
386.961	0.33
387.168	0.25
387.374	0.25
387.58	0.33
387.787	0.29
387.993	0.34
388.199	0.25
388.406	0.23
388.612	0.23
388.818	0.25
389.024	0.24
389.231	0.3
389.437	0.4
389.643	0.3
389.849	0.27
390.055	0.32
390.261	0.3
390.467	0.28
390.674	0.29
390.88	0.29
391.086	0.35
391.292	0.23
391.498	0.33
391.704	0.33
391.91	0.25
392.116	0.25
392.322	0.17
392.528	0.34
392.734	0.29
392.94	0.3
393.146	0.29
393.352	0.31
393.557	0.28
393.763	0.3
393.969	0.3
394.175	0.27
394.381	0.32
394.587	0.26
394.792	0.29
394.998	0.37
395.204	0.4
395.41	0.29
395.615	0.31
395.821	0.36
396.027	0.27
396.233	0.29
396.438	0.36
396.644	0.4
396.85	0.31
397.055	0.34
397.261	0.33
397.466	0.45
397.672	0.37
397.878	0.36
398.083	0.4
398.289	0.31
398.494	0.37
398.7	0.37
398.905	0.2
399.111	0.39
399.316	0.25
399.522	0.32
399.727	0.37
399.932	0.38
400.138	0.33
400.343	0.39
400.549	0.32
400.754	0.35
400.959	0.37
401.165	0.33
401.37	0.36
401.575	0.31
401.78	0.4
401.986	0.37
402.191	0.37
402.396	0.39
402.601	0.4
402.807	0.39
403.012	0.37
403.217	0.42
403.422	0.45
403.627	0.42
403.832	0.44
404.037	0.48
404.243	0.4
404.448	0.4
404.653	0.44
404.858	0.41
405.063	0.48
405.268	0.39
405.473	0.4
405.678	0.41
405.883	0.67
406.088	0.5
406.293	0.44
406.498	0.48
406.703	0.52
406.907	0.45
407.112	0.43
407.317	0.53
407.522	0.57
407.727	0.48
407.932	0.52
408.136	0.63
408.341	0.45
408.546	0.63
408.751	0.55
408.956	0.57
409.16	0.65
409.365	0.6
409.57	0.59
409.774	0.58
409.979	0.73
410.184	0.7
410.388	0.55
410.593	0.72
410.798	0.74
411.002	0.75
411.207	0.78
411.411	0.79
411.616	0.72
411.82	0.84
412.025	0.85
412.229	0.82
412.434	0.99
412.638	0.94
412.843	0.9
413.047	0.93
413.252	0.96
413.456	0.97
413.66	1.03
413.865	1.05
414.069	1.16
414.273	1.07
414.478	1.08
414.682	1.13
414.886	1.2
415.091	1.14
415.295	1.21
415.499	1.42
415.703	1.38
415.908	1.47
416.112	1.31
416.316	1.59
416.52	1.53
416.724	1.48
416.929	1.57
417.133	1.76
417.337	1.67
417.541	1.79
417.745	1.81
417.949	1.9
418.153	1.94
418.357	1.96
418.561	2.2
418.765	2.15
418.969	2.33
419.173	2.35
419.377	2.37
419.581	2.65
419.785	2.56
419.989	2.55
420.193	2.73
420.397	2.8
420.601	2.94
420.804	3.01
421.008	3.1
421.212	3.19
421.416	3.2
421.62	3.25
421.823	3.3
422.027	3.44
422.231	3.38
422.435	3.41
422.638	3.46
422.842	3.57
423.046	3.67
423.249	3.83
423.453	3.83
423.657	4
423.86	4.08
424.064	4.21
424.268	4.37
424.471	4.38
424.675	4.57
424.878	4.68
425.082	4.77
425.285	5.06
425.489	4.99
425.692	5.14
425.896	5.15
426.099	5.3
426.303	5.55
426.506	5.51
426.71	5.86
426.913	6.07
427.116	6.26
427.32	6.25
427.523	6.3
427.726	6.58
427.93	6.75
428.133	6.99
428.336	7.03
428.54	7.19
428.743	7.51
428.946	7.72
429.149	7.74
429.353	7.73
429.556	7.94
429.759	7.85
429.962	8.03
430.165	8.21
430.368	7.79
430.571	7.94
430.775	8.01
430.978	7.94
431.181	7.98
431.384	8.11
431.587	8.25
431.79	8.62
431.993	8.52
432.196	8.76
432.399	9.15
432.602	9.36
432.805	9.44
433.008	9.9
433.211	9.75
433.414	10.18
433.616	10.24
433.819	10.1
434.022	10.31
434.225	10.44
434.428	10.46
434.631	10.94
434.833	10.69
435.036	10.94
435.239	11.06
435.442	11.26
435.645	11.37
435.847	11.5
436.05	11.75
436.253	11.95
436.455	11.94
436.658	11.97
436.861	12.22
437.063	12.34
437.266	12.19
437.468	12.63
437.671	12.89
437.874	12.93
438.076	12.91
438.279	13.39
438.481	13.33
438.684	14.12
438.886	13.64
439.089	14.01
439.291	13.99
439.494	14.28
439.696	14.45
439.899	14.99
440.101	15.41
440.303	15.61
440.506	16.38
440.708	16.11
440.91	16.4
441.113	16.44
441.315	16.83
441.517	16.55
441.72	17.01
441.922	16.71
442.124	16.52
442.326	16.94
442.529	17.21
442.731	17.26
442.933	17.46
443.135	17.15
443.337	17.16
443.539	17.89
443.742	17.38
443.944	18.13
444.146	17.8
444.348	18
444.55	17.83
444.752	17.93
444.954	17.84
445.156	17.73
445.358	18.23
445.56	18.52
445.762	18.23
445.964	18.72
446.166	18.42
446.368	18.39
446.57	18.39
446.772	18.1
446.974	17.77
447.175	18.15
447.377	17.81
447.579	18.14
447.781	17.93
447.983	17.67
448.184	17.18
448.386	17.6
448.588	17.24
448.79	17.13
448.991	17.47
449.193	17.47
449.395	16.73
449.597	16.52
449.798	16.33
450	15.98
450.202	15.92
450.403	15.77
450.605	15.68
450.806	15.27
451.008	15.17
451.21	14.97
451.411	14.55
451.613	13.78
451.814	14.01
452.016	14.12
452.217	13.45
452.419	13.4
452.62	12.93
452.821	12.7
453.023	12.66
453.224	12.26
453.426	11.9
453.627	11.15
453.828	11.3
454.03	11.36
454.231	11.25
454.432	11.12
454.634	10.87
454.835	10.62
455.036	10.42
455.238	10.11
455.439	9.9
455.64	9.58
455.841	9.5
456.042	9.66
456.244	9.31
456.445	8.85
456.646	8.66
456.847	8.53
457.048	8.51
457.249	8.55
457.45	8.33
457.651	7.75
457.852	7.68
458.054	7.28
458.255	7.24
458.456	7.33
458.657	7.21
458.858	6.72
459.058	6.71
459.259	6.81
459.46	6.47
459.661	6.41
459.862	6.54
460.063	6.37
460.264	6.29
460.465	6.08
460.666	6.09
460.866	5.73
461.067	5.54
461.268	5.58
461.469	5.52
461.67	5.48
461.87	5.34
462.071	5.23
462.272	5.17
462.473	5.11
462.673	5.41
462.874	5.19
463.075	5.09
463.275	5.08
463.476	5.19
463.676	5.16
463.877	4.99
464.078	5
464.278	5.01
464.479	4.93
464.679	4.73
464.88	4.76
465.08	4.71
465.281	4.49
465.481	4.29
465.682	4.17
465.882	4.21
466.083	4.11
466.283	4.13
466.483	3.95
466.684	3.68
466.884	3.72
467.085	3.76
467.285	3.77
467.485	3.75
467.686	3.54
467.886	3.4
468.086	3.46
468.286	3.39
468.487	3.41
468.687	3.31
468.887	3.27
469.087	3.36
469.287	3.26
469.488	3.04
469.688	3.26
469.888	3.25
470.088	3.19
470.288	3.09
470.488	3.07
470.688	2.89
470.888	2.93
471.088	2.7
471.288	2.9
471.488	2.89
471.688	2.77
471.888	2.69
472.088	2.86
472.288	2.72
472.488	2.64
472.688	2.6
472.888	2.67
473.088	2.62
473.288	2.52
473.488	2.5
473.688	2.6
473.887	2.43
474.087	2.46
474.287	2.46
474.487	2.29
474.687	2.49
474.886	2.41
475.086	2.33
475.286	2.39
475.486	2.32
475.685	2.25
475.885	2.2
476.085	2.29
476.284	2.31
476.484	2.27
476.684	2.2
476.883	2.31
477.083	2.19
477.282	2.12
477.482	2.21
477.681	2.21
477.881	2.05
478.08	2.11
478.28	2.08
478.479	2.08
478.679	2.19
478.878	2.04
479.078	2
479.277	2.12
479.477	2.04
479.676	2.06
479.875	2.04
480.075	2
480.274	2.05
480.473	2.1
480.673	1.99
480.872	2.11
481.071	2.09
481.271	2.07
481.47	2.01
481.669	1.99
481.868	1.97
482.067	2
482.267	1.95
482.466	1.92
482.665	1.92
482.864	1.96
483.063	1.95
483.262	2.02
483.461	2
483.661	2.04
483.86	1.99
484.059	2.05
484.258	2.07
484.457	2.02
484.656	2.05
484.855	2.11
485.054	1.95
485.253	2.02
485.452	1.96
485.651	2.09
485.849	2
486.048	2.05
486.247	2.04
486.446	2.07
486.645	2.03
486.844	2.05
487.043	2.03
487.241	2.11
487.44	2.05
487.639	2.16
487.838	2.12
488.037	2.17
488.235	2.23
488.434	2.17
488.633	2.1
488.831	2.24
489.03	2.22
489.229	2.23
489.427	2.22
489.626	2.29
489.825	2.29
490.023	2.31
490.222	2.27
490.42	2.34
490.619	2.34
490.817	2.38
491.016	2.33
491.214	2.43
491.413	2.41
491.611	2.39
491.81	2.41
492.008	2.45
492.207	2.53
492.405	2.5
492.604	2.45
492.802	2.56
493	2.6
493.199	2.61
493.397	2.61
493.595	2.73
493.794	2.65
493.992	2.79
494.19	2.73
494.388	2.81
494.587	2.74
494.785	2.79
494.983	2.72
495.181	2.85
495.379	2.91
495.578	2.93
495.776	2.96
495.974	2.95
496.172	2.94
496.37	3.06
496.568	3.08
496.766	3.09
496.964	3.17
497.162	3.18
497.36	3.21
497.558	3.23
497.756	3.31
497.954	3.28
498.152	3.33
498.35	3.41
498.548	3.33
498.746	3.39
498.944	3.39
499.142	3.41
499.34	3.55
499.538	3.62
499.736	3.52
499.933	3.64
500.131	3.62
500.329	3.76
500.527	3.75
500.725	3.88
500.922	3.8
501.12	3.86
501.318	3.9
501.516	3.92
501.713	3.98
501.911	3.97
502.109	3.95
502.306	4.11
502.504	4.04
502.701	4.1
