Data from Apollo_Calib_20240827__AbsoluteIrradiance__46__23-55-01-767.txt Node

Date: Tue Aug 27 23:55:01 BST 2024
User: biology
Spectrometer: FLMT08252
Trigger mode: 0
Integration Time (sec): 5.000000E-1
Scans to average: 5
Electric dark correction enabled: true
Nonlinearity correction enabled: false
Boxcar width: 0
XAxis mode: Wavelengths
Number of Pixels in Spectrum: 3648
>>>>>Begin Spectral Data<<<<<
179.588	-0
179.809	-0
180.03	-0
180.251	-0
180.473	-0
180.694	0
180.915	0
181.136	-0
181.357	0
181.578	0
181.799	0
182.02	-0
182.241	0
182.462	0
182.683	0
182.904	-0
183.125	-0
183.346	0
183.567	0
183.788	0
184.009	0
184.23	0
184.451	0
184.672	0
184.892	0
185.113	0
185.334	0
185.555	0
185.776	0
185.996	0
186.217	0
186.438	0
186.659	0
186.879	0
187.1	0
187.321	0
187.541	0
187.762	0
187.983	0
188.203	0
188.424	0
188.644	0
188.865	0
189.086	0
189.306	0
189.527	0
189.747	0
189.968	0
190.188	0
190.409	0
190.629	0
190.849	0
191.07	0
191.29	0
191.511	0
191.731	0
191.951	0
192.172	0
192.392	0
192.612	0
192.833	0
193.053	0
193.273	0
193.493	0
193.714	0
193.934	0
194.154	0
194.374	0
194.594	0
194.815	0
195.035	0
195.255	0
195.475	0
195.695	0
195.915	0
196.135	0
196.355	0
196.575	0
196.795	0
197.015	0
197.235	0
197.455	0
197.675	0
197.895	0
198.115	0
198.335	0
198.555	0
198.775	0
198.995	0
199.214	0
199.434	0
199.654	0
199.874	0
200.094	3.62
200.313	2.25
200.533	2.31
200.753	1.55
200.973	3.72
201.192	2.82
201.412	1.13
201.632	2.12
201.851	3.05
202.071	2.31
202.291	1.86
202.51	1.61
202.73	2.59
202.95	1.93
203.169	1.82
203.389	1.76
203.608	1.77
203.828	1.81
204.047	1.69
204.267	2.47
204.486	1.63
204.706	2.29
204.925	1.97
205.145	1.41
205.364	2.11
205.583	2.58
205.803	1.51
206.022	1.19
206.242	1.79
206.461	1.87
206.68	1.38
206.9	1.71
207.119	2.3
207.338	2.17
207.557	1.52
207.777	1.16
207.996	1.16
208.215	2.46
208.434	1.09
208.654	0.95
208.873	1.52
209.092	1.79
209.311	1.2
209.53	1.13
209.749	1.06
209.968	0.91
210.187	1.31
210.407	0.85
210.626	1.14
210.845	1.44
211.064	1.09
211.283	1.02
211.502	1.61
211.721	1.28
211.94	1.29
212.159	1.23
212.377	1.39
212.596	1.66
212.815	1.13
213.034	1.33
213.253	1.43
213.472	1.35
213.691	1.06
213.91	0.74
214.128	0.92
214.347	1.5
214.566	0.82
214.785	0.7
215.003	1.17
215.222	1.13
215.441	0.94
215.66	0.6
215.878	1.07
216.097	1.22
216.316	0.85
216.534	1.07
216.753	1.07
216.972	0.79
217.19	0.9
217.409	0.81
217.627	0.81
217.846	0.76
218.064	0.94
218.283	0.55
218.501	1.4
218.72	1.02
218.938	0.79
219.157	0.72
219.375	0.94
219.594	0.81
219.812	0.6
220.031	0.58
220.249	1.21
220.467	1.11
220.686	0.75
220.904	0.53
221.122	0.64
221.341	0.98
221.559	0.74
221.777	0.43
221.995	0.87
222.214	0.73
222.432	0.77
222.65	0.87
222.868	0.67
223.086	0.81
223.305	1.07
223.523	0.65
223.741	1.03
223.959	0.51
224.177	0.47
224.395	0.62
224.613	0.63
224.831	0.85
225.049	0.5
225.267	0.79
225.485	0.81
225.703	0.79
225.921	0.56
226.139	0.65
226.357	0.77
226.575	0.73
226.793	0.63
227.011	1.48
227.229	0.74
227.447	0.89
227.665	0.37
227.883	0.38
228.1	0.73
228.318	0.73
228.536	0.31
228.754	0.53
228.972	0.73
229.189	0.68
229.407	0.64
229.625	0.62
229.843	0.86
230.06	0.68
230.278	0.53
230.496	0.49
230.713	0.74
230.931	0.8
231.149	0.58
231.366	0.47
231.584	0.59
231.801	0.94
232.019	0.53
232.236	0.45
232.454	0.51
232.671	0.68
232.889	0.56
233.106	0.5
233.324	0.52
233.541	0.57
233.759	0.48
233.976	0.48
234.194	0.53
234.411	0.46
234.628	0.4
234.846	0.45
235.063	0.51
235.28	0.56
235.498	0.5
235.715	0.47
235.932	0.76
236.149	0.61
236.367	0.45
236.584	0.51
236.801	0.5
237.018	0.55
237.236	0.49
237.453	0.31
237.67	0.6
237.887	0.47
238.104	0.42
238.321	0.37
238.538	0.35
238.755	0.68
238.973	0.36
239.19	0.51
239.407	0.56
239.624	0.58
239.841	0.41
240.058	0.38
240.275	0.57
240.492	0.48
240.709	0.53
240.925	0.55
241.142	0.47
241.359	0.35
241.576	0.37
241.793	0.38
242.01	0.53
242.227	0.61
242.444	0.57
242.66	0.49
242.877	0.49
243.094	0.37
243.311	0.43
243.527	0.46
243.744	0.46
243.961	0.55
244.178	0.42
244.394	0.36
244.611	0.64
244.828	0.68
245.044	0.34
245.261	0.45
245.477	0.57
245.694	0.48
245.911	0.37
246.127	0.45
246.344	0.59
246.56	0.49
246.777	0.37
246.993	0.46
247.21	0.48
247.426	0.49
247.643	0.41
247.859	0.29
248.076	0.42
248.292	0.68
248.508	0.37
248.725	0.41
248.941	0.52
249.157	0.56
249.374	0.33
249.59	0.39
249.806	0.41
250.023	0.5
250.239	0.3
250.455	0.42
250.671	0.47
250.888	0.48
251.104	0.47
251.32	0.35
251.536	0.43
251.752	0.43
251.969	0.43
252.185	0.39
252.401	0.57
252.617	0.41
252.833	0.4
253.049	0.37
253.265	0.44
253.481	0.48
253.697	0.34
253.913	0.35
254.129	0.46
254.345	0.43
254.561	0.33
254.777	0.36
254.993	0.55
255.209	0.47
255.425	0.41
255.641	0.36
255.857	0.42
256.073	0.43
256.288	0.34
256.504	0.37
256.72	0.47
256.936	0.58
257.152	0.39
257.367	0.26
257.583	0.4
257.799	0.45
258.015	0.34
258.23	0.3
258.446	0.49
258.662	0.36
258.877	0.33
259.093	0.3
259.309	0.39
259.524	0.46
259.74	0.39
259.955	0.31
260.171	0.45
260.387	0.36
260.602	0.42
260.818	0.41
261.033	0.27
261.249	0.32
261.464	0.34
261.68	0.3
261.895	0.33
262.11	0.46
262.326	0.36
262.541	0.23
262.757	0.42
262.972	0.38
263.187	0.35
263.403	0.37
263.618	0.46
263.833	0.31
264.049	0.32
264.264	0.35
264.479	0.46
264.694	0.48
264.91	0.3
265.125	0.34
265.34	0.47
265.555	0.6
265.77	0.37
265.986	0.38
266.201	0.41
266.416	0.39
266.631	0.35
266.846	0.32
267.061	0.41
267.276	0.4
267.491	0.13
267.706	0.34
267.921	0.42
268.136	0.31
268.351	0.37
268.566	0.25
268.781	0.45
268.996	0.46
269.211	0.38
269.426	0.28
269.641	0.29
269.856	0.41
270.071	0.31
270.285	0.26
270.5	0.41
270.715	0.41
270.93	0.38
271.145	0.35
271.359	0.43
271.574	0.33
271.789	0.32
272.004	0.37
272.218	0.32
272.433	0.37
272.648	0.24
272.862	0.37
273.077	0.29
273.292	0.34
273.506	0.27
273.721	0.32
273.936	0.35
274.15	0.41
274.365	0.29
274.579	0.38
274.794	0.41
275.008	0.33
275.223	0.25
275.437	0.32
275.652	0.47
275.866	0.37
276.081	0.34
276.295	0.44
276.509	0.3
276.724	0.35
276.938	0.32
277.153	0.29
277.367	0.37
277.581	0.29
277.796	0.33
278.01	0.25
278.224	0.4
278.438	0.51
278.653	0.31
278.867	0.29
279.081	0.4
279.295	0.29
279.51	0.31
279.724	0.21
279.938	0.32
280.152	0.34
280.366	0.28
280.58	0.29
280.794	0.4
281.008	0.31
281.222	0.34
281.437	0.43
281.651	0.33
281.865	0.41
282.079	0.24
282.293	0.21
282.507	0.29
282.721	0.32
282.935	0.3
283.148	0.25
283.362	0.28
283.576	0.23
283.79	0.28
284.004	0.27
284.218	0.39
284.432	0.23
284.646	0.32
284.859	0.27
285.073	0.32
285.287	0.29
285.501	0.3
285.714	0.3
285.928	0.31
286.142	0.33
286.356	0.28
286.569	0.27
286.783	0.41
286.997	0.34
287.21	0.35
287.424	0.33
287.637	0.32
287.851	0.3
288.065	0.34
288.278	0.31
288.492	0.26
288.705	0.23
288.919	0.32
289.132	0.24
289.346	0.29
289.559	0.2
289.773	0.21
289.986	0.25
290.2	0.28
290.413	0.37
290.626	0.26
290.84	0.31
291.053	0.32
291.267	0.3
291.48	0.27
291.693	0.28
291.906	0.23
292.12	0.27
292.333	0.28
292.546	0.26
292.76	0.37
292.973	0.27
293.186	0.29
293.399	0.25
293.612	0.31
293.826	0.28
294.039	0.28
294.252	0.26
294.465	0.31
294.678	0.27
294.891	0.27
295.104	0.24
295.317	0.26
295.53	0.29
295.743	0.24
295.956	0.25
296.169	0.32
296.382	0.3
296.595	0.25
296.808	0.2
297.021	0.35
297.234	0.33
297.447	0.27
297.66	0.3
297.873	0.34
298.086	0.26
298.299	0.17
298.511	0.19
298.724	0.28
298.937	0.21
299.15	0.22
299.363	0.26
299.575	0.34
299.788	0.3
300.001	0.24
300.213	0.28
300.426	0.2
300.639	0.18
300.852	0.22
301.064	0.34
301.277	0.35
301.489	0.3
301.702	0.27
301.915	0.28
302.127	0.28
302.34	0.28
302.552	0.32
302.765	0.19
302.977	0.31
303.19	0.2
303.402	0.27
303.615	0.24
303.827	0.22
304.04	0.23
304.252	0.3
304.464	0.23
304.677	0.4
304.889	0.28
305.102	0.23
305.314	0.24
305.526	0.3
305.739	0.27
305.951	0.2
306.163	0.21
306.375	0.34
306.588	0.26
306.8	0.2
307.012	0.2
307.224	0.3
307.436	0.34
307.649	0.21
307.861	0.23
308.073	0.28
308.285	0.26
308.497	0.23
308.709	0.22
308.921	0.32
309.133	0.3
309.346	0.25
309.558	0.27
309.77	0.25
309.982	0.3
310.194	0.26
310.406	0.24
310.617	0.3
310.829	0.32
311.041	0.26
311.253	0.23
311.465	0.26
311.677	0.24
311.889	0.25
312.101	0.23
312.313	0.27
312.524	0.28
312.736	0.27
312.948	0.26
313.16	0.35
313.372	0.28
313.583	0.27
313.795	0.25
314.007	0.24
314.218	0.3
314.43	0.29
314.642	0.24
314.853	0.19
315.065	0.28
315.277	0.27
315.488	0.27
315.7	0.34
315.912	0.26
316.123	0.23
316.335	0.24
316.546	0.31
316.758	0.26
316.969	0.22
317.181	0.28
317.392	0.25
317.604	0.31
317.815	0.23
318.026	0.19
318.238	0.23
318.449	0.27
318.661	0.19
318.872	0.2
319.083	0.23
319.295	0.29
319.506	0.21
319.717	0.25
319.929	0.26
320.14	0.24
320.351	0.31
320.562	0.22
320.774	0.27
320.985	0.27
321.196	0.17
321.407	0.2
321.618	0.3
321.829	0.29
322.041	0.26
322.252	0.23
322.463	0.27
322.674	0.28
322.885	0.21
323.096	0.24
323.307	0.24
323.518	0.28
323.729	0.25
323.94	0.27
324.151	0.21
324.362	0.23
324.573	0.24
324.784	0.23
324.995	0.32
325.206	0.31
325.417	0.27
325.628	0.24
325.838	0.28
326.049	0.28
326.26	0.25
326.471	0.19
326.682	0.29
326.892	0.3
327.103	0.16
327.314	0.21
327.525	0.34
327.735	0.29
327.946	0.22
328.157	0.23
328.368	0.28
328.578	0.19
328.789	0.35
328.999	0.27
329.21	0.25
329.421	0.33
329.631	0.23
329.842	0.22
330.052	0.26
330.263	0.28
330.473	0.3
330.684	0.21
330.894	0.25
331.105	0.29
331.315	0.25
331.526	0.17
331.736	0.36
331.947	0.26
332.157	0.29
332.367	0.18
332.578	0.25
332.788	0.29
332.999	0.26
333.209	0.28
333.419	0.2
333.629	0.3
333.84	0.29
334.05	0.27
334.26	0.31
334.47	0.31
334.681	0.29
334.891	0.26
335.101	0.33
335.311	0.37
335.521	0.27
335.732	0.2
335.942	0.3
336.152	0.26
336.362	0.26
336.572	0.27
336.782	0.27
336.992	0.27
337.202	0.18
337.412	0.21
337.622	0.27
337.832	0.26
338.042	0.27
338.252	0.2
338.462	0.23
338.672	0.29
338.882	0.23
339.092	0.26
339.302	0.33
339.511	0.3
339.721	0.26
339.931	0.2
340.141	0.34
340.351	0.31
340.561	0.25
340.77	0.24
340.98	0.22
341.19	0.26
341.4	0.23
341.609	0.23
341.819	0.24
342.029	0.21
342.238	0.28
342.448	0.24
342.658	0.29
342.867	0.29
343.077	0.25
343.286	0.24
343.496	0.26
343.706	0.28
343.915	0.19
344.125	0.25
344.334	0.29
344.544	0.2
344.753	0.25
344.963	0.24
345.172	0.2
345.381	0.22
345.591	0.22
345.8	0.23
346.01	0.35
346.219	0.27
346.428	0.11
346.638	0.24
346.847	0.24
347.056	0.34
347.266	0.19
347.475	0.28
347.684	0.27
347.893	0.25
348.103	0.26
348.312	0.25
348.521	0.23
348.73	0.28
348.94	0.26
349.149	0.26
349.358	0.22
349.567	0.23
349.776	0.17
349.985	0.2
350.194	0.35
350.403	0.29
350.612	0.16
350.821	0.18
351.03	0.27
351.239	0.2
351.448	0.24
351.657	0.23
351.866	0.32
352.075	0.21
352.284	0.32
352.493	0.22
352.702	0.31
352.911	0.27
353.12	0.24
353.329	0.24
353.538	0.24
353.746	0.25
353.955	0.26
354.164	0.27
354.373	0.21
354.582	0.23
354.79	0.24
354.999	0.24
355.208	0.29
355.416	0.29
355.625	0.18
355.834	0.23
356.042	0.27
356.251	0.26
356.46	0.22
356.668	0.23
356.877	0.32
357.085	0.26
357.294	0.15
357.503	0.28
357.711	0.21
357.92	0.39
358.128	0.25
358.337	0.21
358.545	0.28
358.754	0.25
358.962	0.28
359.17	0.24
359.379	0.26
359.587	0.31
359.796	0.26
360.004	0.33
360.212	0.27
360.421	0.33
360.629	0.25
360.837	0.26
361.046	0.26
361.254	0.37
361.462	0.28
361.67	0.26
361.879	0.29
362.087	0.31
362.295	0.26
362.503	0.25
362.711	0.17
362.92	0.23
363.128	0.23
363.336	0.21
363.544	0.21
363.752	0.24
363.96	0.23
364.168	0.19
364.376	0.28
364.584	0.26
364.792	0.26
365	0.26
365.208	0.26
365.416	0.28
365.624	0.29
365.832	0.2
366.04	0.33
366.248	0.24
366.456	0.26
366.664	0.26
366.872	0.27
367.079	0.23
367.287	0.27
367.495	0.28
367.703	0.23
367.911	0.25
368.118	0.24
368.326	0.25
368.534	0.22
368.742	0.33
368.949	0.16
369.157	0.24
369.365	0.28
369.572	0.19
369.78	0.19
369.988	0.31
370.195	0.26
370.403	0.28
370.61	0.19
370.818	0.25
371.026	0.32
371.233	0.22
371.441	0.25
371.648	0.26
371.856	0.25
372.063	0.27
372.271	0.24
372.478	0.25
372.685	0.22
372.893	0.27
373.1	0.26
373.308	0.25
373.515	0.33
373.722	0.31
373.93	0.25
374.137	0.29
374.344	0.31
374.552	0.3
374.759	0.31
374.966	0.21
375.173	0.27
375.381	0.33
375.588	0.17
375.795	0.17
376.002	0.25
376.209	0.21
376.417	0.27
376.624	0.25
376.831	0.28
377.038	0.24
377.245	0.18
377.452	0.23
377.659	0.28
377.866	0.2
378.073	0.23
378.28	0.25
378.487	0.26
378.694	0.28
378.901	0.25
379.108	0.27
379.315	0.31
379.522	0.36
379.729	0.28
379.936	0.25
380.143	0.27
380.35	0.32
380.557	0.29
380.763	0.24
380.97	0.3
381.177	0.31
381.384	0.31
381.591	0.21
381.797	0.29
382.004	0.3
382.211	0.27
382.418	0.26
382.624	0.32
382.831	0.31
383.038	0.25
383.244	0.24
383.451	0.27
383.658	0.3
383.864	0.23
384.071	0.23
384.277	0.35
384.484	0.26
384.69	0.35
384.897	0.22
385.103	0.25
385.31	0.24
385.516	0.24
385.723	0.22
385.929	0.31
386.136	0.26
386.342	0.29
386.549	0.26
386.755	0.35
386.961	0.34
387.168	0.24
387.374	0.32
387.58	0.35
387.787	0.3
387.993	0.35
388.199	0.29
388.406	0.26
388.612	0.28
388.818	0.23
389.024	0.26
389.231	0.27
389.437	0.38
389.643	0.3
389.849	0.27
390.055	0.26
390.261	0.3
390.467	0.34
390.674	0.25
390.88	0.31
391.086	0.36
391.292	0.28
391.498	0.35
391.704	0.34
391.91	0.3
392.116	0.29
392.322	0.24
392.528	0.32
392.734	0.27
392.94	0.28
393.146	0.28
393.352	0.31
393.557	0.27
393.763	0.3
393.969	0.34
394.175	0.27
394.381	0.33
394.587	0.3
394.792	0.3
394.998	0.36
395.204	0.37
395.41	0.32
395.615	0.32
395.821	0.34
396.027	0.32
396.233	0.29
396.438	0.35
396.644	0.39
396.85	0.37
397.055	0.33
397.261	0.34
397.466	0.31
397.672	0.34
397.878	0.36
398.083	0.4
398.289	0.29
398.494	0.4
398.7	0.37
398.905	0.27
399.111	0.39
399.316	0.3
399.522	0.38
399.727	0.36
399.932	0.36
400.138	0.4
400.343	0.35
400.549	0.31
400.754	0.39
400.959	0.37
401.165	0.34
401.37	0.36
401.575	0.34
401.78	0.38
401.986	0.38
402.191	0.36
402.396	0.39
402.601	0.43
402.807	0.4
403.012	0.36
403.217	0.43
403.422	0.41
403.627	0.4
403.832	0.37
404.037	0.47
404.243	0.43
404.448	0.37
404.653	0.4
404.858	0.44
405.063	0.45
405.268	0.42
405.473	0.44
405.678	0.4
405.883	0.62
406.088	0.54
406.293	0.4
406.498	0.46
406.703	0.54
406.907	0.48
407.112	0.43
407.317	0.51
407.522	0.55
407.727	0.51
407.932	0.55
408.136	0.63
408.341	0.57
408.546	0.63
408.751	0.53
408.956	0.59
409.16	0.62
409.365	0.6
409.57	0.63
409.774	0.64
409.979	0.68
410.184	0.66
410.388	0.62
410.593	0.78
410.798	0.73
411.002	0.75
411.207	0.82
411.411	0.79
411.616	0.72
411.82	0.85
412.025	0.88
412.229	0.85
412.434	0.99
412.638	0.9
412.843	0.91
413.047	0.96
413.252	0.92
413.456	1.02
413.66	1.08
413.865	1.04
414.069	1.18
414.273	1.11
414.478	1.14
414.682	1.17
414.886	1.21
415.091	1.19
415.295	1.22
415.499	1.4
415.703	1.41
415.908	1.51
416.112	1.36
416.316	1.59
416.52	1.57
416.724	1.59
416.929	1.66
417.133	1.87
417.337	1.7
417.541	1.81
417.745	1.92
417.949	1.98
418.153	2.07
418.357	2.09
418.561	2.3
418.765	2.24
418.969	2.38
419.173	2.44
419.377	2.45
419.581	2.62
419.785	2.7
419.989	2.59
420.193	2.82
420.397	2.87
420.601	3.05
420.804	3.14
421.008	3.18
421.212	3.33
421.416	3.26
421.62	3.35
421.823	3.41
422.027	3.59
422.231	3.53
422.435	3.51
422.638	3.6
422.842	3.75
423.046	3.84
423.249	3.99
423.453	4.02
423.657	4.17
423.86	4.3
424.064	4.38
424.268	4.57
424.471	4.53
424.675	4.76
424.878	4.85
425.082	4.95
425.285	5.27
425.489	5.15
425.692	5.37
425.896	5.27
426.099	5.5
426.303	5.65
426.506	5.86
426.71	5.92
426.913	6.25
427.116	6.35
427.32	6.37
427.523	6.46
427.726	6.76
427.93	6.88
428.133	7.24
428.336	7.33
428.54	7.47
428.743	7.66
428.946	8
429.149	8.01
429.353	7.92
429.556	7.99
429.759	8.08
429.962	8.41
430.165	8.42
430.368	8.13
430.571	8.17
430.775	8.21
430.978	8.24
431.181	8.22
431.384	8.31
431.587	8.45
431.79	8.8
431.993	8.66
432.196	9.05
432.399	9.35
432.602	9.48
432.805	9.74
433.008	9.99
433.211	10.1
433.414	10.3
433.616	10.38
433.819	10.33
434.022	10.57
434.225	10.7
434.428	10.66
434.631	11.13
434.833	10.92
435.036	11.13
435.239	11.35
435.442	11.4
435.645	11.58
435.847	11.69
436.05	11.98
436.253	12.16
436.455	12.17
436.658	12.03
436.861	12.31
437.063	12.56
437.266	12.5
437.468	12.8
437.671	13.26
437.874	13.2
438.076	13.06
438.279	13.52
438.481	13.58
438.684	14.33
438.886	13.97
439.089	14.25
439.291	14.11
439.494	14.62
439.696	14.79
439.899	15.25
440.101	15.83
440.303	15.91
440.506	16.59
440.708	16.36
440.91	16.53
441.113	16.82
441.315	17.21
441.517	16.96
441.72	17.37
441.922	16.99
442.124	16.89
442.326	17.3
442.529	17.59
442.731	17.53
442.933	17.79
443.135	17.35
443.337	17.51
443.539	18.2
443.742	17.69
443.944	18.6
444.146	18.28
444.348	18.19
444.55	18
444.752	18.22
444.954	18.36
445.156	18.25
445.358	18.57
445.56	18.86
445.762	18.55
445.964	19.01
446.166	18.63
446.368	18.75
446.57	18.76
446.772	18.34
446.974	18.09
447.175	18.36
447.377	18
447.579	18.63
447.781	18.17
447.983	17.8
448.184	17.45
448.386	17.96
448.588	17.35
448.79	17.22
448.991	17.57
449.193	17.52
449.395	16.92
449.597	16.45
449.798	16.41
450	15.98
450.202	15.8
450.403	15.87
450.605	15.83
450.806	15.31
451.008	15.23
451.21	15.03
451.411	14.64
451.613	13.9
451.814	14.15
452.016	13.92
452.217	13.33
452.419	13.27
452.62	13.06
452.821	12.69
453.023	12.66
453.224	12.22
453.426	11.95
453.627	11.02
453.828	11.23
454.03	11.28
454.231	11.34
454.432	11.15
454.634	10.83
454.835	10.52
455.036	10.44
455.238	9.99
455.439	9.82
455.64	9.54
455.841	9.37
456.042	9.56
456.244	9.24
456.445	8.91
456.646	8.59
456.847	8.54
457.048	8.43
457.249	8.56
457.45	8.17
457.651	7.76
457.852	7.47
458.054	7.23
458.255	7.18
458.456	7.26
458.657	7.09
458.858	6.66
459.058	6.59
459.259	6.67
459.46	6.38
459.661	6.33
459.862	6.39
460.063	6.35
460.264	6.25
460.465	6.03
460.666	6.01
460.866	5.71
461.067	5.45
461.268	5.55
461.469	5.49
461.67	5.39
461.87	5.29
462.071	5.28
462.272	5.07
462.473	5.02
462.673	5.23
462.874	5.11
463.075	5.1
463.275	5.1
463.476	5.09
463.676	5.07
463.877	4.9
464.078	4.86
464.278	4.85
464.479	4.82
464.679	4.67
464.88	4.68
465.08	4.6
465.281	4.56
465.481	4.31
465.682	4.07
465.882	4.09
466.083	4.08
466.283	3.96
466.483	3.86
466.684	3.71
466.884	3.61
467.085	3.67
467.285	3.79
467.485	3.54
467.686	3.49
467.886	3.37
468.086	3.41
468.286	3.31
468.487	3.46
468.687	3.27
468.887	3.2
469.087	3.39
469.287	3.22
469.488	3.02
469.688	3.13
469.888	3.21
470.088	3.12
470.288	3.1
470.488	3.02
470.688	2.79
470.888	2.8
471.088	2.68
471.288	2.78
471.488	2.75
471.688	2.73
471.888	2.68
472.088	2.83
472.288	2.69
472.488	2.57
472.688	2.52
472.888	2.6
473.088	2.5
473.288	2.42
473.488	2.43
473.688	2.63
473.887	2.45
474.087	2.46
474.287	2.46
474.487	2.33
474.687	2.4
474.886	2.35
475.086	2.33
475.286	2.3
475.486	2.23
475.685	2.26
475.885	2.23
476.085	2.27
476.284	2.21
476.484	2.25
476.684	2.17
476.883	2.26
477.083	2.19
477.282	2.09
477.482	2.13
477.681	2.11
477.881	2.04
478.08	2.1
478.28	2.05
478.479	2.1
478.679	2.09
478.878	2.03
479.078	2.01
479.277	2.1
479.477	2.04
479.676	1.95
479.875	1.97
480.075	2
480.274	2.03
480.473	2.04
480.673	2
480.872	2.03
481.071	2
481.271	2.03
481.47	1.98
481.669	1.99
481.868	1.98
482.067	2.02
482.267	1.91
482.466	1.9
482.665	1.94
482.864	1.93
483.063	1.95
483.262	1.96
483.461	2.04
483.661	2.06
483.86	2
484.059	2.07
484.258	2
484.457	2
484.656	1.99
484.855	2.07
485.054	1.91
485.253	1.93
485.452	1.97
485.651	2.02
485.849	2
486.048	2.03
486.247	2.02
486.446	2.11
486.645	2.03
486.844	2.06
487.043	2.1
487.241	2.08
487.44	2.08
487.639	2.14
487.838	2.09
488.037	2.1
488.235	2.16
488.434	2.16
488.633	2.06
488.831	2.24
489.03	2.23
489.229	2.18
489.427	2.19
489.626	2.26
489.825	2.22
490.023	2.31
490.222	2.25
490.42	2.33
490.619	2.35
490.817	2.35
491.016	2.36
491.214	2.4
491.413	2.43
491.611	2.39
491.81	2.36
492.008	2.44
492.207	2.55
492.405	2.51
492.604	2.46
492.802	2.53
493	2.6
493.199	2.59
493.397	2.63
493.595	2.7
493.794	2.66
493.992	2.77
494.19	2.75
494.388	2.77
494.587	2.74
494.785	2.75
494.983	2.75
495.181	2.85
495.379	2.88
495.578	2.9
495.776	2.95
495.974	2.9
496.172	2.94
496.37	3.07
496.568	3.1
496.766	3.05
496.964	3.16
497.162	3.18
497.36	3.22
497.558	3.21
497.756	3.32
497.954	3.28
498.152	3.35
498.35	3.42
498.548	3.35
498.746	3.4
498.944	3.4
499.142	3.42
499.34	3.49
499.538	3.61
499.736	3.47
499.933	3.61
500.131	3.61
500.329	3.78
500.527	3.72
500.725	3.85
500.922	3.9
501.12	3.84
501.318	3.97
501.516	3.93
501.713	4.04
501.911	3.98
502.109	3.93
502.306	4.09
502.504	4.02
502.701	4.08
502.899	4.17
