Data from Apollo_Calib_20240827__AbsoluteIrradiance__751__11-40-01-449.txt Node

Date: Wed Aug 28 11:40:01 BST 2024
User: biology
Spectrometer: FLMT08252
Trigger mode: 0
Integration Time (sec): 5.000000E-1
Scans to average: 5
Electric dark correction enabled: true
Nonlinearity correction enabled: false
Boxcar width: 0
XAxis mode: Wavelengths
Number of Pixels in Spectrum: 3648
>>>>>Begin Spectral Data<<<<<
179.588	-0
179.809	-0
180.03	-0
180.251	-0
180.473	-0
180.694	0
180.915	0
181.136	-0
181.357	0
181.578	-0
181.799	-0
182.02	0
182.241	0
182.462	-0
182.683	0
182.904	-0
183.125	-0
183.346	0
183.567	0
183.788	0
184.009	0
184.23	0
184.451	0
184.672	0
184.892	0
185.113	0
185.334	0
185.555	0
185.776	0
185.996	0
186.217	0
186.438	0
186.659	0
186.879	0
187.1	0
187.321	0
187.541	0
187.762	0
187.983	0
188.203	0
188.424	0
188.644	0
188.865	0
189.086	0
189.306	0
189.527	0
189.747	0
189.968	0
190.188	0
190.409	0
190.629	0
190.849	0
191.07	0
191.29	0
191.511	0
191.731	0
191.951	0
192.172	0
192.392	0
192.612	0
192.833	0
193.053	0
193.273	0
193.493	0
193.714	0
193.934	0
194.154	0
194.374	0
194.594	0
194.815	0
195.035	0
195.255	0
195.475	0
195.695	0
195.915	0
196.135	0
196.355	0
196.575	0
196.795	0
197.015	0
197.235	0
197.455	0
197.675	0
197.895	0
198.115	0
198.335	0
198.555	0
198.775	0
198.995	0
199.214	0
199.434	0
199.654	0
199.874	0
200.094	2.59
200.313	0.76
200.533	0.85
200.753	0.68
200.973	2.67
201.192	2.14
201.412	0.08
201.632	1.27
201.851	2.8
202.071	0.97
202.291	0.93
202.51	0.67
202.73	2.3
202.95	1.22
203.169	0.5
203.389	0.98
203.608	1.55
203.828	0.87
204.047	0.92
204.267	1.56
204.486	1.06
204.706	1.44
204.925	0.69
205.145	0.88
205.364	1.32
205.583	1.8
205.803	0.87
206.022	0.67
206.242	1.1
206.461	1.18
206.68	0.52
206.9	1.12
207.119	1.65
207.338	1.58
207.557	0.54
207.777	0.67
207.996	1
208.215	1.63
208.434	0.56
208.654	0.42
208.873	0.72
209.092	1.43
209.311	0.69
209.53	0.43
209.749	0.88
209.968	0.7
210.187	0.59
210.407	0.37
210.626	0.81
210.845	0.97
211.064	0.59
211.283	0.26
211.502	0.82
211.721	0.74
211.94	0.64
212.159	0.89
212.377	1.22
212.596	1.26
212.815	0.77
213.034	0.76
213.253	0.99
213.472	0.79
213.691	0.34
213.91	0.34
214.128	0.4
214.347	1.1
214.566	0.4
214.785	0.3
215.003	0.86
215.222	0.77
215.441	0.47
215.66	0.16
215.878	0.51
216.097	0.69
216.316	0.43
216.534	0.51
216.753	0.56
216.972	0.51
217.19	0.51
217.409	0.41
217.627	0.37
217.846	0.46
218.064	0.71
218.283	0.37
218.501	0.98
218.72	0.75
218.938	0.39
219.157	0.33
219.375	0.77
219.594	0.64
219.812	0.22
220.031	0.25
220.249	0.93
220.467	0.74
220.686	0.28
220.904	0.15
221.122	0.4
221.341	0.79
221.559	0.5
221.777	0.12
221.995	0.54
222.214	0.59
222.432	0.4
222.65	0.6
222.868	0.45
223.086	0.62
223.305	0.46
223.523	0.44
223.741	0.87
223.959	0.42
224.177	0.2
224.395	0.32
224.613	0.53
224.831	0.65
225.049	0.21
225.267	0.43
225.485	0.38
225.703	0.44
225.921	0.29
226.139	0.27
226.357	0.58
226.575	0.47
226.793	0.4
227.011	1.21
227.229	0.39
227.447	0.57
227.665	0.32
227.883	0.1
228.1	0.41
228.318	0.53
228.536	0.16
228.754	0.32
228.972	0.52
229.189	0.56
229.407	0.25
229.625	0.28
229.843	0.68
230.06	0.39
230.278	0.26
230.496	0.36
230.713	0.45
230.931	0.52
231.149	0.29
231.366	0.04
231.584	0.35
231.801	0.78
232.019	0.35
232.236	0.18
232.454	0.08
232.671	0.43
232.889	0.44
233.106	0.19
233.324	0.44
233.541	0.36
233.759	0.25
233.976	0.17
234.194	0.36
234.411	0.41
234.628	0.2
234.846	0.17
235.063	0.45
235.28	0.34
235.498	0.36
235.715	0.19
235.932	0.5
236.149	0.33
236.367	0.12
236.584	0.34
236.801	0.22
237.018	0.37
237.236	0.27
237.453	0.09
237.67	0.46
237.887	0.21
238.104	0.33
238.321	0.2
238.538	0.19
238.755	0.52
238.973	0.08
239.19	0.28
239.407	0.43
239.624	0.26
239.841	0.07
240.058	0.23
240.275	0.39
240.492	0.31
240.709	0.22
240.925	0.28
241.142	0.3
241.359	0.2
241.576	0.19
241.793	0.15
242.01	0.26
242.227	0.45
242.444	0.42
242.66	0.47
242.877	0.41
243.094	0.3
243.311	0.34
243.527	0.32
243.744	0.33
243.961	0.33
244.178	0.21
244.394	0.27
244.611	0.5
244.828	0.5
245.044	0.2
245.261	0.23
245.477	0.32
245.694	0.34
245.911	0.22
246.127	0.32
246.344	0.51
246.56	0.34
246.777	0.24
246.993	0.17
247.21	0.34
247.426	0.42
247.643	0.17
247.859	0.21
248.076	0.21
248.292	0.45
248.508	0.19
248.725	0.37
248.941	0.39
249.157	0.46
249.374	0.2
249.59	0.26
249.806	0.29
250.023	0.45
250.239	0.19
250.455	0.12
250.671	0.23
250.888	0.32
251.104	0.32
251.32	0.19
251.536	0.31
251.752	0.19
251.969	0.3
252.185	0.21
252.401	0.46
252.617	0.33
252.833	0.22
253.049	0.28
253.265	0.28
253.481	0.29
253.697	0.16
253.913	0.16
254.129	0.28
254.345	0.29
254.561	0.15
254.777	0.21
254.993	0.28
255.209	0.25
255.425	0.18
255.641	0.19
255.857	0.33
256.073	0.3
256.288	0.1
256.504	0.21
256.72	0.28
256.936	0.4
257.152	0.22
257.367	0.18
257.583	0.24
257.799	0.32
258.015	0.13
258.23	0.24
258.446	0.43
258.662	0.26
258.877	0.14
259.093	0.16
259.309	0.21
259.524	0.29
259.74	0.12
259.955	0.16
260.171	0.26
260.387	0.25
260.602	0.25
260.818	0.27
261.033	0.19
261.249	0.21
261.464	0.16
261.68	0.11
261.895	0.24
262.11	0.33
262.326	0.2
262.541	0.12
262.757	0.34
262.972	0.31
263.187	0.21
263.403	0.23
263.618	0.33
263.833	0.25
264.049	0.17
264.264	0.27
264.479	0.19
264.694	0.42
264.91	0.15
265.125	0.19
265.34	0.28
265.555	0.42
265.77	0.21
265.986	0.18
266.201	0.35
266.416	0.31
266.631	0.16
266.846	0.15
267.061	0.3
267.276	0.35
267.491	0.02
267.706	0.22
267.921	0.28
268.136	0.2
268.351	0.18
268.566	0.12
268.781	0.34
268.996	0.36
269.211	0.26
269.426	0.16
269.641	0.2
269.856	0.36
270.071	0.17
270.285	0.13
270.5	0.28
270.715	0.21
270.93	0.17
271.145	0.19
271.359	0.27
271.574	0.2
271.789	0.16
272.004	0.2
272.218	0.19
272.433	0.21
272.648	0.14
272.862	0.27
273.077	0.22
273.292	0.26
273.506	0.2
273.721	0.12
273.936	0.26
274.15	0.3
274.365	0.13
274.579	0.25
274.794	0.21
275.008	0.31
275.223	0.03
275.437	0.2
275.652	0.29
275.866	0.21
276.081	0.17
276.295	0.25
276.509	0.22
276.724	0.22
276.938	0.19
277.153	0.19
277.367	0.25
277.581	0.18
277.796	0.14
278.01	0.11
278.224	0.26
278.438	0.32
278.653	0.12
278.867	0.09
279.081	0.03
279.295	0.21
279.51	0.22
279.724	0.15
279.938	0.22
280.152	0.16
280.366	0.14
280.58	0.19
280.794	0.32
281.008	0.29
281.222	0.2
281.437	0.36
281.651	0.2
281.865	0.32
282.079	0.17
282.293	0.08
282.507	0.15
282.721	0.16
282.935	0.18
283.148	0.09
283.362	0.13
283.576	0.1
283.79	0.18
284.004	0.14
284.218	0.31
284.432	0.11
284.646	0.15
284.859	0.16
285.073	0.12
285.287	0.23
285.501	0.17
285.714	0.18
285.928	0.17
286.142	0.22
286.356	0.15
286.569	0.15
286.783	0.28
286.997	0.27
287.21	0.21
287.424	0.17
287.637	0.21
287.851	0.12
288.065	0.22
288.278	0.1
288.492	0.23
288.705	0.16
288.919	0.22
289.132	0.08
289.346	0.22
289.559	0.13
289.773	0.12
289.986	0.16
290.2	0.17
290.413	0.25
290.626	0.15
290.84	0.17
291.053	0.21
291.267	0.27
291.48	0.16
291.693	0.19
291.906	0.14
292.12	0.19
292.333	0.15
292.546	0.15
292.76	0.28
292.973	0.18
293.186	0.21
293.399	0.13
293.612	0.26
293.826	0.18
294.039	0.16
294.252	0.13
294.465	0.26
294.678	0.17
294.891	0.18
295.104	0.11
295.317	0.17
295.53	0.16
295.743	0.16
295.956	0.2
296.169	0.25
296.382	0.22
296.595	0.13
296.808	0.08
297.021	0.28
297.234	0.21
297.447	0.14
297.66	0.18
297.873	0.23
298.086	0.22
298.299	0.11
298.511	0.1
298.724	0.15
298.937	0.11
299.15	0.11
299.363	0.17
299.575	0.21
299.788	0.18
300.001	0.12
300.213	0.18
300.426	0.18
300.639	0.16
300.852	0.14
301.064	0.2
301.277	0.27
301.489	0.19
301.702	0.19
301.915	0.12
302.127	0.16
302.34	0.15
302.552	0.21
302.765	0.13
302.977	0.25
303.19	0.2
303.402	0.15
303.615	0.11
303.827	0.19
304.04	0.18
304.252	0.2
304.464	0.12
304.677	0.27
304.889	0.21
305.102	0.13
305.314	0.14
305.526	0.21
305.739	0.2
305.951	0.14
306.163	0.14
306.375	0.23
306.588	0.16
306.8	0.12
307.012	0.08
307.224	0.16
307.436	0.25
307.649	0.07
307.861	0.15
308.073	0.19
308.285	0.14
308.497	0.11
308.709	0.14
308.921	0.17
309.133	0.17
309.346	0.15
309.558	0.17
309.77	0.21
309.982	0.23
310.194	0.23
310.406	0.11
310.617	0.25
310.829	0.2
311.041	0.2
311.253	0.13
311.465	0.14
311.677	0.18
311.889	0.17
312.101	0.15
312.313	0.21
312.524	0.25
312.736	0.07
312.948	0.1
313.16	0.27
313.372	0.24
313.583	0.17
313.795	0.13
314.007	0.08
314.218	0.22
314.43	0.17
314.642	0.13
314.853	0.1
315.065	0.23
315.277	0.14
315.488	0.19
315.7	0.21
315.912	0.19
316.123	0.16
316.335	0.14
316.546	0.28
316.758	0.2
316.969	0.13
317.181	0.17
317.392	0.15
317.604	0.21
317.815	0.12
318.026	0.13
318.238	0.16
318.449	0.23
318.661	0.08
318.872	0.09
319.083	0.11
319.295	0.16
319.506	0.13
319.717	0.19
319.929	0.19
320.14	0.17
320.351	0.16
320.562	0.15
320.774	0.15
320.985	0.17
321.196	0.11
321.407	0.11
321.618	0.21
321.829	0.18
322.041	0.18
322.252	0.16
322.463	0.19
322.674	0.2
322.885	0.1
323.096	0.11
323.307	0.14
323.518	0.21
323.729	0.12
323.94	0.13
324.151	0.11
324.362	0.16
324.573	0.17
324.784	0.14
324.995	0.19
325.206	0.2
325.417	0.13
325.628	0.15
325.838	0.16
326.049	0.17
326.26	0.17
326.471	0.15
326.682	0.24
326.892	0.15
327.103	0.05
327.314	0.13
327.525	0.22
327.735	0.16
327.946	0.18
328.157	0.11
328.368	0.2
328.578	0.15
328.789	0.2
328.999	0.18
329.21	0.17
329.421	0.23
329.631	0.14
329.842	0.14
330.052	0.16
330.263	0.22
330.473	0.19
330.684	0.11
330.894	0.15
331.105	0.17
331.315	0.17
331.526	0.1
331.736	0.28
331.947	0.16
332.157	0.2
332.367	0.14
332.578	0.22
332.788	0.23
332.999	0.2
333.209	0.19
333.419	0.05
333.629	0.13
333.84	0.19
334.05	0.18
334.26	0.27
334.47	0.18
334.681	0.18
334.891	0.13
335.101	0.2
335.311	0.23
335.521	0.14
335.732	0.16
335.942	0.21
336.152	0.21
336.362	0.19
336.572	0.16
336.782	0.21
336.992	0.16
337.202	0.19
337.412	0.11
337.622	0.19
337.832	0.13
338.042	0.19
338.252	0.1
338.462	0.13
338.672	0.17
338.882	0.19
339.092	0.18
339.302	0.25
339.511	0.22
339.721	0.18
339.931	0.15
340.141	0.24
340.351	0.23
340.561	0.17
340.77	0.21
340.98	0.17
341.19	0.17
341.4	0.17
341.609	0.17
341.819	0.13
342.029	0.12
342.238	0.18
342.448	0.08
342.658	0.24
342.867	0.2
343.077	0.16
343.286	0.17
343.496	0.19
343.706	0.19
343.915	0.13
344.125	0.15
344.334	0.23
344.544	0.15
344.753	0.17
344.963	0.14
345.172	0.13
345.381	0.1
345.591	0.12
345.8	0.18
346.01	0.2
346.219	0.22
346.428	0.05
346.638	0.19
346.847	0.15
347.056	0.26
347.266	0.14
347.475	0.15
347.684	0.19
347.893	0.17
348.103	0.19
348.312	0.11
348.521	0.14
348.73	0.15
348.94	0.15
349.149	0.16
349.358	0.17
349.567	0.17
349.776	0.11
349.985	0.15
350.194	0.18
350.403	0.23
350.612	0.06
350.821	0.17
351.03	0.15
351.239	0.11
351.448	0.15
351.657	0.11
351.866	0.25
352.075	0.17
352.284	0.24
352.493	0.09
352.702	0.22
352.911	0.18
353.12	0.2
353.329	0.15
353.538	0.19
353.746	0.16
353.955	0.13
354.164	0.16
354.373	0.17
354.582	0.2
354.79	0.14
354.999	0.18
355.208	0.2
355.416	0.24
355.625	0.12
355.834	0.1
356.042	0.17
356.251	0.15
356.46	0.15
356.668	0.17
356.877	0.26
357.085	0.21
357.294	0.05
357.503	0.14
357.711	0.15
357.92	0.29
358.128	0.15
358.337	0.14
358.545	0.2
358.754	0.15
358.962	0.2
359.17	0.14
359.379	0.18
359.587	0.2
359.796	0.16
360.004	0.23
360.212	0.22
360.421	0.27
360.629	0.14
360.837	0.17
361.046	0.19
361.254	0.3
361.462	0.16
361.67	0.17
361.879	0.17
362.087	0.23
362.295	0.17
362.503	0.14
362.711	0.12
362.92	0.17
363.128	0.16
363.336	0.13
363.544	0.1
363.752	0.18
363.96	0.14
364.168	0.13
364.376	0.17
364.584	0.16
364.792	0.17
365	0.19
365.208	0.17
365.416	0.2
365.624	0.21
365.832	0.1
366.04	0.23
366.248	0.18
366.456	0.18
366.664	0.17
366.872	0.14
367.079	0.14
367.287	0.17
367.495	0.16
367.703	0.2
367.911	0.13
368.118	0.13
368.326	0.15
368.534	0.14
368.742	0.23
368.949	0.08
369.157	0.13
369.365	0.17
369.572	0.15
369.78	0.11
369.988	0.21
370.195	0.15
370.403	0.2
370.61	0.14
370.818	0.19
371.026	0.22
371.233	0.14
371.441	0.12
371.648	0.11
371.856	0.2
372.063	0.15
372.271	0.17
372.478	0.16
372.685	0.18
372.893	0.18
373.1	0.15
373.308	0.12
373.515	0.23
373.722	0.22
373.93	0.14
374.137	0.17
374.344	0.26
374.552	0.2
374.759	0.21
374.966	0.22
375.173	0.17
375.381	0.26
375.588	0.15
375.795	0.12
376.002	0.15
376.209	0.15
376.417	0.12
376.624	0.14
376.831	0.17
377.038	0.18
377.245	0.08
377.452	0.14
377.659	0.13
377.866	0.14
378.073	0.13
378.28	0.16
378.487	0.22
378.694	0.17
378.901	0.19
379.108	0.15
379.315	0.24
379.522	0.28
379.729	0.17
379.936	0.15
380.143	0.17
380.35	0.18
380.557	0.19
380.763	0.18
380.97	0.15
381.177	0.22
381.384	0.2
381.591	0.18
381.797	0.19
382.004	0.19
382.211	0.19
382.418	0.14
382.624	0.23
382.831	0.23
383.038	0.13
383.244	0.17
383.451	0.18
383.658	0.2
383.864	0.17
384.071	0.15
384.277	0.25
384.484	0.17
384.69	0.25
384.897	0.15
385.103	0.13
385.31	0.12
385.516	0.19
385.723	0.13
385.929	0.15
386.136	0.16
386.342	0.2
386.549	0.15
386.755	0.21
386.961	0.21
387.168	0.16
387.374	0.18
387.58	0.2
387.787	0.19
387.993	0.17
388.199	0.19
388.406	0.15
388.612	0.2
388.818	0.13
389.024	0.17
389.231	0.2
389.437	0.29
389.643	0.2
389.849	0.16
390.055	0.16
390.261	0.19
390.467	0.22
390.674	0.15
390.88	0.15
391.086	0.28
391.292	0.12
391.498	0.18
391.704	0.23
391.91	0.2
392.116	0.12
392.322	0.11
392.528	0.26
392.734	0.16
392.94	0.2
393.146	0.14
393.352	0.23
393.557	0.11
393.763	0.2
393.969	0.21
394.175	0.2
394.381	0.18
394.587	0.21
394.792	0.15
394.998	0.27
395.204	0.21
395.41	0.18
395.615	0.21
395.821	0.23
396.027	0.22
396.233	0.17
396.438	0.22
396.644	0.26
396.85	0.27
397.055	0.18
397.261	0.24
397.466	0.19
397.672	0.21
397.878	0.25
398.083	0.21
398.289	0.19
398.494	0.3
398.7	0.24
398.905	0.14
399.111	0.28
399.316	0.2
399.522	0.24
399.727	0.17
399.932	0.17
400.138	0.21
400.343	0.26
400.549	0.23
400.754	0.22
400.959	0.26
401.165	0.21
401.37	0.23
401.575	0.33
401.78	0.21
401.986	0.26
402.191	0.21
402.396	0.25
402.601	0.26
402.807	0.29
403.012	0.24
403.217	0.3
403.422	0.26
403.627	0.25
403.832	0.27
404.037	0.32
404.243	0.31
404.448	0.24
404.653	0.24
404.858	0.29
405.063	0.28
405.268	0.23
405.473	0.22
405.678	0.24
405.883	0.5
406.088	0.32
406.293	0.26
406.498	0.31
406.703	0.32
406.907	0.28
407.112	0.24
407.317	0.34
407.522	0.4
407.727	0.31
407.932	0.39
408.136	0.42
408.341	0.32
408.546	0.37
408.751	0.37
408.956	0.4
409.16	0.45
409.365	0.41
409.57	0.42
409.774	0.41
409.979	0.46
410.184	0.43
410.388	0.36
410.593	0.51
410.798	0.5
411.002	0.46
411.207	0.55
411.411	0.52
411.616	0.5
411.82	0.52
412.025	0.6
412.229	0.59
412.434	0.65
412.638	0.61
412.843	0.61
413.047	0.64
413.252	0.62
413.456	0.7
413.66	0.73
413.865	0.69
414.069	0.78
414.273	0.75
414.478	0.77
414.682	0.78
414.886	0.8
415.091	0.78
415.295	0.8
415.499	0.96
415.703	0.9
415.908	1.03
416.112	0.84
416.316	1.07
416.52	1.08
416.724	1.07
416.929	1.09
417.133	1.39
417.337	1.16
417.541	1.25
417.745	1.24
417.949	1.4
418.153	1.38
418.357	1.41
418.561	1.67
418.765	1.54
418.969	1.7
419.173	1.71
419.377	1.68
419.581	1.89
419.785	1.85
419.989	1.85
420.193	1.97
420.397	2.02
420.601	2.15
420.804	2.22
421.008	2.2
421.212	2.3
421.416	2.26
421.62	2.34
421.823	2.36
422.027	2.48
422.231	2.49
422.435	2.53
422.638	2.57
422.842	2.57
423.046	2.7
423.249	2.85
423.453	2.9
423.657	2.99
423.86	2.99
424.064	3.03
424.268	3.18
424.471	3.23
424.675	3.43
424.878	3.41
425.082	3.52
425.285	3.66
425.489	3.54
425.692	3.84
425.896	3.7
426.099	3.91
426.303	3.92
426.506	4.03
426.71	4.26
426.913	4.41
427.116	4.49
427.32	4.47
427.523	4.53
427.726	4.77
427.93	4.8
428.133	5.04
428.336	5.01
428.54	5.17
428.743	5.45
428.946	5.62
429.149	5.56
429.353	5.65
429.556	5.65
429.759	5.62
429.962	5.72
430.165	5.77
430.368	5.51
430.571	5.61
430.775	5.69
430.978	5.63
431.181	5.66
431.384	5.74
431.587	5.74
431.79	6.07
431.993	6.05
432.196	6.1
432.399	6.43
432.602	6.62
432.805	6.49
433.008	6.97
433.211	6.76
433.414	7.11
433.616	7.06
433.819	6.98
434.022	7.15
434.225	7.24
434.428	7.35
434.631	7.6
434.833	7.41
435.036	7.64
435.239	7.76
435.442	7.8
435.645	7.93
435.847	7.99
436.05	8.17
436.253	8.36
436.455	8.3
436.658	8.33
436.861	8.55
437.063	8.55
437.266	8.55
437.468	8.75
437.671	9.06
437.874	9.18
438.076	8.97
438.279	9.39
438.481	9.36
438.684	9.97
438.886	9.7
439.089	9.8
439.291	9.84
439.494	10.11
439.696	10.24
439.899	10.61
440.101	10.93
440.303	11.02
440.506	11.51
440.708	11.41
440.91	11.52
441.113	11.67
441.315	11.95
441.517	11.77
441.72	12.18
441.922	11.84
442.124	11.93
442.326	12.23
442.529	12.37
442.731	12.32
442.933	12.57
443.135	12.45
443.337	12.48
443.539	12.9
443.742	12.66
443.944	13.02
444.146	12.95
444.348	12.96
444.55	12.93
444.752	13.02
444.954	12.99
445.156	12.93
445.358	13.33
445.56	13.44
445.762	13.35
445.964	13.43
446.166	13.29
446.368	13.34
446.57	13.37
446.772	13.16
446.974	12.87
447.175	13.03
447.377	12.9
447.579	13.06
447.781	12.96
447.983	12.78
448.184	12.42
448.386	12.78
448.588	12.24
448.79	12.27
448.991	12.39
449.193	12.55
449.395	11.95
449.597	11.71
449.798	11.69
450	11.39
450.202	11.25
450.403	11.16
450.605	11.25
450.806	10.81
451.008	10.78
451.21	10.55
451.411	10.2
451.613	9.69
451.814	9.89
452.016	9.8
452.217	9.25
452.419	9.33
452.62	9.06
452.821	8.84
453.023	8.76
453.224	8.54
453.426	8.33
453.627	7.65
453.828	7.79
454.03	7.79
454.231	7.71
454.432	7.62
454.634	7.44
454.835	7.28
455.036	7.06
455.238	6.86
455.439	6.68
455.64	6.47
455.841	6.34
456.042	6.42
456.244	6.19
456.445	6.01
456.646	5.77
456.847	5.83
457.048	5.7
457.249	5.75
457.45	5.7
457.651	5.21
457.852	5.12
458.054	4.92
458.255	4.8
458.456	4.92
458.657	4.78
458.858	4.54
459.058	4.47
459.259	4.48
459.46	4.37
459.661	4.36
459.862	4.46
460.063	4.25
460.264	4.23
460.465	3.99
460.666	4.11
460.866	3.88
461.067	3.68
461.268	3.82
461.469	3.66
461.67	3.59
461.87	3.5
462.071	3.46
462.272	3.41
462.473	3.41
462.673	3.54
462.874	3.43
463.075	3.5
463.275	3.45
463.476	3.44
463.676	3.39
463.877	3.32
464.078	3.32
464.278	3.39
464.479	3.24
464.679	3.2
464.88	3.24
465.08	3.13
465.281	3.03
465.481	2.88
465.682	2.75
465.882	2.75
466.083	2.74
466.283	2.69
466.483	2.61
466.684	2.52
466.884	2.44
467.085	2.46
467.285	2.49
467.485	2.35
467.686	2.33
467.886	2.28
468.086	2.26
468.286	2.24
468.487	2.27
468.687	2.17
468.887	2.09
469.087	2.24
469.287	2.11
469.488	2
469.688	2.11
469.888	2.14
470.088	2.08
470.288	2.04
470.488	1.96
470.688	1.87
470.888	1.86
471.088	1.78
471.288	1.87
471.488	1.79
471.688	1.81
471.888	1.75
472.088	1.86
472.288	1.82
472.488	1.72
472.688	1.69
472.888	1.69
473.088	1.71
473.288	1.65
473.488	1.6
473.688	1.75
473.887	1.62
474.087	1.59
474.287	1.6
474.487	1.58
474.687	1.59
474.886	1.58
475.086	1.48
475.286	1.5
475.486	1.54
475.685	1.45
475.885	1.49
476.085	1.48
476.284	1.47
476.484	1.46
476.684	1.42
476.883	1.53
477.083	1.43
477.282	1.39
477.482	1.47
477.681	1.44
477.881	1.33
478.08	1.39
478.28	1.33
478.479	1.41
478.679	1.45
478.878	1.31
479.078	1.31
479.277	1.38
479.477	1.37
479.676	1.35
479.875	1.36
480.075	1.29
480.274	1.36
480.473	1.38
480.673	1.33
480.872	1.37
481.071	1.35
481.271	1.39
481.47	1.34
481.669	1.3
481.868	1.26
482.067	1.35
482.267	1.27
482.466	1.27
482.665	1.27
482.864	1.26
483.063	1.29
483.262	1.36
483.461	1.4
483.661	1.39
483.86	1.29
484.059	1.33
484.258	1.32
484.457	1.33
484.656	1.32
484.855	1.43
485.054	1.25
485.253	1.32
485.452	1.31
485.651	1.38
485.849	1.36
486.048	1.3
486.247	1.33
486.446	1.4
486.645	1.31
486.844	1.36
487.043	1.35
487.241	1.42
487.44	1.38
487.639	1.43
487.838	1.44
488.037	1.39
488.235	1.51
488.434	1.47
488.633	1.36
488.831	1.53
489.03	1.51
489.229	1.5
489.427	1.51
489.626	1.54
489.825	1.54
490.023	1.59
490.222	1.54
490.42	1.56
490.619	1.56
490.817	1.61
491.016	1.59
491.214	1.66
491.413	1.63
491.611	1.62
491.81	1.63
492.008	1.7
492.207	1.73
492.405	1.71
492.604	1.64
492.802	1.79
493	1.8
493.199	1.81
493.397	1.82
493.595	1.87
493.794	1.8
493.992	1.9
494.19	1.89
494.388	1.93
494.587	1.89
494.785	1.94
494.983	1.9
495.181	1.99
495.379	2.02
495.578	2.04
495.776	2.05
495.974	2.08
496.172	2.03
496.37	2.14
496.568	2.18
496.766	2.14
496.964	2.23
497.162	2.2
497.36	2.24
497.558	2.27
497.756	2.33
497.954	2.31
498.152	2.28
498.35	2.39
498.548	2.38
498.746	2.4
498.944	2.36
499.142	2.41
499.34	2.48
499.538	2.57
499.736	2.48
499.933	2.58
500.131	2.54
500.329	2.64
500.527	2.66
500.725	2.73
500.922	2.73
501.12	2.75
501.318	2.77
501.516	2.72
501.713	2.82
501.911	2.83
502.109	2.78
502.306	2.91
502.504	2.84
502.701	2.89
502.899	2.96
503.097	3.08
503.294	2.98
