Data from Apollo_Calib_20240827__AbsoluteIrradiance__835__13-04-01-258.txt Node

Date: Wed Aug 28 13:04:01 BST 2024
User: biology
Spectrometer: FLMT08252
Trigger mode: 0
Integration Time (sec): 5.000000E-1
Scans to average: 5
Electric dark correction enabled: true
Nonlinearity correction enabled: false
Boxcar width: 0
XAxis mode: Wavelengths
Number of Pixels in Spectrum: 3648
>>>>>Begin Spectral Data<<<<<
179.588	-0
179.809	-0
180.03	-0
180.251	-0
180.473	-0
180.694	0
180.915	0
181.136	-0
181.357	-0
181.578	-0
181.799	-0
182.02	-0
182.241	-0
182.462	0
182.683	0
182.904	-0
183.125	-0
183.346	0
183.567	0
183.788	0
184.009	0
184.23	0
184.451	0
184.672	0
184.892	0
185.113	0
185.334	0
185.555	0
185.776	0
185.996	0
186.217	0
186.438	0
186.659	0
186.879	0
187.1	0
187.321	0
187.541	0
187.762	0
187.983	0
188.203	0
188.424	0
188.644	0
188.865	0
189.086	0
189.306	0
189.527	0
189.747	0
189.968	0
190.188	0
190.409	0
190.629	0
190.849	0
191.07	0
191.29	0
191.511	0
191.731	0
191.951	0
192.172	0
192.392	0
192.612	0
192.833	0
193.053	0
193.273	0
193.493	0
193.714	0
193.934	0
194.154	0
194.374	0
194.594	0
194.815	0
195.035	0
195.255	0
195.475	0
195.695	0
195.915	0
196.135	0
196.355	0
196.575	0
196.795	0
197.015	0
197.235	0
197.455	0
197.675	0
197.895	0
198.115	0
198.335	0
198.555	0
198.775	0
198.995	0
199.214	0
199.434	0
199.654	0
199.874	0
200.094	3.82
200.313	2.2
200.533	1.7
200.753	1.58
200.973	4.19
201.192	3.27
201.412	1.3
201.632	1.93
201.851	3.28
202.071	1.47
202.291	1.88
202.51	0.78
202.73	2.86
202.95	1.73
203.169	1.29
203.389	2.04
203.608	1.91
203.828	1.56
204.047	1.61
204.267	2.32
204.486	2.37
204.706	2.47
204.925	1.3
205.145	1.38
205.364	2.15
205.583	2.52
205.803	1.2
206.022	1.14
206.242	1.68
206.461	1.85
206.68	1.71
206.9	1.57
207.119	2.21
207.338	2.28
207.557	1.24
207.777	1.1
207.996	1.41
208.215	2.02
208.434	1.01
208.654	0.9
208.873	1.45
209.092	2.2
209.311	1.05
209.53	0.97
209.749	1.23
209.968	0.88
210.187	0.95
210.407	0.68
210.626	1.26
210.845	1.4
211.064	1.15
211.283	0.88
211.502	1.66
211.721	1.28
211.94	1.07
212.159	1.21
212.377	1.47
212.596	1.75
212.815	1.08
213.034	1.06
213.253	1.47
213.472	1.27
213.691	0.8
213.91	0.66
214.128	0.77
214.347	1.56
214.566	0.52
214.785	0.59
215.003	1.35
215.222	1.26
215.441	0.71
215.66	0.38
215.878	0.96
216.097	1.23
216.316	0.57
216.534	0.74
216.753	1.02
216.972	1.07
217.19	0.65
217.409	0.75
217.627	0.82
217.846	0.74
218.064	0.94
218.283	0.61
218.501	1.35
218.72	1.13
218.938	0.47
219.157	0.74
219.375	1.15
219.594	1.05
219.812	0.47
220.031	0.48
220.249	1.08
220.467	1.05
220.686	0.59
220.904	0.55
221.122	0.7
221.341	0.99
221.559	0.82
221.777	0.5
221.995	0.78
222.214	0.94
222.432	0.57
222.65	0.98
222.868	0.88
223.086	0.78
223.305	0.7
223.523	0.63
223.741	1.14
223.959	0.74
224.177	0.31
224.395	0.47
224.613	0.71
224.831	1.02
225.049	0.46
225.267	0.51
225.485	0.83
225.703	0.55
225.921	0.43
226.139	0.54
226.357	0.78
226.575	0.86
226.793	0.49
227.011	1.59
227.229	0.66
227.447	0.69
227.665	0.49
227.883	0.32
228.1	0.76
228.318	0.76
228.536	0.32
228.754	0.43
228.972	0.88
229.189	0.78
229.407	0.57
229.625	0.55
229.843	0.88
230.06	0.83
230.278	0.45
230.496	0.61
230.713	0.67
230.931	0.87
231.149	0.43
231.366	0.24
231.584	0.57
231.801	0.99
232.019	0.45
232.236	0.4
232.454	0.5
232.671	0.74
232.889	0.5
233.106	0.41
233.324	0.62
233.541	0.55
233.759	0.52
233.976	0.39
234.194	0.52
234.411	0.6
234.628	0.38
234.846	0.44
235.063	0.56
235.28	0.54
235.498	0.45
235.715	0.38
235.932	0.79
236.149	0.52
236.367	0.4
236.584	0.54
236.801	0.44
237.018	0.65
237.236	0.53
237.453	0.33
237.67	0.68
237.887	0.52
238.104	0.47
238.321	0.42
238.538	0.39
238.755	0.71
238.973	0.22
239.19	0.43
239.407	0.61
239.624	0.5
239.841	0.39
240.058	0.37
240.275	0.48
240.492	0.48
240.709	0.4
240.925	0.4
241.142	0.4
241.359	0.37
241.576	0.3
241.793	0.4
242.01	0.39
242.227	0.68
242.444	0.5
242.66	0.61
242.877	0.48
243.094	0.45
243.311	0.44
243.527	0.38
243.744	0.48
243.961	0.61
244.178	0.38
244.394	0.44
244.611	0.64
244.828	0.67
245.044	0.37
245.261	0.3
245.477	0.54
245.694	0.56
245.911	0.39
246.127	0.51
246.344	0.66
246.56	0.55
246.777	0.39
246.993	0.31
247.21	0.42
247.426	0.59
247.643	0.33
247.859	0.29
248.076	0.34
248.292	0.81
248.508	0.44
248.725	0.44
248.941	0.54
249.157	0.67
249.374	0.31
249.59	0.42
249.806	0.37
250.023	0.54
250.239	0.33
250.455	0.29
250.671	0.39
250.888	0.48
251.104	0.52
251.32	0.4
251.536	0.39
251.752	0.41
251.969	0.37
252.185	0.4
252.401	0.62
252.617	0.54
252.833	0.34
253.049	0.37
253.265	0.35
253.481	0.39
253.697	0.36
253.913	0.29
254.129	0.51
254.345	0.47
254.561	0.34
254.777	0.36
254.993	0.51
255.209	0.41
255.425	0.27
255.641	0.32
255.857	0.46
256.073	0.45
256.288	0.21
256.504	0.34
256.72	0.4
256.936	0.51
257.152	0.32
257.367	0.27
257.583	0.44
257.799	0.53
258.015	0.26
258.23	0.31
258.446	0.57
258.662	0.38
258.877	0.25
259.093	0.28
259.309	0.46
259.524	0.45
259.74	0.34
259.955	0.24
260.171	0.42
260.387	0.47
260.602	0.42
260.818	0.41
261.033	0.22
261.249	0.35
261.464	0.33
261.68	0.34
261.895	0.43
262.11	0.47
262.326	0.26
262.541	0.3
262.757	0.44
262.972	0.51
263.187	0.32
263.403	0.32
263.618	0.45
263.833	0.44
264.049	0.28
264.264	0.31
264.479	0.35
264.694	0.52
264.91	0.23
265.125	0.3
265.34	0.48
265.555	0.55
265.77	0.34
265.986	0.34
266.201	0.42
266.416	0.43
266.631	0.35
266.846	0.28
267.061	0.39
267.276	0.41
267.491	0.18
267.706	0.36
267.921	0.41
268.136	0.38
268.351	0.37
268.566	0.21
268.781	0.44
268.996	0.5
269.211	0.38
269.426	0.25
269.641	0.34
269.856	0.39
270.071	0.22
270.285	0.22
270.5	0.49
270.715	0.34
270.93	0.31
271.145	0.37
271.359	0.4
271.574	0.33
271.789	0.33
272.004	0.25
272.218	0.36
272.433	0.42
272.648	0.18
272.862	0.42
273.077	0.41
273.292	0.27
273.506	0.25
273.721	0.34
273.936	0.39
274.15	0.41
274.365	0.23
274.579	0.37
274.794	0.37
275.008	0.41
275.223	0.23
275.437	0.32
275.652	0.43
275.866	0.41
276.081	0.31
276.295	0.38
276.509	0.38
276.724	0.31
276.938	0.3
277.153	0.34
277.367	0.39
277.581	0.33
277.796	0.33
278.01	0.22
278.224	0.37
278.438	0.44
278.653	0.23
278.867	0.24
279.081	0.16
279.295	0.29
279.51	0.31
279.724	0.23
279.938	0.35
280.152	0.37
280.366	0.22
280.58	0.3
280.794	0.49
281.008	0.36
281.222	0.32
281.437	0.45
281.651	0.34
281.865	0.43
282.079	0.25
282.293	0.14
282.507	0.26
282.721	0.33
282.935	0.26
283.148	0.19
283.362	0.26
283.576	0.2
283.79	0.28
284.004	0.23
284.218	0.39
284.432	0.3
284.646	0.31
284.859	0.27
285.073	0.28
285.287	0.28
285.501	0.31
285.714	0.21
285.928	0.3
286.142	0.4
286.356	0.26
286.569	0.21
286.783	0.4
286.997	0.34
287.21	0.27
287.424	0.31
287.637	0.28
287.851	0.25
288.065	0.3
288.278	0.24
288.492	0.31
288.705	0.22
288.919	0.32
289.132	0.19
289.346	0.37
289.559	0.18
289.773	0.21
289.986	0.3
290.2	0.24
290.413	0.38
290.626	0.26
290.84	0.29
291.053	0.25
291.267	0.36
291.48	0.21
291.693	0.26
291.906	0.28
292.12	0.37
292.333	0.24
292.546	0.21
292.76	0.38
292.973	0.3
293.186	0.32
293.399	0.23
293.612	0.26
293.826	0.24
294.039	0.24
294.252	0.24
294.465	0.37
294.678	0.26
294.891	0.28
295.104	0.23
295.317	0.22
295.53	0.29
295.743	0.27
295.956	0.24
296.169	0.4
296.382	0.35
296.595	0.25
296.808	0.16
297.021	0.33
297.234	0.34
297.447	0.2
297.66	0.26
297.873	0.32
298.086	0.32
298.299	0.19
298.511	0.13
298.724	0.28
298.937	0.23
299.15	0.19
299.363	0.26
299.575	0.32
299.788	0.29
300.001	0.26
300.213	0.21
300.426	0.26
300.639	0.23
300.852	0.24
301.064	0.28
301.277	0.33
301.489	0.29
301.702	0.27
301.915	0.23
302.127	0.27
302.34	0.3
302.552	0.27
302.765	0.22
302.977	0.32
303.19	0.22
303.402	0.27
303.615	0.24
303.827	0.23
304.04	0.3
304.252	0.3
304.464	0.22
304.677	0.4
304.889	0.31
305.102	0.25
305.314	0.19
305.526	0.28
305.739	0.29
305.951	0.15
306.163	0.24
306.375	0.29
306.588	0.24
306.8	0.21
307.012	0.18
307.224	0.27
307.436	0.34
307.649	0.15
307.861	0.23
308.073	0.32
308.285	0.25
308.497	0.23
308.709	0.22
308.921	0.26
309.133	0.33
309.346	0.22
309.558	0.21
309.77	0.28
309.982	0.36
310.194	0.28
310.406	0.21
310.617	0.35
310.829	0.28
311.041	0.27
311.253	0.21
311.465	0.24
311.677	0.27
311.889	0.25
312.101	0.22
312.313	0.32
312.524	0.33
312.736	0.16
312.948	0.22
313.16	0.36
313.372	0.28
313.583	0.25
313.795	0.23
314.007	0.2
314.218	0.31
314.43	0.25
314.642	0.24
314.853	0.16
315.065	0.29
315.277	0.24
315.488	0.26
315.7	0.28
315.912	0.34
316.123	0.27
316.335	0.18
316.546	0.36
316.758	0.25
316.969	0.22
317.181	0.26
317.392	0.31
317.604	0.33
317.815	0.22
318.026	0.22
318.238	0.25
318.449	0.3
318.661	0.16
318.872	0.18
319.083	0.21
319.295	0.32
319.506	0.23
319.717	0.25
319.929	0.27
320.14	0.25
320.351	0.26
320.562	0.19
320.774	0.31
320.985	0.3
321.196	0.25
321.407	0.17
321.618	0.31
321.829	0.27
322.041	0.29
322.252	0.27
322.463	0.27
322.674	0.31
322.885	0.18
323.096	0.24
323.307	0.28
323.518	0.26
323.729	0.22
323.94	0.21
324.151	0.26
324.362	0.24
324.573	0.25
324.784	0.25
324.995	0.3
325.206	0.27
325.417	0.24
325.628	0.18
325.838	0.24
326.049	0.27
326.26	0.24
326.471	0.18
326.682	0.3
326.892	0.22
327.103	0.15
327.314	0.23
327.525	0.27
327.735	0.3
327.946	0.23
328.157	0.16
328.368	0.26
328.578	0.27
328.789	0.31
328.999	0.23
329.21	0.26
329.421	0.28
329.631	0.22
329.842	0.19
330.052	0.28
330.263	0.28
330.473	0.28
330.684	0.21
330.894	0.27
331.105	0.32
331.315	0.29
331.526	0.18
331.736	0.35
331.947	0.3
332.157	0.27
332.367	0.19
332.578	0.31
332.788	0.33
332.999	0.26
333.209	0.26
333.419	0.17
333.629	0.35
333.84	0.26
334.05	0.26
334.26	0.29
334.47	0.28
334.681	0.32
334.891	0.25
335.101	0.3
335.311	0.37
335.521	0.25
335.732	0.22
335.942	0.31
336.152	0.26
336.362	0.25
336.572	0.24
336.782	0.26
336.992	0.22
337.202	0.26
337.412	0.23
337.622	0.27
337.832	0.23
338.042	0.26
338.252	0.21
338.462	0.2
338.672	0.27
338.882	0.23
339.092	0.26
339.302	0.36
339.511	0.32
339.721	0.18
339.931	0.2
340.141	0.29
340.351	0.36
340.561	0.25
340.77	0.26
340.98	0.29
341.19	0.27
341.4	0.22
341.609	0.21
341.819	0.26
342.029	0.18
342.238	0.24
342.448	0.24
342.658	0.27
342.867	0.24
343.077	0.25
343.286	0.25
343.496	0.26
343.706	0.34
343.915	0.17
344.125	0.23
344.334	0.25
344.544	0.22
344.753	0.22
344.963	0.23
345.172	0.19
345.381	0.22
345.591	0.17
345.8	0.27
346.01	0.31
346.219	0.31
346.428	0.1
346.638	0.23
346.847	0.25
347.056	0.37
347.266	0.2
347.475	0.22
347.684	0.29
347.893	0.29
348.103	0.25
348.312	0.22
348.521	0.28
348.73	0.27
348.94	0.24
349.149	0.23
349.358	0.21
349.567	0.2
349.776	0.21
349.985	0.19
350.194	0.31
350.403	0.27
350.612	0.18
350.821	0.2
351.03	0.28
351.239	0.19
351.448	0.26
351.657	0.23
351.866	0.35
352.075	0.27
352.284	0.29
352.493	0.22
352.702	0.31
352.911	0.24
353.12	0.25
353.329	0.26
353.538	0.25
353.746	0.24
353.955	0.16
354.164	0.24
354.373	0.24
354.582	0.29
354.79	0.2
354.999	0.27
355.208	0.26
355.416	0.3
355.625	0.2
355.834	0.23
356.042	0.26
356.251	0.25
356.46	0.2
356.668	0.25
356.877	0.34
357.085	0.33
357.294	0.15
357.503	0.25
357.711	0.24
357.92	0.43
358.128	0.25
358.337	0.2
358.545	0.33
358.754	0.18
358.962	0.31
359.17	0.23
359.379	0.21
359.587	0.23
359.796	0.23
360.004	0.27
360.212	0.31
360.421	0.33
360.629	0.24
360.837	0.24
361.046	0.35
361.254	0.41
361.462	0.22
361.67	0.24
361.879	0.28
362.087	0.31
362.295	0.27
362.503	0.24
362.711	0.19
362.92	0.25
363.128	0.19
363.336	0.24
363.544	0.21
363.752	0.23
363.96	0.2
364.168	0.21
364.376	0.27
364.584	0.24
364.792	0.29
365	0.22
365.208	0.29
365.416	0.25
365.624	0.3
365.832	0.19
366.04	0.34
366.248	0.29
366.456	0.21
366.664	0.25
366.872	0.26
367.079	0.24
367.287	0.23
367.495	0.23
367.703	0.21
367.911	0.23
368.118	0.22
368.326	0.26
368.534	0.22
368.742	0.3
368.949	0.2
369.157	0.25
369.365	0.26
369.572	0.19
369.78	0.23
369.988	0.26
370.195	0.26
370.403	0.28
370.61	0.22
370.818	0.25
371.026	0.39
371.233	0.25
371.441	0.3
371.648	0.26
371.856	0.3
372.063	0.3
372.271	0.25
372.478	0.21
372.685	0.23
372.893	0.28
373.1	0.21
373.308	0.22
373.515	0.35
373.722	0.35
373.93	0.23
374.137	0.28
374.344	0.36
374.552	0.31
374.759	0.28
374.966	0.28
375.173	0.26
375.381	0.31
375.588	0.22
375.795	0.17
376.002	0.23
376.209	0.19
376.417	0.27
376.624	0.29
376.831	0.3
377.038	0.26
377.245	0.15
377.452	0.2
377.659	0.27
377.866	0.24
378.073	0.25
378.28	0.24
378.487	0.34
378.694	0.31
378.901	0.24
379.108	0.21
379.315	0.31
379.522	0.4
379.729	0.26
379.936	0.2
380.143	0.25
380.35	0.35
380.557	0.25
380.763	0.25
380.97	0.27
381.177	0.26
381.384	0.32
381.591	0.21
381.797	0.31
382.004	0.33
382.211	0.28
382.418	0.25
382.624	0.34
382.831	0.36
383.038	0.27
383.244	0.31
383.451	0.27
383.658	0.35
383.864	0.24
384.071	0.21
384.277	0.39
384.484	0.27
384.69	0.32
384.897	0.25
385.103	0.24
385.31	0.25
385.516	0.25
385.723	0.2
385.929	0.29
386.136	0.27
386.342	0.34
386.549	0.19
386.755	0.32
386.961	0.34
387.168	0.26
387.374	0.29
387.58	0.33
387.787	0.27
387.993	0.24
388.199	0.31
388.406	0.24
388.612	0.27
388.818	0.2
389.024	0.19
389.231	0.29
389.437	0.41
389.643	0.27
389.849	0.28
390.055	0.28
390.261	0.28
390.467	0.35
390.674	0.26
390.88	0.29
391.086	0.35
391.292	0.21
391.498	0.31
391.704	0.3
391.91	0.29
392.116	0.3
392.322	0.19
392.528	0.41
392.734	0.31
392.94	0.33
393.146	0.27
393.352	0.35
393.557	0.31
393.763	0.28
393.969	0.36
394.175	0.33
394.381	0.32
394.587	0.27
394.792	0.34
394.998	0.39
395.204	0.37
395.41	0.32
395.615	0.3
395.821	0.32
396.027	0.35
396.233	0.29
396.438	0.32
396.644	0.37
396.85	0.33
397.055	0.33
397.261	0.35
397.466	0.38
397.672	0.32
397.878	0.34
398.083	0.36
398.289	0.31
398.494	0.43
398.7	0.37
398.905	0.25
399.111	0.46
399.316	0.26
399.522	0.31
399.727	0.35
399.932	0.35
400.138	0.33
400.343	0.42
400.549	0.31
400.754	0.39
400.959	0.36
401.165	0.37
401.37	0.37
401.575	0.47
401.78	0.38
401.986	0.37
402.191	0.36
402.396	0.35
402.601	0.42
402.807	0.41
403.012	0.42
403.217	0.42
403.422	0.4
403.627	0.41
403.832	0.36
404.037	0.48
404.243	0.43
404.448	0.4
404.653	0.41
404.858	0.44
405.063	0.49
405.268	0.43
405.473	0.39
405.678	0.45
405.883	0.65
406.088	0.55
406.293	0.4
406.498	0.44
406.703	0.53
406.907	0.46
407.112	0.45
407.317	0.56
407.522	0.61
407.727	0.44
407.932	0.55
408.136	0.68
408.341	0.53
408.546	0.57
408.751	0.56
408.956	0.6
409.16	0.68
409.365	0.6
409.57	0.55
409.774	0.66
409.979	0.69
410.184	0.72
410.388	0.58
410.593	0.78
410.798	0.75
411.002	0.74
411.207	0.85
411.411	0.8
411.616	0.74
411.82	0.81
412.025	0.83
412.229	0.83
412.434	0.99
412.638	0.94
412.843	0.89
413.047	0.92
413.252	0.99
413.456	1.06
413.66	1.04
413.865	1.05
414.069	1.17
414.273	1.14
414.478	1.12
414.682	1.19
414.886	1.22
415.091	1.18
415.295	1.27
415.499	1.47
415.703	1.34
415.908	1.48
416.112	1.39
416.316	1.62
416.52	1.62
416.724	1.59
416.929	1.64
417.133	1.88
417.337	1.75
417.541	1.84
417.745	1.94
417.949	2.02
418.153	2.05
418.357	2.03
418.561	2.27
418.765	2.29
418.969	2.31
419.173	2.51
419.377	2.45
419.581	2.7
419.785	2.68
419.989	2.62
420.193	2.82
420.397	2.89
420.601	3.07
420.804	3.15
421.008	3.17
421.212	3.3
421.416	3.3
421.62	3.27
421.823	3.38
422.027	3.56
422.231	3.53
422.435	3.53
422.638	3.62
422.842	3.72
423.046	3.78
423.249	4.06
423.453	4.01
423.657	4.21
423.86	4.18
424.064	4.4
424.268	4.58
424.471	4.5
424.675	4.76
424.878	4.82
425.082	5.05
425.285	5.25
425.489	5.17
425.692	5.26
425.896	5.38
426.099	5.58
426.303	5.64
426.506	5.73
426.71	6.05
426.913	6.32
427.116	6.35
427.32	6.39
427.523	6.45
427.726	6.81
427.93	6.89
428.133	7.19
428.336	7.32
428.54	7.4
428.743	7.75
428.946	7.92
429.149	7.98
429.353	7.97
429.556	8.16
429.759	8.21
429.962	8.24
430.165	8.44
430.368	8.13
430.571	8.05
430.775	8.22
430.978	8.07
431.181	8.2
431.384	8.26
431.587	8.4
431.79	8.79
431.993	8.76
432.196	8.91
432.399	9.31
432.602	9.55
432.805	9.64
433.008	10.1
433.211	9.87
433.414	10.3
433.616	10.4
433.819	10.36
434.022	10.49
434.225	10.71
434.428	10.77
434.631	11.23
434.833	10.95
435.036	11.15
435.239	11.34
435.442	11.36
435.645	11.69
435.847	11.68
436.05	11.99
436.253	12.29
436.455	12.16
436.658	12.04
436.861	12.49
437.063	12.53
437.266	12.55
437.468	12.89
437.671	13.18
437.874	13.15
438.076	12.99
438.279	13.5
438.481	13.59
438.684	14.33
438.886	13.95
439.089	14.16
439.291	14.24
439.494	14.5
439.696	14.75
439.899	15.14
440.101	15.83
440.303	15.91
440.506	16.69
440.708	16.49
440.91	16.63
441.113	16.74
441.315	17.01
441.517	16.88
441.72	17.26
441.922	17.03
442.124	16.91
442.326	17.27
442.529	17.52
442.731	17.38
442.933	17.82
443.135	17.5
443.337	17.64
443.539	18.18
443.742	17.64
443.944	18.37
444.146	18.19
444.348	18.11
444.55	18.02
444.752	18.28
444.954	18.21
445.156	18.23
445.358	18.44
445.56	18.76
445.762	18.55
445.964	18.99
446.166	18.69
446.368	18.6
446.57	18.68
446.772	18.31
446.974	17.9
447.175	18.24
447.377	17.9
447.579	18.36
447.781	18.01
447.983	18
448.184	17.28
448.386	17.78
448.588	17.28
448.79	17.18
448.991	17.53
449.193	17.5
449.395	16.7
449.597	16.43
449.798	16.39
450	15.87
450.202	15.91
450.403	15.89
450.605	15.72
450.806	15.29
451.008	15.27
451.21	14.91
451.411	14.46
451.613	13.75
451.814	13.96
452.016	14.03
452.217	13.13
452.419	13.24
452.62	12.89
452.821	12.7
453.023	12.55
453.224	12.1
453.426	11.67
453.627	10.91
453.828	11.12
454.03	11.16
454.231	11.23
454.432	11.03
454.634	10.74
454.835	10.42
455.036	10.41
455.238	9.96
455.439	9.78
455.64	9.39
455.841	9.35
456.042	9.46
456.244	9.14
456.445	8.77
456.646	8.58
456.847	8.51
457.048	8.39
457.249	8.35
457.45	8.25
457.651	7.72
457.852	7.53
458.054	7.26
458.255	7.03
458.456	7.23
458.657	7.08
458.858	6.62
459.058	6.62
459.259	6.67
459.46	6.33
459.661	6.36
459.862	6.43
460.063	6.3
460.264	6.23
460.465	5.88
460.666	6.04
460.866	5.72
461.067	5.44
461.268	5.53
461.469	5.35
461.67	5.36
461.87	5.24
462.071	5.16
462.272	5.09
462.473	5.05
462.673	5.25
462.874	5.09
463.075	5.13
463.275	5.11
463.476	5.12
463.676	5
463.877	4.92
464.078	4.91
464.278	4.93
464.479	4.89
464.679	4.69
464.88	4.64
465.08	4.6
465.281	4.41
465.481	4.24
465.682	4.07
465.882	4.11
466.083	4.01
466.283	3.96
466.483	3.88
466.684	3.72
466.884	3.55
467.085	3.65
467.285	3.7
467.485	3.54
467.686	3.56
467.886	3.42
468.086	3.34
468.286	3.42
468.487	3.34
468.687	3.23
468.887	3.21
469.087	3.31
469.287	3.22
469.488	3
469.688	3.19
469.888	3.24
470.088	3.09
470.288	3.06
470.488	3.07
470.688	2.87
470.888	2.81
471.088	2.64
471.288	2.83
471.488	2.78
471.688	2.72
471.888	2.64
472.088	2.76
472.288	2.72
472.488	2.53
472.688	2.5
472.888	2.58
473.088	2.58
473.288	2.5
473.488	2.44
473.688	2.62
473.887	2.46
474.087	2.44
474.287	2.45
474.487	2.39
474.687	2.41
474.886	2.38
475.086	2.29
475.286	2.27
475.486	2.24
475.685	2.16
475.885	2.2
476.085	2.24
476.284	2.25
476.484	2.22
476.684	2.21
476.883	2.35
477.083	2.16
477.282	2.09
477.482	2.16
477.681	2.11
477.881	2.09
478.08	2.09
478.28	2.06
478.479	2.06
478.679	2.14
478.878	2.04
479.078	2.05
479.277	2.08
479.477	2.02
479.676	2.04
479.875	2.03
480.075	1.89
480.274	2.02
480.473	2.03
480.673	1.94
480.872	2.14
481.071	2.03
481.271	2.05
481.47	2
481.669	1.96
481.868	1.94
482.067	1.95
482.267	1.88
482.466	1.93
482.665	1.94
482.864	1.96
483.063	1.92
483.262	2.05
483.461	2.06
483.661	2.1
483.86	1.99
484.059	2.07
484.258	2.06
484.457	2
484.656	1.99
484.855	2.09
485.054	1.9
485.253	1.96
485.452	1.95
485.651	2.01
485.849	1.99
486.048	2.02
486.247	2.01
486.446	2.07
486.645	2
486.844	2.05
487.043	2.04
487.241	2.13
487.44	2.13
487.639	2.07
487.838	2.11
488.037	2.08
488.235	2.23
488.434	2.15
488.633	2.02
488.831	2.2
489.03	2.24
489.229	2.18
489.427	2.18
489.626	2.3
489.825	2.32
490.023	2.31
490.222	2.27
490.42	2.33
490.619	2.29
490.817	2.34
491.016	2.34
491.214	2.41
491.413	2.43
491.611	2.37
491.81	2.41
492.008	2.46
492.207	2.57
492.405	2.47
492.604	2.46
492.802	2.56
493	2.61
493.199	2.61
493.397	2.6
493.595	2.73
493.794	2.63
493.992	2.8
494.19	2.77
494.388	2.81
494.587	2.76
494.785	2.78
494.983	2.72
495.181	2.88
495.379	2.89
495.578	2.95
495.776	2.96
495.974	2.95
496.172	2.99
496.37	3.07
496.568	3.09
496.766	3.08
496.964	3.19
497.162	3.22
497.36	3.19
497.558	3.26
497.756	3.29
497.954	3.28
498.152	3.34
498.35	3.46
498.548	3.37
498.746	3.4
498.944	3.44
499.142	3.49
499.34	3.51
499.538	3.65
499.736	3.53
499.933	3.65
500.131	3.65
500.329	3.8
500.527	3.75
500.725	3.84
500.922	3.86
501.12	3.88
501.318	3.96
501.516	3.94
501.713	4.02
501.911	4
502.109	3.94
502.306	4.07
502.504	4
