Data from Apollo_Calib_20240827__AbsoluteIrradiance__790__12-19-00-561.txt Node

Date: Wed Aug 28 12:19:00 BST 2024
User: biology
Spectrometer: FLMT08252
Trigger mode: 0
Integration Time (sec): 5.000000E-1
Scans to average: 5
Electric dark correction enabled: true
Nonlinearity correction enabled: false
Boxcar width: 0
XAxis mode: Wavelengths
Number of Pixels in Spectrum: 3648
>>>>>Begin Spectral Data<<<<<
179.588	-0
179.809	-0
180.03	-0
180.251	-0
180.473	-0
180.694	0
180.915	0
181.136	-0
181.357	0
181.578	-0
181.799	0
182.02	-0
182.241	-0
182.462	-0
182.683	0
182.904	-0
183.125	-0
183.346	0
183.567	0
183.788	0
184.009	0
184.23	0
184.451	0
184.672	0
184.892	0
185.113	0
185.334	0
185.555	0
185.776	0
185.996	0
186.217	0
186.438	0
186.659	0
186.879	0
187.1	0
187.321	0
187.541	0
187.762	0
187.983	0
188.203	0
188.424	0
188.644	0
188.865	0
189.086	0
189.306	0
189.527	0
189.747	0
189.968	0
190.188	0
190.409	0
190.629	0
190.849	0
191.07	0
191.29	0
191.511	0
191.731	0
191.951	0
192.172	0
192.392	0
192.612	0
192.833	0
193.053	0
193.273	0
193.493	0
193.714	0
193.934	0
194.154	0
194.374	0
194.594	0
194.815	0
195.035	0
195.255	0
195.475	0
195.695	0
195.915	0
196.135	0
196.355	0
196.575	0
196.795	0
197.015	0
197.235	0
197.455	0
197.675	0
197.895	0
198.115	0
198.335	0
198.555	0
198.775	0
198.995	0
199.214	0
199.434	0
199.654	0
199.874	0
200.094	4.49
200.313	2.54
200.533	2.13
200.753	1.51
200.973	3.68
201.192	3.35
201.412	1.21
201.632	1.46
201.851	3.35
202.071	1.41
202.291	1.83
202.51	1.82
202.73	2.48
202.95	1.93
203.169	1.43
203.389	1.99
203.608	1.58
203.828	1.42
204.047	1.13
204.267	2.39
204.486	2.23
204.706	2.48
204.925	1.74
205.145	1.6
205.364	2.01
205.583	2.51
205.803	1.31
206.022	1
206.242	1.51
206.461	1.31
206.68	1.26
206.9	1.48
207.119	2.29
207.338	2.18
207.557	1.24
207.777	1.26
207.996	1.2
208.215	1.92
208.434	1.03
208.654	0.82
208.873	1.5
209.092	1.94
209.311	1.3
209.53	0.93
209.749	1.09
209.968	1.02
210.187	1.1
210.407	0.81
210.626	0.97
210.845	1.35
211.064	1.2
211.283	1.02
211.502	1.44
211.721	1.19
211.94	1.08
212.159	1.18
212.377	1.31
212.596	1.57
212.815	0.99
213.034	1.15
213.253	1.4
213.472	1.26
213.691	0.86
213.91	0.46
214.128	0.73
214.347	1.51
214.566	0.41
214.785	0.4
215.003	1.01
215.222	1.11
215.441	0.85
215.66	0.42
215.878	0.9
216.097	1.28
216.316	0.7
216.534	0.82
216.753	1
216.972	0.8
217.19	0.95
217.409	0.75
217.627	0.76
217.846	0.83
218.064	0.96
218.283	0.61
218.501	1.52
218.72	1.3
218.938	0.55
219.157	0.61
219.375	0.98
219.594	1.05
219.812	0.52
220.031	0.45
220.249	1.28
220.467	1.05
220.686	0.6
220.904	0.44
221.122	0.73
221.341	1.13
221.559	0.75
221.777	0.42
221.995	0.76
222.214	0.99
222.432	0.67
222.65	0.7
222.868	0.86
223.086	0.88
223.305	0.86
223.523	0.62
223.741	1.16
223.959	0.56
224.177	0.35
224.395	0.44
224.613	0.78
224.831	0.96
225.049	0.34
225.267	0.59
225.485	0.77
225.703	0.54
225.921	0.59
226.139	0.52
226.357	0.79
226.575	0.75
226.793	0.56
227.011	1.4
227.229	0.71
227.447	0.98
227.665	0.37
227.883	0.33
228.1	0.5
228.318	0.76
228.536	0.34
228.754	0.4
228.972	0.73
229.189	0.82
229.407	0.53
229.625	0.51
229.843	0.79
230.06	0.77
230.278	0.56
230.496	0.55
230.713	0.66
230.931	0.82
231.149	0.46
231.366	0.33
231.584	0.65
231.801	1.04
232.019	0.47
232.236	0.38
232.454	0.52
232.671	0.63
232.889	0.44
233.106	0.18
233.324	0.58
233.541	0.63
233.759	0.44
233.976	0.28
234.194	0.52
234.411	0.55
234.628	0.38
234.846	0.39
235.063	0.48
235.28	0.59
235.498	0.45
235.715	0.47
235.932	0.85
236.149	0.54
236.367	0.41
236.584	0.47
236.801	0.51
237.018	0.61
237.236	0.52
237.453	0.26
237.67	0.7
237.887	0.46
238.104	0.51
238.321	0.34
238.538	0.3
238.755	0.59
238.973	0.32
239.19	0.58
239.407	0.57
239.624	0.42
239.841	0.38
240.058	0.43
240.275	0.48
240.492	0.43
240.709	0.52
240.925	0.46
241.142	0.51
241.359	0.42
241.576	0.36
241.793	0.36
242.01	0.44
242.227	0.65
242.444	0.44
242.66	0.61
242.877	0.58
243.094	0.38
243.311	0.45
243.527	0.44
243.744	0.52
243.961	0.53
244.178	0.39
244.394	0.4
244.611	0.55
244.828	0.62
245.044	0.32
245.261	0.44
245.477	0.57
245.694	0.55
245.911	0.3
246.127	0.53
246.344	0.6
246.56	0.57
246.777	0.36
246.993	0.41
247.21	0.51
247.426	0.52
247.643	0.37
247.859	0.32
248.076	0.35
248.292	0.68
248.508	0.31
248.725	0.49
248.941	0.51
249.157	0.57
249.374	0.28
249.59	0.33
249.806	0.43
250.023	0.47
250.239	0.36
250.455	0.3
250.671	0.4
250.888	0.41
251.104	0.49
251.32	0.31
251.536	0.36
251.752	0.4
251.969	0.38
252.185	0.37
252.401	0.69
252.617	0.48
252.833	0.28
253.049	0.34
253.265	0.41
253.481	0.4
253.697	0.33
253.913	0.39
254.129	0.46
254.345	0.41
254.561	0.34
254.777	0.35
254.993	0.45
255.209	0.37
255.425	0.35
255.641	0.3
255.857	0.53
256.073	0.41
256.288	0.23
256.504	0.31
256.72	0.44
256.936	0.63
257.152	0.33
257.367	0.29
257.583	0.34
257.799	0.47
258.015	0.32
258.23	0.31
258.446	0.57
258.662	0.38
258.877	0.23
259.093	0.28
259.309	0.43
259.524	0.43
259.74	0.29
259.955	0.24
260.171	0.47
260.387	0.38
260.602	0.42
260.818	0.37
261.033	0.22
261.249	0.38
261.464	0.32
261.68	0.28
261.895	0.46
262.11	0.44
262.326	0.37
262.541	0.21
262.757	0.47
262.972	0.48
263.187	0.4
263.403	0.32
263.618	0.38
263.833	0.4
264.049	0.32
264.264	0.28
264.479	0.44
264.694	0.51
264.91	0.29
265.125	0.26
265.34	0.42
265.555	0.51
265.77	0.36
265.986	0.28
266.201	0.4
266.416	0.49
266.631	0.33
266.846	0.35
267.061	0.43
267.276	0.43
267.491	0.23
267.706	0.39
267.921	0.39
268.136	0.32
268.351	0.31
268.566	0.28
268.781	0.48
268.996	0.42
269.211	0.27
269.426	0.27
269.641	0.29
269.856	0.45
270.071	0.24
270.285	0.21
270.5	0.41
270.715	0.45
270.93	0.36
271.145	0.35
271.359	0.47
271.574	0.33
271.789	0.27
272.004	0.31
272.218	0.25
272.433	0.39
272.648	0.25
272.862	0.42
273.077	0.37
273.292	0.38
273.506	0.24
273.721	0.21
273.936	0.37
274.15	0.41
274.365	0.21
274.579	0.36
274.794	0.3
275.008	0.47
275.223	0.17
275.437	0.3
275.652	0.4
275.866	0.38
276.081	0.31
276.295	0.36
276.509	0.37
276.724	0.33
276.938	0.33
277.153	0.39
277.367	0.35
277.581	0.32
277.796	0.28
278.01	0.24
278.224	0.39
278.438	0.49
278.653	0.29
278.867	0.23
279.081	0.11
279.295	0.32
279.51	0.32
279.724	0.16
279.938	0.36
280.152	0.36
280.366	0.23
280.58	0.28
280.794	0.39
281.008	0.34
281.222	0.37
281.437	0.48
281.651	0.41
281.865	0.38
282.079	0.27
282.293	0.2
282.507	0.24
282.721	0.32
282.935	0.31
283.148	0.21
283.362	0.24
283.576	0.22
283.79	0.31
284.004	0.26
284.218	0.37
284.432	0.27
284.646	0.3
284.859	0.23
285.073	0.28
285.287	0.29
285.501	0.31
285.714	0.27
285.928	0.35
286.142	0.27
286.356	0.21
286.569	0.24
286.783	0.4
286.997	0.36
287.21	0.32
287.424	0.29
287.637	0.31
287.851	0.28
288.065	0.33
288.278	0.27
288.492	0.29
288.705	0.26
288.919	0.29
289.132	0.26
289.346	0.27
289.559	0.2
289.773	0.25
289.986	0.25
290.2	0.28
290.413	0.37
290.626	0.22
290.84	0.21
291.053	0.3
291.267	0.35
291.48	0.25
291.693	0.26
291.906	0.25
292.12	0.27
292.333	0.25
292.546	0.2
292.76	0.34
292.973	0.3
293.186	0.3
293.399	0.23
293.612	0.34
293.826	0.24
294.039	0.28
294.252	0.26
294.465	0.33
294.678	0.26
294.891	0.27
295.104	0.21
295.317	0.28
295.53	0.29
295.743	0.28
295.956	0.26
296.169	0.42
296.382	0.3
296.595	0.26
296.808	0.18
297.021	0.32
297.234	0.36
297.447	0.27
297.66	0.29
297.873	0.34
298.086	0.33
298.299	0.2
298.511	0.19
298.724	0.24
298.937	0.23
299.15	0.19
299.363	0.22
299.575	0.3
299.788	0.32
300.001	0.25
300.213	0.21
300.426	0.24
300.639	0.27
300.852	0.24
301.064	0.31
301.277	0.35
301.489	0.33
301.702	0.3
301.915	0.28
302.127	0.24
302.34	0.28
302.552	0.3
302.765	0.21
302.977	0.32
303.19	0.22
303.402	0.21
303.615	0.24
303.827	0.27
304.04	0.25
304.252	0.27
304.464	0.21
304.677	0.38
304.889	0.26
305.102	0.22
305.314	0.24
305.526	0.29
305.739	0.3
305.951	0.23
306.163	0.25
306.375	0.33
306.588	0.24
306.8	0.24
307.012	0.18
307.224	0.25
307.436	0.3
307.649	0.19
307.861	0.27
308.073	0.3
308.285	0.25
308.497	0.17
308.709	0.2
308.921	0.26
309.133	0.32
309.346	0.25
309.558	0.25
309.77	0.29
309.982	0.32
310.194	0.32
310.406	0.18
310.617	0.34
310.829	0.32
311.041	0.26
311.253	0.21
311.465	0.26
311.677	0.29
311.889	0.25
312.101	0.2
312.313	0.29
312.524	0.35
312.736	0.15
312.948	0.21
313.16	0.34
313.372	0.34
313.583	0.29
313.795	0.24
314.007	0.23
314.218	0.28
314.43	0.24
314.642	0.28
314.853	0.15
315.065	0.33
315.277	0.22
315.488	0.24
315.7	0.33
315.912	0.27
316.123	0.25
316.335	0.23
316.546	0.37
316.758	0.25
316.969	0.22
317.181	0.26
317.392	0.27
317.604	0.36
317.815	0.23
318.026	0.19
318.238	0.24
318.449	0.28
318.661	0.14
318.872	0.2
319.083	0.26
319.295	0.24
319.506	0.2
319.717	0.26
319.929	0.27
320.14	0.31
320.351	0.24
320.562	0.21
320.774	0.29
320.985	0.28
321.196	0.2
321.407	0.17
321.618	0.32
321.829	0.26
322.041	0.32
322.252	0.23
322.463	0.3
322.674	0.27
322.885	0.19
323.096	0.24
323.307	0.28
323.518	0.28
323.729	0.25
323.94	0.2
324.151	0.24
324.362	0.28
324.573	0.27
324.784	0.22
324.995	0.31
325.206	0.3
325.417	0.21
325.628	0.21
325.838	0.28
326.049	0.28
326.26	0.33
326.471	0.22
326.682	0.27
326.892	0.28
327.103	0.22
327.314	0.22
327.525	0.32
327.735	0.23
327.946	0.21
328.157	0.17
328.368	0.29
328.578	0.28
328.789	0.32
328.999	0.29
329.21	0.25
329.421	0.33
329.631	0.22
329.842	0.19
330.052	0.26
330.263	0.3
330.473	0.3
330.684	0.2
330.894	0.28
331.105	0.27
331.315	0.27
331.526	0.17
331.736	0.33
331.947	0.32
332.157	0.28
332.367	0.17
332.578	0.29
332.788	0.35
332.999	0.3
333.209	0.24
333.419	0.21
333.629	0.26
333.84	0.27
334.05	0.27
334.26	0.31
334.47	0.28
334.681	0.3
334.891	0.21
335.101	0.3
335.311	0.36
335.521	0.23
335.732	0.24
335.942	0.34
336.152	0.25
336.362	0.27
336.572	0.25
336.782	0.26
336.992	0.26
337.202	0.27
337.412	0.18
337.622	0.29
337.832	0.25
338.042	0.27
338.252	0.22
338.462	0.25
338.672	0.27
338.882	0.25
339.092	0.27
339.302	0.32
339.511	0.29
339.721	0.21
339.931	0.2
340.141	0.37
340.351	0.36
340.561	0.26
340.77	0.25
340.98	0.28
341.19	0.27
341.4	0.25
341.609	0.18
341.819	0.22
342.029	0.2
342.238	0.27
342.448	0.22
342.658	0.27
342.867	0.23
343.077	0.24
343.286	0.25
343.496	0.27
343.706	0.3
343.915	0.2
344.125	0.22
344.334	0.28
344.544	0.19
344.753	0.2
344.963	0.23
345.172	0.22
345.381	0.21
345.591	0.2
345.8	0.26
346.01	0.29
346.219	0.36
346.428	0.12
346.638	0.22
346.847	0.28
347.056	0.36
347.266	0.24
347.475	0.22
347.684	0.3
347.893	0.29
348.103	0.23
348.312	0.22
348.521	0.24
348.73	0.27
348.94	0.23
349.149	0.22
349.358	0.23
349.567	0.21
349.776	0.18
349.985	0.21
350.194	0.27
350.403	0.32
350.612	0.18
350.821	0.23
351.03	0.2
351.239	0.15
351.448	0.27
351.657	0.17
351.866	0.36
352.075	0.23
352.284	0.23
352.493	0.18
352.702	0.29
352.911	0.25
353.12	0.23
353.329	0.24
353.538	0.24
353.746	0.27
353.955	0.12
354.164	0.24
354.373	0.24
354.582	0.3
354.79	0.26
354.999	0.28
355.208	0.23
355.416	0.32
355.625	0.2
355.834	0.25
356.042	0.29
356.251	0.19
356.46	0.18
356.668	0.26
356.877	0.35
357.085	0.28
357.294	0.14
357.503	0.23
357.711	0.25
357.92	0.4
358.128	0.24
358.337	0.24
358.545	0.29
358.754	0.2
358.962	0.3
359.17	0.24
359.379	0.26
359.587	0.21
359.796	0.18
360.004	0.31
360.212	0.27
360.421	0.32
360.629	0.3
360.837	0.21
361.046	0.27
361.254	0.41
361.462	0.25
361.67	0.19
361.879	0.31
362.087	0.33
362.295	0.27
362.503	0.23
362.711	0.23
362.92	0.19
363.128	0.22
363.336	0.2
363.544	0.18
363.752	0.28
363.96	0.22
364.168	0.25
364.376	0.28
364.584	0.31
364.792	0.29
365	0.26
365.208	0.23
365.416	0.24
365.624	0.3
365.832	0.2
366.04	0.32
366.248	0.24
366.456	0.26
366.664	0.27
366.872	0.22
367.079	0.25
367.287	0.23
367.495	0.26
367.703	0.24
367.911	0.23
368.118	0.24
368.326	0.21
368.534	0.19
368.742	0.29
368.949	0.18
369.157	0.19
369.365	0.29
369.572	0.21
369.78	0.2
369.988	0.27
370.195	0.28
370.403	0.32
370.61	0.22
370.818	0.26
371.026	0.35
371.233	0.28
371.441	0.28
371.648	0.22
371.856	0.24
372.063	0.28
372.271	0.24
372.478	0.23
372.685	0.23
372.893	0.28
373.1	0.24
373.308	0.23
373.515	0.36
373.722	0.32
373.93	0.22
374.137	0.28
374.344	0.3
374.552	0.29
374.759	0.25
374.966	0.25
375.173	0.23
375.381	0.31
375.588	0.26
375.795	0.18
376.002	0.23
376.209	0.24
376.417	0.22
376.624	0.25
376.831	0.32
377.038	0.22
377.245	0.14
377.452	0.26
377.659	0.26
377.866	0.21
378.073	0.26
378.28	0.23
378.487	0.28
378.694	0.31
378.901	0.27
379.108	0.21
379.315	0.34
379.522	0.41
379.729	0.26
379.936	0.2
380.143	0.22
380.35	0.31
380.557	0.25
380.763	0.29
380.97	0.25
381.177	0.3
381.384	0.28
381.591	0.21
381.797	0.26
382.004	0.34
382.211	0.3
382.418	0.25
382.624	0.28
382.831	0.28
383.038	0.27
383.244	0.32
383.451	0.27
383.658	0.29
383.864	0.23
384.071	0.21
384.277	0.36
384.484	0.26
384.69	0.32
384.897	0.24
385.103	0.27
385.31	0.24
385.516	0.28
385.723	0.2
385.929	0.29
386.136	0.23
386.342	0.29
386.549	0.27
386.755	0.34
386.961	0.29
387.168	0.26
387.374	0.25
387.58	0.32
387.787	0.26
387.993	0.32
388.199	0.25
388.406	0.25
388.612	0.22
388.818	0.24
389.024	0.22
389.231	0.33
389.437	0.34
389.643	0.31
389.849	0.32
390.055	0.28
390.261	0.26
390.467	0.29
390.674	0.28
390.88	0.24
391.086	0.33
391.292	0.23
391.498	0.34
391.704	0.31
391.91	0.22
392.116	0.26
392.322	0.21
392.528	0.35
392.734	0.29
392.94	0.32
393.146	0.3
393.352	0.32
393.557	0.26
393.763	0.33
393.969	0.34
394.175	0.31
394.381	0.33
394.587	0.23
394.792	0.3
394.998	0.38
395.204	0.37
395.41	0.3
395.615	0.32
395.821	0.32
396.027	0.31
396.233	0.3
396.438	0.35
396.644	0.37
396.85	0.33
397.055	0.34
397.261	0.34
397.466	0.31
397.672	0.33
397.878	0.37
398.083	0.35
398.289	0.32
398.494	0.36
398.7	0.35
398.905	0.26
399.111	0.44
399.316	0.3
399.522	0.33
399.727	0.33
399.932	0.31
400.138	0.3
400.343	0.41
400.549	0.36
400.754	0.38
400.959	0.39
401.165	0.32
401.37	0.32
401.575	0.47
401.78	0.36
401.986	0.29
402.191	0.37
402.396	0.33
402.601	0.39
402.807	0.38
403.012	0.36
403.217	0.46
403.422	0.41
403.627	0.39
403.832	0.36
404.037	0.45
404.243	0.49
404.448	0.38
404.653	0.43
404.858	0.48
405.063	0.43
405.268	0.37
405.473	0.38
405.678	0.39
405.883	0.61
406.088	0.43
406.293	0.41
406.498	0.42
406.703	0.52
406.907	0.48
407.112	0.41
407.317	0.51
407.522	0.58
407.727	0.41
407.932	0.52
408.136	0.64
408.341	0.5
408.546	0.58
408.751	0.52
408.956	0.55
409.16	0.65
409.365	0.6
409.57	0.59
409.774	0.57
409.979	0.66
410.184	0.6
410.388	0.55
410.593	0.76
410.798	0.73
411.002	0.72
411.207	0.77
411.411	0.77
411.616	0.71
411.82	0.82
412.025	0.82
412.229	0.79
412.434	0.95
412.638	0.9
412.843	0.86
413.047	0.96
413.252	0.9
413.456	0.97
413.66	1.04
413.865	0.97
414.069	1.16
414.273	1.03
414.478	1.11
414.682	1.14
414.886	1.14
415.091	1.14
415.295	1.14
415.499	1.31
415.703	1.32
415.908	1.38
416.112	1.29
416.316	1.47
416.52	1.54
416.724	1.53
416.929	1.53
417.133	1.76
417.337	1.63
417.541	1.72
417.745	1.75
417.949	1.87
418.153	1.86
418.357	1.9
418.561	2.15
418.765	2.08
418.969	2.22
419.173	2.26
419.377	2.33
419.581	2.51
419.785	2.5
419.989	2.46
420.193	2.64
420.397	2.69
420.601	2.85
420.804	2.98
421.008	2.93
421.212	3.1
421.416	3.09
421.62	3.07
421.823	3.16
422.027	3.37
422.231	3.31
422.435	3.32
422.638	3.3
422.842	3.43
423.046	3.55
423.249	3.77
423.453	3.75
423.657	3.96
423.86	3.97
424.064	4.12
424.268	4.23
424.471	4.22
424.675	4.44
424.878	4.52
425.082	4.67
425.285	4.87
425.489	4.82
425.692	4.94
425.896	4.98
426.099	5.24
426.303	5.39
426.506	5.44
426.71	5.7
426.913	5.78
427.116	5.99
427.32	5.99
427.523	6.12
427.726	6.37
427.93	6.53
428.133	6.81
428.336	6.95
428.54	7.1
428.743	7.36
428.946	7.52
429.149	7.54
429.353	7.59
429.556	7.57
429.759	7.76
429.962	7.81
430.165	7.84
430.368	7.65
430.571	7.7
430.775	7.75
430.978	7.7
431.181	7.8
431.384	7.88
431.587	8.07
431.79	8.35
431.993	8.36
432.196	8.54
432.399	8.97
432.602	8.99
432.805	9.16
433.008	9.8
433.211	9.67
433.414	9.91
433.616	10.06
433.819	10.02
434.022	10.11
434.225	10.27
434.428	10.25
434.631	10.77
434.833	10.46
435.036	10.87
435.239	10.99
435.442	11.08
435.645	11.2
435.847	11.22
436.05	11.62
436.253	11.74
436.455	11.74
436.658	11.67
436.861	12.13
437.063	12.12
437.266	12.05
437.468	12.45
437.671	12.87
437.874	12.72
438.076	12.61
438.279	13.12
438.481	13.08
438.684	13.79
438.886	13.42
439.089	13.67
439.291	13.78
439.494	14.07
439.696	14.33
439.899	14.88
440.101	15.2
440.303	15.43
440.506	16.16
440.708	15.91
440.91	16.29
441.113	16.27
441.315	16.58
441.517	16.34
441.72	16.88
441.922	16.38
442.124	16.42
442.326	16.7
442.529	17
442.731	16.96
442.933	17.22
443.135	17.06
443.337	17.06
443.539	17.63
443.742	17.25
443.944	18.04
444.146	17.57
444.348	17.69
444.55	17.62
444.752	17.82
444.954	17.74
445.156	17.62
445.358	17.97
445.56	18.37
445.762	18.12
445.964	18.39
446.166	18.18
446.368	18.27
446.57	18.29
446.772	17.87
446.974	17.77
447.175	18.01
447.377	17.76
447.579	18.05
447.781	17.83
447.983	17.61
448.184	17.16
448.386	17.53
448.588	17.18
448.79	17.05
448.991	17.53
449.193	17.38
449.395	16.73
449.597	16.49
449.798	16.3
450	16.03
450.202	15.8
450.403	15.79
450.605	15.71
450.806	15.48
451.008	15.33
451.21	15.04
451.411	14.63
451.613	13.92
451.814	14.29
452.016	14.16
452.217	13.51
452.419	13.44
452.62	13.1
452.821	12.89
453.023	12.84
453.224	12.49
453.426	12.1
453.627	11.31
453.828	11.47
454.03	11.56
454.231	11.47
454.432	11.21
454.634	11.16
454.835	10.76
455.036	10.71
455.238	10.22
455.439	9.98
455.64	9.83
455.841	9.57
456.042	9.75
456.244	9.32
456.445	9.16
456.646	8.85
456.847	8.75
457.048	8.67
457.249	8.78
457.45	8.53
457.651	7.97
457.852	7.84
458.054	7.46
458.255	7.33
458.456	7.44
458.657	7.43
458.858	6.84
459.058	6.86
459.259	6.94
459.46	6.6
459.661	6.55
459.862	6.68
460.063	6.49
460.264	6.41
460.465	6.18
460.666	6.17
460.866	5.95
461.067	5.71
461.268	5.68
461.469	5.62
461.67	5.57
461.87	5.3
462.071	5.39
462.272	5.18
462.473	5.16
462.673	5.33
462.874	5.29
463.075	5.15
463.275	5.26
463.476	5.29
463.676	5.17
463.877	5.02
464.078	5.05
464.278	5.08
464.479	4.95
464.679	4.87
464.88	4.83
465.08	4.8
465.281	4.65
465.481	4.42
465.682	4.23
465.882	4.29
466.083	4.2
466.283	4.14
466.483	4.05
466.684	3.84
466.884	3.73
467.085	3.81
467.285	3.83
467.485	3.71
467.686	3.62
467.886	3.52
468.086	3.51
468.286	3.45
468.487	3.48
468.687	3.35
468.887	3.28
469.087	3.45
469.287	3.35
469.488	3.11
469.688	3.27
469.888	3.3
470.088	3.2
470.288	3.2
470.488	3.09
470.688	2.95
470.888	2.92
471.088	2.78
471.288	2.88
471.488	2.85
471.688	2.85
471.888	2.79
472.088	2.93
472.288	2.82
472.488	2.62
472.688	2.61
472.888	2.71
473.088	2.68
473.288	2.6
473.488	2.58
473.688	2.74
473.887	2.54
474.087	2.51
474.287	2.51
474.487	2.41
474.687	2.5
474.886	2.41
475.086	2.31
475.286	2.41
475.486	2.28
475.685	2.31
475.885	2.28
476.085	2.28
476.284	2.34
476.484	2.35
476.684	2.24
476.883	2.35
477.083	2.26
477.282	2.18
477.482	2.2
477.681	2.23
477.881	2.14
478.08	2.07
478.28	2.09
478.479	2.12
478.679	2.19
478.878	2.12
479.078	2.08
479.277	2.11
479.477	2.08
479.676	2.08
479.875	2.08
480.075	1.98
480.274	2.07
480.473	2.07
480.673	2.04
480.872	2.14
481.071	2.09
481.271	2.1
481.47	2.05
481.669	1.97
481.868	2.03
482.067	1.97
482.267	1.91
482.466	1.96
482.665	1.94
482.864	1.96
483.063	1.97
483.262	2.08
483.461	2.09
483.661	2.07
483.86	2.02
484.059	2.11
484.258	2.09
484.457	2.03
484.656	2.07
484.855	2.12
485.054	1.93
485.253	2
485.452	2.02
485.651	2.07
485.849	2.03
486.048	2.04
486.247	2.05
486.446	2.13
486.645	2.06
486.844	2.1
487.043	2.07
487.241	2.11
487.44	2.11
487.639	2.09
487.838	2.12
488.037	2.12
488.235	2.21
488.434	2.19
488.633	2.08
488.831	2.21
489.03	2.24
489.229	2.22
489.427	2.24
489.626	2.28
489.825	2.3
490.023	2.31
490.222	2.29
490.42	2.3
490.619	2.36
490.817	2.36
491.016	2.34
491.214	2.4
491.413	2.4
491.611	2.39
491.81	2.38
492.008	2.45
492.207	2.58
492.405	2.51
492.604	2.52
492.802	2.54
493	2.6
493.199	2.64
493.397	2.64
493.595	2.75
493.794	2.66
493.992	2.78
494.19	2.73
494.388	2.79
494.587	2.77
494.785	2.77
494.983	2.7
495.181	2.85
495.379	2.88
495.578	2.97
495.776	2.95
495.974	2.92
496.172	2.95
496.37	3.06
496.568	3.06
496.766	3.07
496.964	3.18
497.162	3.17
497.36	3.16
497.558	3.24
497.756	3.3
497.954	3.24
498.152	3.32
498.35	3.42
498.548	3.33
498.746	3.38
498.944	3.39
499.142	3.42
499.34	3.57
499.538	3.63
499.736	3.5
499.933	3.62
500.131	3.62
500.329	3.73
500.527	3.74
500.725	3.85
500.922	3.84
501.12	3.84
501.318	3.91
501.516	3.92
501.713	3.98
501.911	3.95
502.109	3.93
502.306	4.06
502.504	3.96
