Data from Apollo_Calib_20240827__AbsoluteIrradiance__738__11-27-00-700.txt Node

Date: Wed Aug 28 11:27:00 BST 2024
User: biology
Spectrometer: FLMT08252
Trigger mode: 0
Integration Time (sec): 5.000000E-1
Scans to average: 5
Electric dark correction enabled: true
Nonlinearity correction enabled: false
Boxcar width: 0
XAxis mode: Wavelengths
Number of Pixels in Spectrum: 3648
>>>>>Begin Spectral Data<<<<<
179.588	-0
179.809	-0
180.03	-0
180.251	-0
180.473	-0
180.694	0
180.915	0
181.136	-0
181.357	0
181.578	-0
181.799	-0
182.02	-0
182.241	0
182.462	-0
182.683	0
182.904	-0
183.125	-0
183.346	0
183.567	0
183.788	0
184.009	-0
184.23	0
184.451	0
184.672	0
184.892	0
185.113	0
185.334	0
185.555	0
185.776	0
185.996	0
186.217	0
186.438	0
186.659	0
186.879	0
187.1	0
187.321	0
187.541	0
187.762	0
187.983	0
188.203	0
188.424	0
188.644	0
188.865	0
189.086	0
189.306	0
189.527	0
189.747	0
189.968	0
190.188	0
190.409	0
190.629	0
190.849	0
191.07	0
191.29	0
191.511	0
191.731	0
191.951	-0
192.172	0
192.392	0
192.612	0
192.833	0
193.053	0
193.273	0
193.493	0
193.714	0
193.934	0
194.154	0
194.374	0
194.594	0
194.815	0
195.035	0
195.255	0
195.475	0
195.695	0
195.915	0
196.135	0
196.355	0
196.575	0
196.795	0
197.015	0
197.235	0
197.455	0
197.675	0
197.895	0
198.115	0
198.335	0
198.555	0
198.775	0
198.995	0
199.214	0
199.434	0
199.654	0
199.874	0
200.094	2.13
200.313	1.12
200.533	1.36
200.753	0.3
200.973	1.85
201.192	1.75
201.412	0.5
201.632	0.66
201.851	2.26
202.071	0.67
202.291	0.65
202.51	0.21
202.73	1.31
202.95	0.96
203.169	0.68
203.389	0.89
203.608	1.14
203.828	1.1
204.047	0.85
204.267	1.02
204.486	1.07
204.706	1.22
204.925	0.77
205.145	0.75
205.364	1.3
205.583	1.56
205.803	0.59
206.022	0.36
206.242	0.56
206.461	0.78
206.68	0.31
206.9	0.87
207.119	1.31
207.338	1.1
207.557	0.61
207.777	0.29
207.996	0.43
208.215	1.03
208.434	0.54
208.654	-0.1
208.873	0.61
209.092	1.48
209.311	0.38
209.53	0.25
209.749	0.51
209.968	0.56
210.187	0.65
210.407	0.28
210.626	0.59
210.845	0.7
211.064	0.46
211.283	0.3
211.502	0.91
211.721	0.6
211.94	0.46
212.159	0.69
212.377	0.79
212.596	0.95
212.815	0.68
213.034	0.69
213.253	0.92
213.472	0.72
213.691	0.5
213.91	0.31
214.128	0.32
214.347	0.82
214.566	-0.03
214.785	0.2
215.003	0.7
215.222	0.65
215.441	0.49
215.66	0.16
215.878	0.58
216.097	0.61
216.316	0.23
216.534	0.49
216.753	0.35
216.972	0.52
217.19	0.44
217.409	0.34
217.627	0.22
217.846	0.41
218.064	0.53
218.283	0.12
218.501	0.85
218.72	0.51
218.938	0.27
219.157	0.38
219.375	0.61
219.594	0.62
219.812	0.24
220.031	0.19
220.249	0.82
220.467	0.62
220.686	0.23
220.904	0.26
221.122	0.17
221.341	0.9
221.559	0.47
221.777	0.19
221.995	0.38
222.214	0.46
222.432	0.23
222.65	0.28
222.868	0.37
223.086	0.37
223.305	0.49
223.523	0.32
223.741	0.7
223.959	0.19
224.177	0.07
224.395	0.31
224.613	0.43
224.831	0.62
225.049	0.18
225.267	0.13
225.485	0.47
225.703	0.36
225.921	0.24
226.139	0.11
226.357	0.52
226.575	0.44
226.793	0.3
227.011	1.05
227.229	0.26
227.447	0.58
227.665	0.21
227.883	0.14
228.1	0.26
228.318	0.3
228.536	-0.02
228.754	0.14
228.972	0.39
229.189	0.37
229.407	0.21
229.625	0.26
229.843	0.46
230.06	0.4
230.278	0.27
230.496	0.31
230.713	0.3
230.931	0.39
231.149	0.27
231.366	0.08
231.584	0.36
231.801	0.52
232.019	0.21
232.236	0.07
232.454	0.26
232.671	0.46
232.889	0.19
233.106	0.03
233.324	0.27
233.541	0.35
233.759	0.17
233.976	0.18
234.194	0.28
234.411	0.23
234.628	0.09
234.846	0.28
235.063	0.26
235.28	0.23
235.498	0.35
235.715	0.15
235.932	0.53
236.149	0.38
236.367	0.18
236.584	0.3
236.801	0.19
237.018	0.35
237.236	0.21
237.453	0.02
237.67	0.43
237.887	0.15
238.104	0.2
238.321	0.08
238.538	0.2
238.755	0.42
238.973	0.05
239.19	0.25
239.407	0.41
239.624	0.38
239.841	0.09
240.058	0.09
240.275	0.29
240.492	0.31
240.709	0.28
240.925	0.16
241.142	0.25
241.359	0.1
241.576	0.15
241.793	0.18
242.01	0.23
242.227	0.33
242.444	0.33
242.66	0.28
242.877	0.27
243.094	0.12
243.311	0.19
243.527	0.19
243.744	0.28
243.961	0.3
244.178	0.19
244.394	0.25
244.611	0.25
244.828	0.33
245.044	0.11
245.261	0.16
245.477	0.28
245.694	0.41
245.911	0.16
246.127	0.32
246.344	0.45
246.56	0.37
246.777	0.16
246.993	0.24
247.21	0.26
247.426	0.3
247.643	0.17
247.859	0.07
248.076	0.18
248.292	0.45
248.508	0.18
248.725	0.22
248.941	0.31
249.157	0.31
249.374	0.13
249.59	0.2
249.806	0.25
250.023	0.29
250.239	0.12
250.455	0.11
250.671	0.25
250.888	0.31
251.104	0.26
251.32	0.14
251.536	0.2
251.752	0.18
251.969	0.22
252.185	0.22
252.401	0.36
252.617	0.2
252.833	0.08
253.049	0.23
253.265	0.21
253.481	0.18
253.697	0.14
253.913	0.11
254.129	0.2
254.345	0.16
254.561	0.13
254.777	0.2
254.993	0.23
255.209	0.26
255.425	0.1
255.641	0.11
255.857	0.29
256.073	0.25
256.288	0.05
256.504	0.15
256.72	0.2
256.936	0.34
257.152	0.14
257.367	0.14
257.583	0.23
257.799	0.22
258.015	0.16
258.23	0.15
258.446	0.37
258.662	0.26
258.877	0.12
259.093	0.11
259.309	0.18
259.524	0.27
259.74	0.1
259.955	0.06
260.171	0.25
260.387	0.14
260.602	0.26
260.818	0.31
261.033	0.09
261.249	0.13
261.464	0.19
261.68	0.11
261.895	0.25
262.11	0.35
262.326	0.12
262.541	0.06
262.757	0.24
262.972	0.18
263.187	0.24
263.403	0.19
263.618	0.24
263.833	0.19
264.049	0.08
264.264	0.14
264.479	0.12
264.694	0.29
264.91	0.05
265.125	0.18
265.34	0.26
265.555	0.27
265.77	0.19
265.986	0.14
266.201	0.2
266.416	0.26
266.631	0.16
266.846	0.18
267.061	0.22
267.276	0.25
267.491	0.03
267.706	0.15
267.921	0.17
268.136	0.21
268.351	0.19
268.566	0.1
268.781	0.3
268.996	0.24
269.211	0.14
269.426	0.15
269.641	0.13
269.856	0.24
270.071	0.15
270.285	0.06
270.5	0.25
270.715	0.27
270.93	0.17
271.145	0.13
271.359	0.26
271.574	0.13
271.789	0.12
272.004	0.15
272.218	0.19
272.433	0.19
272.648	0.14
272.862	0.26
273.077	0.19
273.292	0.22
273.506	0.12
273.721	0.15
273.936	0.26
274.15	0.3
274.365	0.16
274.579	0.23
274.794	0.23
275.008	0.26
275.223	0.09
275.437	0.17
275.652	0.22
275.866	0.16
276.081	0.13
276.295	0.22
276.509	0.22
276.724	0.23
276.938	0.21
277.153	0.23
277.367	0.25
277.581	0.14
277.796	0.13
278.01	0.13
278.224	0.23
278.438	0.25
278.653	0.1
278.867	0.11
279.081	0.2
279.295	0.13
279.51	0.12
279.724	0.07
279.938	0.2
280.152	0.13
280.366	0.12
280.58	0.16
280.794	0.26
281.008	0.19
281.222	0.18
281.437	0.25
281.651	0.24
281.865	0.24
282.079	0.16
282.293	0.05
282.507	0.15
282.721	0.14
282.935	0.14
283.148	0.08
283.362	0.06
283.576	0.12
283.79	0.12
284.004	0.07
284.218	0.21
284.432	0.13
284.646	0.18
284.859	0.13
285.073	0.14
285.287	0.18
285.501	0.15
285.714	0.09
285.928	0.17
286.142	0.2
286.356	0.14
286.569	0.08
286.783	0.19
286.997	0.27
287.21	0.12
287.424	0.14
287.637	0.12
287.851	0.12
288.065	0.18
288.278	0.1
288.492	0.17
288.705	0.18
288.919	0.15
289.132	0.07
289.346	0.19
289.559	0.04
289.773	0.13
289.986	0.1
290.2	0.14
290.413	0.2
290.626	0.12
290.84	0.13
291.053	0.13
291.267	0.27
291.48	0.11
291.693	0.17
291.906	0.06
292.12	0.11
292.333	0.09
292.546	0.12
292.76	0.21
292.973	0.17
293.186	0.19
293.399	0.12
293.612	0.19
293.826	0.13
294.039	0.16
294.252	0.11
294.465	0.17
294.678	0.15
294.891	0.13
295.104	0.09
295.317	0.12
295.53	0.18
295.743	0.11
295.956	0.15
296.169	0.22
296.382	0.17
296.595	0.17
296.808	0.09
297.021	0.24
297.234	0.12
297.447	0.13
297.66	0.13
297.873	0.2
298.086	0.18
298.299	0.09
298.511	0.09
298.724	0.11
298.937	0.09
299.15	0.13
299.363	0.1
299.575	0.16
299.788	0.15
300.001	0.14
300.213	0.11
300.426	0.11
300.639	0.14
300.852	0.07
301.064	0.19
301.277	0.22
301.489	0.16
301.702	0.13
301.915	0.09
302.127	0.08
302.34	0.14
302.552	0.14
302.765	0.1
302.977	0.16
303.19	0.07
303.402	0.13
303.615	0.12
303.827	0.13
304.04	0.12
304.252	0.17
304.464	0.13
304.677	0.26
304.889	0.17
305.102	0.1
305.314	0.08
305.526	0.15
305.739	0.14
305.951	0.08
306.163	0.1
306.375	0.25
306.588	0.13
306.8	0.08
307.012	0.06
307.224	0.14
307.436	0.18
307.649	0.06
307.861	0.15
308.073	0.19
308.285	0.11
308.497	0.1
308.709	0.1
308.921	0.12
309.133	0.24
309.346	0.14
309.558	0.08
309.77	0.19
309.982	0.23
310.194	0.17
310.406	0.1
310.617	0.2
310.829	0.15
311.041	0.15
311.253	0.07
311.465	0.11
311.677	0.11
311.889	0.09
312.101	0.09
312.313	0.14
312.524	0.23
312.736	0.06
312.948	0.14
313.16	0.24
313.372	0.18
313.583	0.15
313.795	0.13
314.007	0.11
314.218	0.15
314.43	0.15
314.642	0.12
314.853	0.02
315.065	0.17
315.277	0.1
315.488	0.15
315.7	0.13
315.912	0.13
316.123	0.11
316.335	0.13
316.546	0.24
316.758	0.1
316.969	0.12
317.181	0.1
317.392	0.15
317.604	0.15
317.815	0.11
318.026	0.09
318.238	0.09
318.449	0.15
318.661	0.05
318.872	0.05
319.083	0.11
319.295	0.14
319.506	0.1
319.717	0.14
319.929	0.17
320.14	0.17
320.351	0.15
320.562	0.06
320.774	0.12
320.985	0.13
321.196	0.07
321.407	0.02
321.618	0.17
321.829	0.13
322.041	0.13
322.252	0.1
322.463	0.13
322.674	0.17
322.885	0.07
323.096	0.13
323.307	0.13
323.518	0.15
323.729	0.11
323.94	0.1
324.151	0.13
324.362	0.12
324.573	0.15
324.784	0.09
324.995	0.2
325.206	0.16
325.417	0.12
325.628	0.08
325.838	0.16
326.049	0.17
326.26	0.14
326.471	0.12
326.682	0.15
326.892	0.16
327.103	0.04
327.314	0.08
327.525	0.2
327.735	0.14
327.946	0.12
328.157	0.07
328.368	0.2
328.578	0.13
328.789	0.15
328.999	0.14
329.21	0.13
329.421	0.15
329.631	0.06
329.842	0.07
330.052	0.15
330.263	0.16
330.473	0.17
330.684	0.11
330.894	0.14
331.105	0.16
331.315	0.09
331.526	0.1
331.736	0.2
331.947	0.15
332.157	0.14
332.367	0.05
332.578	0.17
332.788	0.21
332.999	0.15
333.209	0.13
333.419	0.07
333.629	0.14
333.84	0.16
334.05	0.11
334.26	0.22
334.47	0.13
334.681	0.19
334.891	0.09
335.101	0.14
335.311	0.25
335.521	0.15
335.732	0.05
335.942	0.17
336.152	0.14
336.362	0.13
336.572	0.14
336.782	0.18
336.992	0.1
337.202	0.11
337.412	0.11
337.622	0.12
337.832	0.14
338.042	0.13
338.252	0.12
338.462	0.11
338.672	0.17
338.882	0.13
339.092	0.13
339.302	0.2
339.511	0.2
339.721	0.14
339.931	0.05
340.141	0.2
340.351	0.2
340.561	0.11
340.77	0.14
340.98	0.15
341.19	0.16
341.4	0.11
341.609	0.07
341.819	0.13
342.029	0.06
342.238	0.11
342.448	0.09
342.658	0.15
342.867	0.12
343.077	0.1
343.286	0.14
343.496	0.16
343.706	0.18
343.915	0.08
344.125	0.12
344.334	0.2
344.544	0.09
344.753	0.12
344.963	0.09
345.172	0.1
345.381	0.09
345.591	0.08
345.8	0.13
346.01	0.16
346.219	0.12
346.428	0.02
346.638	0.13
346.847	0.16
347.056	0.23
347.266	0.07
347.475	0.13
347.684	0.15
347.893	0.14
348.103	0.12
348.312	0.08
348.521	0.12
348.73	0.14
348.94	0.17
349.149	0.09
349.358	0.09
349.567	0.13
349.776	0.06
349.985	0.12
350.194	0.16
350.403	0.21
350.612	0.03
350.821	0.12
351.03	0.13
351.239	0.1
351.448	0.12
351.657	0.1
351.866	0.19
352.075	0.13
352.284	0.14
352.493	0.04
352.702	0.17
352.911	0.12
353.12	0.14
353.329	0.16
353.538	0.17
353.746	0.12
353.955	0.09
354.164	0.14
354.373	0.13
354.582	0.12
354.79	0.12
354.999	0.16
355.208	0.11
355.416	0.22
355.625	0.07
355.834	0.11
356.042	0.15
356.251	0.12
356.46	0.07
356.668	0.15
356.877	0.2
357.085	0.16
357.294	0.06
357.503	0.15
357.711	0.12
357.92	0.23
358.128	0.14
358.337	0.07
358.545	0.14
358.754	0.07
358.962	0.12
359.17	0.1
359.379	0.19
359.587	0.16
359.796	0.12
360.004	0.16
360.212	0.14
360.421	0.18
360.629	0.11
360.837	0.12
361.046	0.18
361.254	0.25
361.462	0.1
361.67	0.11
361.879	0.12
362.087	0.18
362.295	0.08
362.503	0.09
362.711	0.12
362.92	0.12
363.128	0.11
363.336	0.06
363.544	0.06
363.752	0.11
363.96	0.12
364.168	0.09
364.376	0.09
364.584	0.13
364.792	0.13
365	0.1
365.208	0.11
365.416	0.17
365.624	0.15
365.832	0.11
366.04	0.16
366.248	0.16
366.456	0.17
366.664	0.14
366.872	0.14
367.079	0.13
367.287	0.11
367.495	0.14
367.703	0.14
367.911	0.11
368.118	0.11
368.326	0.14
368.534	0.1
368.742	0.17
368.949	0.04
369.157	0.13
369.365	0.16
369.572	0.07
369.78	0.07
369.988	0.2
370.195	0.15
370.403	0.13
370.61	0.1
370.818	0.14
371.026	0.2
371.233	0.08
371.441	0.16
371.648	0.1
371.856	0.1
372.063	0.18
372.271	0.09
372.478	0.14
372.685	0.11
372.893	0.13
373.1	0.08
373.308	0.05
373.515	0.22
373.722	0.17
373.93	0.11
374.137	0.14
374.344	0.2
374.552	0.14
374.759	0.14
374.966	0.13
375.173	0.14
375.381	0.14
375.588	0.14
375.795	0.07
376.002	0.13
376.209	0.1
376.417	0.12
376.624	0.16
376.831	0.13
377.038	0.13
377.245	0.06
377.452	0.08
377.659	0.12
377.866	0.12
378.073	0.09
378.28	0.11
378.487	0.19
378.694	0.16
378.901	0.17
379.108	0.12
379.315	0.14
379.522	0.21
379.729	0.13
379.936	0.14
380.143	0.14
380.35	0.16
380.557	0.09
380.763	0.13
380.97	0.17
381.177	0.16
381.384	0.13
381.591	0.15
381.797	0.13
382.004	0.18
382.211	0.17
382.418	0.14
382.624	0.18
382.831	0.15
383.038	0.08
383.244	0.14
383.451	0.13
383.658	0.17
383.864	0.15
384.071	0.1
384.277	0.22
384.484	0.13
384.69	0.18
384.897	0.14
385.103	0.14
385.31	0.13
385.516	0.13
385.723	0.08
385.929	0.12
386.136	0.13
386.342	0.15
386.549	0.09
386.755	0.2
386.961	0.16
387.168	0.09
387.374	0.16
387.58	0.18
387.787	0.14
387.993	0.18
388.199	0.13
388.406	0.09
388.612	0.14
388.818	0.1
389.024	0.14
389.231	0.15
389.437	0.22
389.643	0.21
389.849	0.14
390.055	0.12
390.261	0.23
390.467	0.14
390.674	0.14
390.88	0.13
391.086	0.15
391.292	0.09
391.498	0.12
391.704	0.17
391.91	0.16
392.116	0.1
392.322	0.1
392.528	0.17
392.734	0.12
392.94	0.11
393.146	0.18
393.352	0.12
393.557	0.15
393.763	0.14
393.969	0.19
394.175	0.14
394.381	0.17
394.587	0.11
394.792	0.12
394.998	0.19
395.204	0.24
395.41	0.16
395.615	0.16
395.821	0.18
396.027	0.17
396.233	0.13
396.438	0.19
396.644	0.15
396.85	0.2
397.055	0.15
397.261	0.17
397.466	0.16
397.672	0.18
397.878	0.17
398.083	0.19
398.289	0.17
398.494	0.22
398.7	0.15
398.905	0.14
399.111	0.24
399.316	0.09
399.522	0.15
399.727	0.15
399.932	0.16
400.138	0.15
400.343	0.2
400.549	0.2
400.754	0.16
400.959	0.19
401.165	0.14
401.37	0.2
401.575	0.29
401.78	0.18
401.986	0.18
402.191	0.14
402.396	0.15
402.601	0.25
402.807	0.17
403.012	0.2
403.217	0.18
403.422	0.17
403.627	0.23
403.832	0.16
404.037	0.21
404.243	0.17
404.448	0.12
404.653	0.2
404.858	0.23
405.063	0.23
405.268	0.12
405.473	0.19
405.678	0.24
405.883	0.41
406.088	0.25
406.293	0.16
406.498	0.23
406.703	0.26
406.907	0.27
407.112	0.18
407.317	0.23
407.522	0.23
407.727	0.2
407.932	0.3
408.136	0.33
408.341	0.25
408.546	0.28
408.751	0.22
408.956	0.25
409.16	0.3
409.365	0.25
409.57	0.27
409.774	0.3
409.979	0.37
410.184	0.32
410.388	0.26
410.593	0.42
410.798	0.34
411.002	0.31
411.207	0.33
411.411	0.41
411.616	0.33
411.82	0.38
412.025	0.38
412.229	0.35
412.434	0.5
412.638	0.43
412.843	0.41
413.047	0.46
413.252	0.4
413.456	0.42
413.66	0.54
413.865	0.47
414.069	0.58
414.273	0.53
414.478	0.47
414.682	0.53
414.886	0.55
415.091	0.52
415.295	0.53
415.499	0.67
415.703	0.65
415.908	0.69
416.112	0.6
416.316	0.76
416.52	0.7
416.724	0.71
416.929	0.73
417.133	0.98
417.337	0.81
417.541	0.84
417.745	0.88
417.949	0.99
418.153	0.97
418.357	0.89
418.561	1.12
418.765	1.03
418.969	1.15
419.173	1.2
419.377	1.1
419.581	1.28
419.785	1.18
419.989	1.21
420.193	1.31
420.397	1.37
420.601	1.5
420.804	1.54
421.008	1.39
421.212	1.54
421.416	1.58
421.62	1.56
421.823	1.6
422.027	1.71
422.231	1.64
422.435	1.7
422.638	1.72
422.842	1.72
423.046	1.77
423.249	1.88
423.453	1.87
423.657	2
423.86	2.02
424.064	2.06
424.268	2.27
424.471	2.14
424.675	2.26
424.878	2.38
425.082	2.36
425.285	2.58
425.489	2.47
425.692	2.53
425.896	2.56
426.099	2.66
426.303	2.76
426.506	2.8
426.71	2.89
426.913	3.08
427.116	3.08
427.32	3.09
427.523	3.13
427.726	3.26
427.93	3.28
428.133	3.42
428.336	3.48
428.54	3.62
428.743	3.78
428.946	3.91
429.149	3.85
429.353	3.91
429.556	3.9
429.759	3.94
429.962	3.94
430.165	4.04
430.368	3.88
430.571	3.89
430.775	3.98
430.978	3.94
431.181	4
431.384	4
431.587	4.02
431.79	4.28
431.993	4.23
432.196	4.33
432.399	4.53
432.602	4.64
432.805	4.66
433.008	4.87
433.211	4.78
433.414	5.05
433.616	5.02
433.819	5
434.022	5.12
434.225	5.12
434.428	5.24
434.631	5.54
434.833	5.29
435.036	5.49
435.239	5.54
435.442	5.62
435.645	5.64
435.847	5.74
436.05	5.87
436.253	6.01
436.455	6
436.658	6.01
436.861	6.15
437.063	6.24
437.266	6.15
437.468	6.34
437.671	6.61
437.874	6.52
438.076	6.44
438.279	6.77
438.481	6.79
438.684	7.12
438.886	6.95
439.089	7.19
439.291	7.14
439.494	7.41
439.696	7.38
439.899	7.82
440.101	7.95
440.303	8.07
440.506	8.51
440.708	8.43
440.91	8.45
441.113	8.59
441.315	8.84
441.517	8.69
441.72	8.93
441.922	8.82
442.124	8.76
442.326	8.98
442.529	9.13
442.731	9.16
442.933	9.37
443.135	9.19
443.337	9.2
443.539	9.58
443.742	9.29
443.944	9.77
444.146	9.57
444.348	9.62
444.55	9.6
444.752	9.76
444.954	9.74
445.156	9.76
445.358	9.98
445.56	10.23
445.762	9.94
445.964	10.3
446.166	10
446.368	10.16
446.57	10.23
446.772	9.97
446.974	9.87
447.175	10.04
447.377	9.86
447.579	10.14
447.781	9.98
447.983	9.95
448.184	9.56
448.386	9.83
448.588	9.6
448.79	9.57
448.991	9.8
449.193	9.76
449.395	9.34
449.597	9.23
449.798	9.18
450	9.03
450.202	8.85
450.403	8.89
450.605	8.84
450.806	8.68
451.008	8.52
451.21	8.47
451.411	8.22
451.613	7.69
451.814	7.9
452.016	7.8
452.217	7.47
452.419	7.56
452.62	7.2
452.821	7.18
453.023	7.1
453.224	6.87
453.426	6.59
453.627	6.21
453.828	6.39
454.03	6.3
454.231	6.25
454.432	6.21
454.634	6.02
454.835	5.84
455.036	5.69
455.238	5.53
455.439	5.42
455.64	5.22
455.841	5.21
456.042	5.35
456.244	4.98
456.445	4.88
456.646	4.71
456.847	4.62
457.048	4.65
457.249	4.72
457.45	4.59
457.651	4.23
457.852	4.15
458.054	3.97
458.255	3.91
458.456	3.93
458.657	3.93
458.858	3.68
459.058	3.62
459.259	3.62
459.46	3.46
459.661	3.45
459.862	3.59
460.063	3.43
460.264	3.4
460.465	3.2
460.666	3.3
460.866	3.12
461.067	2.99
461.268	2.98
461.469	3
461.67	2.92
461.87	2.81
462.071	2.88
462.272	2.74
462.473	2.77
462.673	2.85
462.874	2.76
463.075	2.79
463.275	2.78
463.476	2.76
463.676	2.73
463.877	2.67
464.078	2.67
464.278	2.69
464.479	2.62
464.679	2.59
464.88	2.52
465.08	2.54
465.281	2.39
465.481	2.26
465.682	2.22
465.882	2.28
466.083	2.21
466.283	2.13
466.483	2.14
466.684	2.01
466.884	1.95
467.085	1.98
467.285	1.96
467.485	1.87
467.686	1.96
467.886	1.87
468.086	1.78
468.286	1.79
468.487	1.81
468.687	1.72
468.887	1.69
469.087	1.81
469.287	1.71
469.488	1.59
469.688	1.72
469.888	1.71
470.088	1.66
470.288	1.63
470.488	1.63
470.688	1.48
470.888	1.54
471.088	1.4
471.288	1.5
471.488	1.48
471.688	1.42
471.888	1.42
472.088	1.53
472.288	1.43
472.488	1.33
472.688	1.3
472.888	1.38
473.088	1.37
473.288	1.34
473.488	1.31
473.688	1.38
473.887	1.32
474.087	1.29
474.287	1.31
474.487	1.24
474.687	1.33
474.886	1.21
475.086	1.2
475.286	1.23
475.486	1.24
475.685	1.21
475.885	1.17
476.085	1.23
476.284	1.19
476.484	1.19
476.684	1.16
476.883	1.24
477.083	1.14
477.282	1.11
477.482	1.14
477.681	1.14
477.881	1.07
478.08	1.08
478.28	1.05
478.479	1.14
478.679	1.17
478.878	1.07
479.078	1
479.277	1.04
479.477	1.08
479.676	1.05
479.875	1.02
480.075	0.99
480.274	1.02
480.473	1.08
480.673	1.02
480.872	1.1
481.071	1.04
481.271	1.08
481.47	1.02
481.669	1.08
481.868	1.01
482.067	1.03
482.267	0.99
482.466	1.01
482.665	0.97
482.864	1.02
483.063	0.96
483.262	1.05
483.461	1.07
483.661	1.08
483.86	1.02
484.059	1.05
484.258	1.05
484.457	1.07
484.656	1.03
484.855	1.14
485.054	1
485.253	1.02
485.452	0.97
485.651	1.09
485.849	1.04
486.048	1.05
486.247	1.04
486.446	1.08
486.645	1.06
486.844	1.1
487.043	1.09
487.241	1.11
487.44	1.08
487.639	1.1
487.838	1.11
488.037	1.1
488.235	1.2
488.434	1.1
488.633	1.08
488.831	1.16
489.03	1.21
489.229	1.19
489.427	1.15
489.626	1.22
489.825	1.16
490.023	1.2
490.222	1.17
490.42	1.24
490.619	1.23
490.817	1.27
491.016	1.25
491.214	1.28
491.413	1.29
491.611	1.26
491.81	1.25
492.008	1.31
492.207	1.34
492.405	1.37
492.604	1.27
492.802	1.38
493	1.38
493.199	1.39
493.397	1.38
493.595	1.43
493.794	1.4
493.992	1.5
494.19	1.45
494.388	1.51
494.587	1.47
494.785	1.49
494.983	1.41
495.181	1.53
495.379	1.55
495.578	1.58
495.776	1.57
495.974	1.56
496.172	1.56
496.37	1.65
496.568	1.62
496.766	1.64
496.964	1.74
497.162	1.7
497.36	1.68
497.558	1.75
497.756	1.8
497.954	1.78
498.152	1.79
498.35	1.86
498.548	1.79
498.746	1.86
498.944	1.82
499.142	1.89
499.34	1.9
499.538	1.97
499.736	1.91
499.933	1.99
500.131	1.95
500.329	2.03
500.527	2.08
500.725	2.13
500.922	2.09
501.12	2.1
501.318	2.13
501.516	2.15
501.713	2.17
501.911	2.15
502.109	2.12
502.306	2.26
502.504	2.18
502.701	2.23
502.899	2.3
503.097	2.37
503.294	2.28
503.492	2.36
503.689	2.38
503.887	2.37
504.084	2.47
504.282	2.41
