Data from Apollo_Calib_20240827__AbsoluteIrradiance__783__12-12-01-376.txt Node

Date: Wed Aug 28 12:12:01 BST 2024
User: biology
Spectrometer: FLMT08252
Trigger mode: 0
Integration Time (sec): 5.000000E-1
Scans to average: 5
Electric dark correction enabled: true
Nonlinearity correction enabled: false
Boxcar width: 0
XAxis mode: Wavelengths
Number of Pixels in Spectrum: 3648
>>>>>Begin Spectral Data<<<<<
179.588	-0
179.809	-0
180.03	-0
180.251	-0
180.473	-0
180.694	0
180.915	0
181.136	-0
181.357	0
181.578	-0
181.799	0
182.02	-0
182.241	-0
182.462	-0
182.683	0
182.904	-0
183.125	-0
183.346	0
183.567	0
183.788	0
184.009	0
184.23	0
184.451	0
184.672	0
184.892	0
185.113	0
185.334	0
185.555	0
185.776	0
185.996	0
186.217	0
186.438	0
186.659	0
186.879	0
187.1	0
187.321	0
187.541	0
187.762	0
187.983	0
188.203	0
188.424	0
188.644	0
188.865	0
189.086	0
189.306	0
189.527	0
189.747	0
189.968	0
190.188	0
190.409	0
190.629	0
190.849	0
191.07	0
191.29	0
191.511	0
191.731	0
191.951	0
192.172	0
192.392	0
192.612	0
192.833	0
193.053	0
193.273	0
193.493	0
193.714	0
193.934	0
194.154	0
194.374	0
194.594	0
194.815	0
195.035	0
195.255	0
195.475	0
195.695	0
195.915	0
196.135	0
196.355	0
196.575	0
196.795	0
197.015	0
197.235	0
197.455	0
197.675	0
197.895	0
198.115	0
198.335	0
198.555	0
198.775	0
198.995	0
199.214	0
199.434	0
199.654	0
199.874	0
200.094	4.01
200.313	2.6
200.533	1.6
200.753	1.94
200.973	3.76
201.192	3.05
201.412	0.98
201.632	2.08
201.851	3.74
202.071	1.75
202.291	1.64
202.51	1.77
202.73	3.05
202.95	1.45
203.169	1.58
203.389	2.18
203.608	2.1
203.828	1.55
204.047	1.28
204.267	2.12
204.486	2.42
204.706	2.19
204.925	1.6
205.145	1.59
205.364	2.22
205.583	2.61
205.803	1.18
206.022	1.02
206.242	1.5
206.461	1.47
206.68	1.49
206.9	1.58
207.119	2.39
207.338	2.63
207.557	1.13
207.777	1.33
207.996	1.42
208.215	2.14
208.434	0.93
208.654	1.01
208.873	1.42
209.092	2.19
209.311	1.15
209.53	1.15
209.749	1.26
209.968	1.16
210.187	1.12
210.407	0.8
210.626	1.17
210.845	1.56
211.064	1.22
211.283	0.69
211.502	1.68
211.721	1.16
211.94	1.07
212.159	1.24
212.377	1.45
212.596	1.46
212.815	1.01
213.034	1.36
213.253	1.35
213.472	1.24
213.691	1.05
213.91	0.61
214.128	1.01
214.347	1.72
214.566	0.6
214.785	0.59
215.003	1.16
215.222	1.27
215.441	1
215.66	0.55
215.878	0.91
216.097	1.29
216.316	0.6
216.534	0.71
216.753	1.21
216.972	0.92
217.19	0.98
217.409	0.66
217.627	0.72
217.846	0.95
218.064	0.91
218.283	0.56
218.501	1.59
218.72	1.32
218.938	0.58
219.157	0.7
219.375	1.01
219.594	0.85
219.812	0.58
220.031	0.48
220.249	1.2
220.467	1.15
220.686	0.66
220.904	0.59
221.122	0.71
221.341	1.1
221.559	0.9
221.777	0.31
221.995	0.85
222.214	1.04
222.432	0.59
222.65	0.76
222.868	0.82
223.086	0.79
223.305	0.76
223.523	0.65
223.741	1.05
223.959	0.78
224.177	0.37
224.395	0.58
224.613	0.86
224.831	1
225.049	0.47
225.267	0.68
225.485	0.87
225.703	0.72
225.921	0.58
226.139	0.46
226.357	0.91
226.575	0.76
226.793	0.58
227.011	1.44
227.229	0.66
227.447	0.87
227.665	0.49
227.883	0.3
228.1	0.62
228.318	0.85
228.536	0.31
228.754	0.53
228.972	0.78
229.189	0.87
229.407	0.65
229.625	0.62
229.843	0.81
230.06	0.82
230.278	0.52
230.496	0.54
230.713	0.74
230.931	0.76
231.149	0.4
231.366	0.33
231.584	0.67
231.801	1
232.019	0.62
232.236	0.43
232.454	0.55
232.671	0.73
232.889	0.55
233.106	0.47
233.324	0.53
233.541	0.5
233.759	0.54
233.976	0.41
234.194	0.54
234.411	0.54
234.628	0.37
234.846	0.43
235.063	0.47
235.28	0.61
235.498	0.53
235.715	0.39
235.932	0.75
236.149	0.57
236.367	0.29
236.584	0.53
236.801	0.56
237.018	0.72
237.236	0.5
237.453	0.34
237.67	0.81
237.887	0.54
238.104	0.4
238.321	0.39
238.538	0.38
238.755	0.7
238.973	0.35
239.19	0.53
239.407	0.58
239.624	0.53
239.841	0.36
240.058	0.38
240.275	0.48
240.492	0.47
240.709	0.58
240.925	0.45
241.142	0.41
241.359	0.4
241.576	0.46
241.793	0.39
242.01	0.43
242.227	0.7
242.444	0.56
242.66	0.68
242.877	0.57
243.094	0.39
243.311	0.52
243.527	0.47
243.744	0.57
243.961	0.49
244.178	0.39
244.394	0.39
244.611	0.64
244.828	0.61
245.044	0.42
245.261	0.4
245.477	0.49
245.694	0.57
245.911	0.39
246.127	0.48
246.344	0.68
246.56	0.59
246.777	0.46
246.993	0.38
247.21	0.49
247.426	0.53
247.643	0.34
247.859	0.36
248.076	0.37
248.292	0.69
248.508	0.38
248.725	0.45
248.941	0.54
249.157	0.64
249.374	0.38
249.59	0.34
249.806	0.42
250.023	0.64
250.239	0.37
250.455	0.27
250.671	0.42
250.888	0.5
251.104	0.43
251.32	0.35
251.536	0.45
251.752	0.38
251.969	0.4
252.185	0.38
252.401	0.62
252.617	0.61
252.833	0.4
253.049	0.49
253.265	0.43
253.481	0.52
253.697	0.36
253.913	0.3
254.129	0.51
254.345	0.42
254.561	0.3
254.777	0.31
254.993	0.49
255.209	0.45
255.425	0.31
255.641	0.31
255.857	0.57
256.073	0.49
256.288	0.25
256.504	0.37
256.72	0.48
256.936	0.58
257.152	0.39
257.367	0.32
257.583	0.44
257.799	0.5
258.015	0.34
258.23	0.35
258.446	0.62
258.662	0.34
258.877	0.28
259.093	0.27
259.309	0.44
259.524	0.39
259.74	0.27
259.955	0.32
260.171	0.37
260.387	0.38
260.602	0.44
260.818	0.43
261.033	0.3
261.249	0.35
261.464	0.3
261.68	0.22
261.895	0.43
262.11	0.48
262.326	0.31
262.541	0.21
262.757	0.47
262.972	0.48
263.187	0.47
263.403	0.35
263.618	0.51
263.833	0.35
264.049	0.23
264.264	0.36
264.479	0.39
264.694	0.49
264.91	0.23
265.125	0.36
265.34	0.45
265.555	0.61
265.77	0.34
265.986	0.35
266.201	0.48
266.416	0.46
266.631	0.3
266.846	0.25
267.061	0.41
267.276	0.45
267.491	0.2
267.706	0.39
267.921	0.36
268.136	0.41
268.351	0.24
268.566	0.32
268.781	0.47
268.996	0.43
269.211	0.35
269.426	0.24
269.641	0.35
269.856	0.51
270.071	0.28
270.285	0.21
270.5	0.42
270.715	0.4
270.93	0.29
271.145	0.35
271.359	0.45
271.574	0.29
271.789	0.32
272.004	0.28
272.218	0.29
272.433	0.46
272.648	0.27
272.862	0.4
273.077	0.39
273.292	0.41
273.506	0.29
273.721	0.29
273.936	0.39
274.15	0.51
274.365	0.26
274.579	0.42
274.794	0.38
275.008	0.42
275.223	0.24
275.437	0.33
275.652	0.42
275.866	0.44
276.081	0.32
276.295	0.38
276.509	0.33
276.724	0.36
276.938	0.33
277.153	0.32
277.367	0.44
277.581	0.31
277.796	0.28
278.01	0.24
278.224	0.36
278.438	0.52
278.653	0.29
278.867	0.19
279.081	0.3
279.295	0.32
279.51	0.28
279.724	0.15
279.938	0.41
280.152	0.39
280.366	0.26
280.58	0.34
280.794	0.43
281.008	0.44
281.222	0.35
281.437	0.45
281.651	0.4
281.865	0.41
282.079	0.26
282.293	0.21
282.507	0.25
282.721	0.26
282.935	0.28
283.148	0.19
283.362	0.27
283.576	0.26
283.79	0.3
284.004	0.26
284.218	0.4
284.432	0.26
284.646	0.28
284.859	0.27
285.073	0.24
285.287	0.32
285.501	0.28
285.714	0.3
285.928	0.31
286.142	0.33
286.356	0.3
286.569	0.19
286.783	0.39
286.997	0.35
287.21	0.28
287.424	0.24
287.637	0.27
287.851	0.23
288.065	0.34
288.278	0.27
288.492	0.3
288.705	0.31
288.919	0.32
289.132	0.19
289.346	0.35
289.559	0.24
289.773	0.25
289.986	0.26
290.2	0.3
290.413	0.42
290.626	0.26
290.84	0.24
291.053	0.3
291.267	0.38
291.48	0.29
291.693	0.28
291.906	0.23
292.12	0.26
292.333	0.24
292.546	0.27
292.76	0.38
292.973	0.31
293.186	0.31
293.399	0.24
293.612	0.36
293.826	0.27
294.039	0.3
294.252	0.27
294.465	0.36
294.678	0.27
294.891	0.31
295.104	0.22
295.317	0.27
295.53	0.32
295.743	0.26
295.956	0.28
296.169	0.37
296.382	0.28
296.595	0.28
296.808	0.23
297.021	0.38
297.234	0.34
297.447	0.29
297.66	0.3
297.873	0.33
298.086	0.35
298.299	0.24
298.511	0.14
298.724	0.29
298.937	0.18
299.15	0.24
299.363	0.24
299.575	0.31
299.788	0.28
300.001	0.3
300.213	0.23
300.426	0.22
300.639	0.24
300.852	0.19
301.064	0.31
301.277	0.34
301.489	0.33
301.702	0.29
301.915	0.26
302.127	0.29
302.34	0.27
302.552	0.3
302.765	0.23
302.977	0.3
303.19	0.23
303.402	0.23
303.615	0.26
303.827	0.22
304.04	0.27
304.252	0.32
304.464	0.24
304.677	0.45
304.889	0.28
305.102	0.24
305.314	0.24
305.526	0.34
305.739	0.3
305.951	0.2
306.163	0.25
306.375	0.34
306.588	0.26
306.8	0.2
307.012	0.22
307.224	0.31
307.436	0.33
307.649	0.18
307.861	0.21
308.073	0.27
308.285	0.23
308.497	0.22
308.709	0.2
308.921	0.28
309.133	0.34
309.346	0.21
309.558	0.25
309.77	0.29
309.982	0.33
310.194	0.33
310.406	0.23
310.617	0.36
310.829	0.3
311.041	0.31
311.253	0.19
311.465	0.27
311.677	0.29
311.889	0.26
312.101	0.19
312.313	0.33
312.524	0.35
312.736	0.21
312.948	0.23
313.16	0.38
313.372	0.35
313.583	0.27
313.795	0.25
314.007	0.24
314.218	0.32
314.43	0.22
314.642	0.23
314.853	0.18
315.065	0.32
315.277	0.27
315.488	0.28
315.7	0.35
315.912	0.3
316.123	0.26
316.335	0.23
316.546	0.38
316.758	0.25
316.969	0.22
317.181	0.29
317.392	0.27
317.604	0.34
317.815	0.22
318.026	0.21
318.238	0.23
318.449	0.31
318.661	0.19
318.872	0.17
319.083	0.21
319.295	0.37
319.506	0.22
319.717	0.28
319.929	0.27
320.14	0.25
320.351	0.28
320.562	0.2
320.774	0.29
320.985	0.28
321.196	0.2
321.407	0.21
321.618	0.3
321.829	0.28
322.041	0.26
322.252	0.25
322.463	0.3
322.674	0.29
322.885	0.18
323.096	0.27
323.307	0.25
323.518	0.27
323.729	0.2
323.94	0.28
324.151	0.3
324.362	0.29
324.573	0.29
324.784	0.23
324.995	0.33
325.206	0.28
325.417	0.24
325.628	0.18
325.838	0.26
326.049	0.31
326.26	0.3
326.471	0.24
326.682	0.32
326.892	0.29
327.103	0.18
327.314	0.21
327.525	0.28
327.735	0.28
327.946	0.26
328.157	0.25
328.368	0.34
328.578	0.29
328.789	0.29
328.999	0.26
329.21	0.26
329.421	0.31
329.631	0.23
329.842	0.2
330.052	0.28
330.263	0.27
330.473	0.29
330.684	0.23
330.894	0.25
331.105	0.3
331.315	0.3
331.526	0.21
331.736	0.34
331.947	0.29
332.157	0.28
332.367	0.16
332.578	0.29
332.788	0.33
332.999	0.31
333.209	0.25
333.419	0.2
333.629	0.29
333.84	0.27
334.05	0.24
334.26	0.35
334.47	0.24
334.681	0.31
334.891	0.24
335.101	0.35
335.311	0.33
335.521	0.3
335.732	0.21
335.942	0.31
336.152	0.25
336.362	0.25
336.572	0.28
336.782	0.3
336.992	0.27
337.202	0.26
337.412	0.24
337.622	0.32
337.832	0.26
338.042	0.26
338.252	0.21
338.462	0.26
338.672	0.25
338.882	0.19
339.092	0.2
339.302	0.38
339.511	0.35
339.721	0.27
339.931	0.2
340.141	0.33
340.351	0.32
340.561	0.27
340.77	0.27
340.98	0.29
341.19	0.28
341.4	0.23
341.609	0.17
341.819	0.25
342.029	0.2
342.238	0.27
342.448	0.24
342.658	0.28
342.867	0.29
343.077	0.24
343.286	0.26
343.496	0.28
343.706	0.33
343.915	0.21
344.125	0.27
344.334	0.28
344.544	0.18
344.753	0.23
344.963	0.23
345.172	0.23
345.381	0.21
345.591	0.22
345.8	0.24
346.01	0.4
346.219	0.34
346.428	0.12
346.638	0.25
346.847	0.25
347.056	0.33
347.266	0.21
347.475	0.24
347.684	0.31
347.893	0.27
348.103	0.3
348.312	0.23
348.521	0.27
348.73	0.27
348.94	0.27
349.149	0.24
349.358	0.22
349.567	0.22
349.776	0.16
349.985	0.22
350.194	0.3
350.403	0.31
350.612	0.15
350.821	0.23
351.03	0.23
351.239	0.22
351.448	0.23
351.657	0.22
351.866	0.32
352.075	0.32
352.284	0.27
352.493	0.21
352.702	0.32
352.911	0.24
353.12	0.27
353.329	0.21
353.538	0.29
353.746	0.24
353.955	0.17
354.164	0.29
354.373	0.28
354.582	0.29
354.79	0.25
354.999	0.32
355.208	0.23
355.416	0.36
355.625	0.16
355.834	0.26
356.042	0.32
356.251	0.21
356.46	0.18
356.668	0.25
356.877	0.34
357.085	0.31
357.294	0.13
357.503	0.28
357.711	0.25
357.92	0.43
358.128	0.25
358.337	0.22
358.545	0.26
358.754	0.22
358.962	0.26
359.17	0.24
359.379	0.28
359.587	0.27
359.796	0.25
360.004	0.29
360.212	0.28
360.421	0.31
360.629	0.24
360.837	0.28
361.046	0.31
361.254	0.38
361.462	0.23
361.67	0.2
361.879	0.29
362.087	0.29
362.295	0.24
362.503	0.21
362.711	0.18
362.92	0.2
363.128	0.22
363.336	0.19
363.544	0.18
363.752	0.24
363.96	0.21
364.168	0.22
364.376	0.25
364.584	0.25
364.792	0.32
365	0.27
365.208	0.26
365.416	0.27
365.624	0.31
365.832	0.2
366.04	0.3
366.248	0.3
366.456	0.23
366.664	0.24
366.872	0.26
367.079	0.24
367.287	0.26
367.495	0.24
367.703	0.26
367.911	0.26
368.118	0.25
368.326	0.23
368.534	0.22
368.742	0.34
368.949	0.21
369.157	0.21
369.365	0.26
369.572	0.23
369.78	0.17
369.988	0.26
370.195	0.31
370.403	0.31
370.61	0.22
370.818	0.22
371.026	0.36
371.233	0.21
371.441	0.27
371.648	0.24
371.856	0.28
372.063	0.29
372.271	0.24
372.478	0.24
372.685	0.25
372.893	0.32
373.1	0.26
373.308	0.23
373.515	0.35
373.722	0.32
373.93	0.2
374.137	0.3
374.344	0.35
374.552	0.29
374.759	0.32
374.966	0.25
375.173	0.22
375.381	0.29
375.588	0.26
375.795	0.18
376.002	0.26
376.209	0.24
376.417	0.24
376.624	0.3
376.831	0.31
377.038	0.28
377.245	0.17
377.452	0.25
377.659	0.28
377.866	0.22
378.073	0.27
378.28	0.24
378.487	0.34
378.694	0.3
378.901	0.27
379.108	0.3
379.315	0.35
379.522	0.37
379.729	0.22
379.936	0.3
380.143	0.32
380.35	0.28
380.557	0.23
380.763	0.24
380.97	0.29
381.177	0.23
381.384	0.27
381.591	0.27
381.797	0.32
382.004	0.33
382.211	0.3
382.418	0.23
382.624	0.31
382.831	0.31
383.038	0.25
383.244	0.28
383.451	0.28
383.658	0.35
383.864	0.25
384.071	0.26
384.277	0.35
384.484	0.28
384.69	0.32
384.897	0.26
385.103	0.28
385.31	0.24
385.516	0.24
385.723	0.25
385.929	0.32
386.136	0.32
386.342	0.32
386.549	0.25
386.755	0.34
386.961	0.32
387.168	0.26
387.374	0.3
387.58	0.31
387.787	0.28
387.993	0.28
388.199	0.27
388.406	0.28
388.612	0.29
388.818	0.25
389.024	0.27
389.231	0.26
389.437	0.4
389.643	0.3
389.849	0.26
390.055	0.32
390.261	0.32
390.467	0.35
390.674	0.22
390.88	0.3
391.086	0.35
391.292	0.28
391.498	0.37
391.704	0.35
391.91	0.31
392.116	0.33
392.322	0.18
392.528	0.33
392.734	0.31
392.94	0.31
393.146	0.31
393.352	0.33
393.557	0.31
393.763	0.31
393.969	0.33
394.175	0.31
394.381	0.35
394.587	0.3
394.792	0.3
394.998	0.37
395.204	0.39
395.41	0.27
395.615	0.36
395.821	0.33
396.027	0.36
396.233	0.27
396.438	0.36
396.644	0.38
396.85	0.29
397.055	0.36
397.261	0.35
397.466	0.34
397.672	0.35
397.878	0.34
398.083	0.37
398.289	0.34
398.494	0.4
398.7	0.36
398.905	0.27
399.111	0.41
399.316	0.29
399.522	0.35
399.727	0.33
399.932	0.32
400.138	0.29
400.343	0.41
400.549	0.3
400.754	0.4
400.959	0.36
401.165	0.3
401.37	0.41
401.575	0.35
401.78	0.39
401.986	0.36
402.191	0.37
402.396	0.41
402.601	0.4
402.807	0.4
403.012	0.36
403.217	0.45
403.422	0.44
403.627	0.43
403.832	0.38
404.037	0.47
404.243	0.48
404.448	0.39
404.653	0.47
404.858	0.51
405.063	0.51
405.268	0.42
405.473	0.4
405.678	0.47
405.883	0.68
406.088	0.55
406.293	0.43
406.498	0.46
406.703	0.53
406.907	0.52
407.112	0.43
407.317	0.51
407.522	0.59
407.727	0.51
407.932	0.56
408.136	0.67
408.341	0.58
408.546	0.55
408.751	0.6
408.956	0.6
409.16	0.68
409.365	0.56
409.57	0.61
409.774	0.63
409.979	0.7
410.184	0.69
410.388	0.62
410.593	0.76
410.798	0.73
411.002	0.77
411.207	0.82
411.411	0.82
411.616	0.77
411.82	0.91
412.025	0.86
412.229	0.84
412.434	1.02
412.638	0.99
412.843	0.93
413.047	1.01
413.252	0.96
413.456	1.03
413.66	1.1
413.865	1.04
414.069	1.19
414.273	1.14
414.478	1.16
414.682	1.18
414.886	1.23
415.091	1.25
415.295	1.29
415.499	1.45
415.703	1.39
415.908	1.47
416.112	1.41
416.316	1.59
416.52	1.61
416.724	1.55
416.929	1.64
417.133	1.89
417.337	1.79
417.541	1.87
417.745	1.89
417.949	2.02
418.153	2.05
418.357	2.1
418.561	2.32
418.765	2.32
418.969	2.36
419.173	2.46
419.377	2.45
419.581	2.72
419.785	2.65
419.989	2.71
420.193	2.88
420.397	2.97
420.601	3.08
420.804	3.21
421.008	3.16
421.212	3.34
421.416	3.37
421.62	3.37
421.823	3.46
422.027	3.63
422.231	3.55
422.435	3.63
422.638	3.66
422.842	3.85
423.046	3.9
423.249	4.03
423.453	4.04
423.657	4.22
423.86	4.29
424.064	4.44
424.268	4.6
424.471	4.53
424.675	4.8
424.878	4.82
425.082	4.96
425.285	5.28
425.489	5.21
425.692	5.34
425.896	5.31
426.099	5.55
426.303	5.75
426.506	5.85
426.71	6.05
426.913	6.35
427.116	6.47
427.32	6.42
427.523	6.55
427.726	6.87
427.93	6.9
428.133	7.22
428.336	7.36
428.54	7.44
428.743	7.8
428.946	7.96
429.149	8.03
429.353	8.01
429.556	8.08
429.759	8.18
429.962	8.3
430.165	8.47
430.368	8.05
430.571	8.22
430.775	8.18
430.978	8.11
431.181	8.22
431.384	8.26
431.587	8.45
431.79	8.81
431.993	8.84
432.196	9
432.399	9.45
432.602	9.52
432.805	9.63
433.008	10.24
433.211	10.09
433.414	10.48
433.616	10.38
433.819	10.43
434.022	10.5
434.225	10.67
434.428	10.6
434.631	11.17
434.833	10.92
435.036	11.24
435.239	11.43
435.442	11.4
435.645	11.58
435.847	11.8
436.05	12.02
436.253	12.18
436.455	12.23
436.658	12.24
436.861	12.42
437.063	12.6
437.266	12.52
437.468	12.9
437.671	13.19
437.874	13.24
438.076	13.08
438.279	13.56
438.481	13.54
438.684	14.26
438.886	14.02
439.089	14.26
439.291	14.2
439.494	14.65
439.696	14.88
439.899	15.33
440.101	15.72
440.303	15.96
440.506	16.6
440.708	16.47
440.91	16.61
441.113	16.77
441.315	17.09
441.517	16.88
441.72	17.3
441.922	17.08
442.124	16.95
442.326	17.3
442.529	17.53
442.731	17.47
442.933	17.76
443.135	17.49
443.337	17.55
443.539	18.07
443.742	17.79
443.944	18.5
444.146	18.24
444.348	18.24
444.55	18
444.752	18.17
444.954	18.08
445.156	18.15
445.358	18.37
445.56	18.68
445.762	18.51
445.964	19
446.166	18.62
446.368	18.67
446.57	18.53
446.772	18.22
446.974	18.06
447.175	18.21
447.377	17.88
447.579	18.33
447.781	18.07
447.983	17.94
448.184	17.37
448.386	17.69
448.588	17.2
448.79	17.16
448.991	17.37
449.193	17.34
449.395	16.88
449.597	16.4
449.798	16.26
450	15.86
450.202	15.82
450.403	15.75
450.605	15.61
450.806	15.19
451.008	15.12
451.21	14.75
451.411	14.42
451.613	13.66
451.814	13.93
452.016	13.81
452.217	13.21
452.419	13.23
452.62	12.79
452.821	12.64
453.023	12.47
453.224	12.14
453.426	11.64
453.627	10.96
453.828	11.15
454.03	11.03
454.231	11.1
454.432	10.86
454.634	10.68
454.835	10.27
455.036	10.26
455.238	9.9
455.439	9.63
455.64	9.37
455.841	9.2
456.042	9.43
456.244	8.96
456.445	8.75
456.646	8.55
456.847	8.44
457.048	8.35
457.249	8.3
457.45	8.11
457.651	7.69
457.852	7.49
458.054	7.15
458.255	7.17
458.456	7.26
458.657	6.97
458.858	6.69
459.058	6.46
459.259	6.69
459.46	6.24
459.661	6.34
459.862	6.43
460.063	6.26
460.264	6.14
460.465	5.9
460.666	6.02
460.866	5.7
461.067	5.4
461.268	5.45
461.469	5.4
461.67	5.29
461.87	5.16
462.071	5.25
462.272	5.02
462.473	5.06
462.673	5.18
462.874	5.03
463.075	5.02
463.275	5.04
463.476	5.05
463.676	4.99
463.877	4.9
464.078	4.88
464.278	4.9
464.479	4.74
464.679	4.74
464.88	4.59
465.08	4.65
465.281	4.4
465.481	4.19
465.682	4.06
465.882	4.06
466.083	4.02
466.283	3.94
466.483	3.87
466.684	3.73
466.884	3.56
467.085	3.62
467.285	3.7
467.485	3.59
467.686	3.44
467.886	3.38
468.086	3.33
468.286	3.27
468.487	3.41
468.687	3.21
468.887	3.14
469.087	3.3
469.287	3.22
469.488	3.03
469.688	3.17
469.888	3.19
470.088	3.06
470.288	3.01
470.488	2.93
470.688	2.87
470.888	2.83
471.088	2.65
471.288	2.81
471.488	2.74
471.688	2.76
471.888	2.64
472.088	2.81
472.288	2.72
472.488	2.56
472.688	2.5
472.888	2.6
473.088	2.57
473.288	2.49
473.488	2.41
473.688	2.61
473.887	2.44
474.087	2.39
474.287	2.43
474.487	2.38
474.687	2.4
474.886	2.35
475.086	2.29
475.286	2.32
475.486	2.26
475.685	2.2
475.885	2.19
476.085	2.28
476.284	2.27
476.484	2.23
476.684	2.17
476.883	2.27
477.083	2.12
477.282	2.12
477.482	2.21
477.681	2.13
477.881	2.05
478.08	2.08
478.28	2.01
478.479	2.1
478.679	2.15
478.878	2.05
479.078	2.01
479.277	2.09
479.477	2
479.676	1.98
479.875	1.98
480.075	1.91
480.274	1.99
480.473	2.05
480.673	2.01
480.872	2.09
481.071	2.03
481.271	2.03
481.47	1.98
481.669	1.97
481.868	1.96
482.067	1.96
482.267	1.89
482.466	1.91
482.665	1.95
482.864	1.96
483.063	1.89
483.262	2
483.461	2.02
483.661	2.05
483.86	1.93
484.059	2.01
484.258	2.02
484.457	1.97
484.656	1.95
484.855	2.09
485.054	1.93
485.253	1.95
485.452	1.94
485.651	2.03
485.849	2.03
486.048	2.01
486.247	2.02
486.446	2.04
486.645	2
486.844	2.07
487.043	2.02
487.241	2.08
487.44	2.05
487.639	2.13
487.838	2.12
488.037	2.1
488.235	2.24
488.434	2.17
488.633	2.03
488.831	2.2
489.03	2.22
489.229	2.2
489.427	2.17
489.626	2.31
489.825	2.29
490.023	2.3
490.222	2.25
490.42	2.31
490.619	2.32
490.817	2.35
491.016	2.35
491.214	2.42
491.413	2.43
491.611	2.36
491.81	2.38
492.008	2.46
492.207	2.53
492.405	2.54
492.604	2.47
492.802	2.54
493	2.59
493.199	2.58
493.397	2.65
493.595	2.7
493.794	2.65
493.992	2.8
494.19	2.73
494.388	2.84
494.587	2.77
494.785	2.78
494.983	2.73
495.181	2.83
495.379	2.87
495.578	2.88
495.776	2.93
495.974	2.91
496.172	3
496.37	3.09
496.568	3.06
496.766	3.06
496.964	3.2
497.162	3.17
497.36	3.25
497.558	3.23
497.756	3.26
497.954	3.29
498.152	3.36
498.35	3.48
498.548	3.39
498.746	3.38
498.944	3.44
499.142	3.44
499.34	3.51
499.538	3.58
499.736	3.48
499.933	3.68
500.131	3.63
500.329	3.82
500.527	3.78
500.725	3.89
500.922	3.87
501.12	3.85
501.318	3.91
501.516	3.94
501.713	4.03
501.911	4.01
502.109	4
502.306	4.07
502.504	4
502.701	4.09
502.899	4.16
503.097	4.36
