Data from Apollo_Calib_20240827__AbsoluteIrradiance__774__12-03-00-598.txt Node

Date: Wed Aug 28 12:03:00 BST 2024
User: biology
Spectrometer: FLMT08252
Trigger mode: 0
Integration Time (sec): 5.000000E-1
Scans to average: 5
Electric dark correction enabled: true
Nonlinearity correction enabled: false
Boxcar width: 0
XAxis mode: Wavelengths
Number of Pixels in Spectrum: 3648
>>>>>Begin Spectral Data<<<<<
179.588	-0
179.809	-0
180.03	-0
180.251	-0
180.473	-0
180.694	0
180.915	0
181.136	-0
181.357	0
181.578	-0
181.799	-0
182.02	-0
182.241	0
182.462	0
182.683	0
182.904	-0
183.125	-0
183.346	0
183.567	0
183.788	0
184.009	0
184.23	0
184.451	0
184.672	0
184.892	0
185.113	0
185.334	0
185.555	0
185.776	0
185.996	0
186.217	0
186.438	0
186.659	0
186.879	0
187.1	0
187.321	0
187.541	0
187.762	0
187.983	0
188.203	0
188.424	0
188.644	0
188.865	0
189.086	0
189.306	0
189.527	0
189.747	0
189.968	0
190.188	0
190.409	0
190.629	0
190.849	0
191.07	0
191.29	0
191.511	0
191.731	0
191.951	0
192.172	0
192.392	0
192.612	0
192.833	0
193.053	0
193.273	0
193.493	0
193.714	0
193.934	0
194.154	0
194.374	0
194.594	0
194.815	0
195.035	0
195.255	0
195.475	0
195.695	0
195.915	0
196.135	0
196.355	0
196.575	0
196.795	0
197.015	0
197.235	0
197.455	0
197.675	0
197.895	0
198.115	0
198.335	0
198.555	0
198.775	0
198.995	0
199.214	0
199.434	0
199.654	0
199.874	0
200.094	4.29
200.313	2.76
200.533	2.33
200.753	2.15
200.973	3.61
201.192	3.4
201.412	1.87
201.632	1.69
201.851	3.41
202.071	2.34
202.291	2.05
202.51	2.26
202.73	2.87
202.95	1.96
203.169	1.54
203.389	1.78
203.608	2.12
203.828	1.49
204.047	1.83
204.267	2.06
204.486	2.35
204.706	2.47
204.925	1.41
205.145	1.63
205.364	2.36
205.583	2.57
205.803	1.64
206.022	1.26
206.242	1.56
206.461	1.63
206.68	1.02
206.9	1.79
207.119	2.64
207.338	2.39
207.557	1.3
207.777	1.35
207.996	1.42
208.215	2.38
208.434	1.26
208.654	1.16
208.873	1.54
209.092	2.09
209.311	1.12
209.53	1.28
209.749	1.54
209.968	1.38
210.187	1.13
210.407	0.96
210.626	1.32
210.845	1.65
211.064	1.25
211.283	0.77
211.502	1.61
211.721	1.38
211.94	1.26
212.159	1.48
212.377	1.33
212.596	1.62
212.815	1.3
213.034	1.29
213.253	1.56
213.472	1.39
213.691	0.95
213.91	0.69
214.128	0.79
214.347	1.53
214.566	0.75
214.785	0.53
215.003	1.35
215.222	1.33
215.441	0.89
215.66	0.64
215.878	1.05
216.097	1.4
216.316	0.87
216.534	0.95
216.753	1.05
216.972	0.9
217.19	0.98
217.409	0.7
217.627	0.74
217.846	0.98
218.064	0.88
218.283	0.51
218.501	1.43
218.72	1.33
218.938	0.68
219.157	0.83
219.375	1.21
219.594	1.23
219.812	0.55
220.031	0.59
220.249	1.26
220.467	1.22
220.686	0.72
220.904	0.51
221.122	0.67
221.341	1.29
221.559	0.9
221.777	0.71
221.995	1.06
222.214	1.02
222.432	0.74
222.65	0.88
222.868	0.74
223.086	0.95
223.305	0.84
223.523	0.65
223.741	1.16
223.959	0.74
224.177	0.52
224.395	0.69
224.613	0.83
224.831	1.03
225.049	0.51
225.267	0.66
225.485	0.85
225.703	0.73
225.921	0.62
226.139	0.65
226.357	0.8
226.575	0.85
226.793	0.72
227.011	1.58
227.229	0.82
227.447	0.94
227.665	0.64
227.883	0.52
228.1	0.75
228.318	0.84
228.536	0.35
228.754	0.6
228.972	0.89
229.189	0.88
229.407	0.58
229.625	0.67
229.843	0.85
230.06	0.99
230.278	0.68
230.496	0.59
230.713	0.75
230.931	0.9
231.149	0.5
231.366	0.35
231.584	0.6
231.801	1.04
232.019	0.55
232.236	0.41
232.454	0.61
232.671	0.72
232.889	0.5
233.106	0.41
233.324	0.71
233.541	0.67
233.759	0.45
233.976	0.45
234.194	0.78
234.411	0.47
234.628	0.39
234.846	0.5
235.063	0.63
235.28	0.46
235.498	0.47
235.715	0.42
235.932	0.79
236.149	0.55
236.367	0.5
236.584	0.59
236.801	0.54
237.018	0.84
237.236	0.51
237.453	0.31
237.67	0.74
237.887	0.55
238.104	0.55
238.321	0.47
238.538	0.45
238.755	0.67
238.973	0.31
239.19	0.59
239.407	0.6
239.624	0.53
239.841	0.37
240.058	0.46
240.275	0.54
240.492	0.5
240.709	0.38
240.925	0.47
241.142	0.5
241.359	0.45
241.576	0.37
241.793	0.41
242.01	0.55
242.227	0.65
242.444	0.56
242.66	0.63
242.877	0.57
243.094	0.46
243.311	0.49
243.527	0.53
243.744	0.61
243.961	0.58
244.178	0.47
244.394	0.48
244.611	0.64
244.828	0.76
245.044	0.37
245.261	0.47
245.477	0.57
245.694	0.74
245.911	0.47
246.127	0.41
246.344	0.6
246.56	0.55
246.777	0.45
246.993	0.41
247.21	0.48
247.426	0.62
247.643	0.38
247.859	0.42
248.076	0.4
248.292	0.75
248.508	0.39
248.725	0.47
248.941	0.61
249.157	0.62
249.374	0.36
249.59	0.39
249.806	0.48
250.023	0.66
250.239	0.42
250.455	0.38
250.671	0.47
250.888	0.59
251.104	0.46
251.32	0.35
251.536	0.46
251.752	0.37
251.969	0.43
252.185	0.44
252.401	0.65
252.617	0.34
252.833	0.37
253.049	0.47
253.265	0.46
253.481	0.42
253.697	0.36
253.913	0.4
254.129	0.51
254.345	0.51
254.561	0.43
254.777	0.36
254.993	0.51
255.209	0.49
255.425	0.38
255.641	0.4
255.857	0.49
256.073	0.42
256.288	0.24
256.504	0.35
256.72	0.48
256.936	0.62
257.152	0.44
257.367	0.32
257.583	0.42
257.799	0.45
258.015	0.37
258.23	0.32
258.446	0.62
258.662	0.36
258.877	0.32
259.093	0.29
259.309	0.37
259.524	0.52
259.74	0.34
259.955	0.25
260.171	0.41
260.387	0.37
260.602	0.46
260.818	0.49
261.033	0.31
261.249	0.36
261.464	0.35
261.68	0.36
261.895	0.46
262.11	0.46
262.326	0.39
262.541	0.28
262.757	0.47
262.972	0.44
263.187	0.37
263.403	0.39
263.618	0.46
263.833	0.42
264.049	0.35
264.264	0.39
264.479	0.4
264.694	0.53
264.91	0.26
265.125	0.31
265.34	0.45
265.555	0.53
265.77	0.45
265.986	0.31
266.201	0.42
266.416	0.5
266.631	0.39
266.846	0.32
267.061	0.41
267.276	0.44
267.491	0.26
267.706	0.41
267.921	0.4
268.136	0.45
268.351	0.41
268.566	0.27
268.781	0.55
268.996	0.49
269.211	0.4
269.426	0.31
269.641	0.36
269.856	0.46
270.071	0.34
270.285	0.26
270.5	0.46
270.715	0.48
270.93	0.39
271.145	0.41
271.359	0.46
271.574	0.32
271.789	0.35
272.004	0.33
272.218	0.31
272.433	0.46
272.648	0.26
272.862	0.47
273.077	0.39
273.292	0.31
273.506	0.27
273.721	0.32
273.936	0.32
274.15	0.46
274.365	0.32
274.579	0.49
274.794	0.43
275.008	0.42
275.223	0.24
275.437	0.31
275.652	0.44
275.866	0.45
276.081	0.3
276.295	0.38
276.509	0.41
276.724	0.42
276.938	0.34
277.153	0.35
277.367	0.46
277.581	0.31
277.796	0.28
278.01	0.23
278.224	0.37
278.438	0.49
278.653	0.29
278.867	0.27
279.081	0.19
279.295	0.38
279.51	0.31
279.724	0.21
279.938	0.35
280.152	0.43
280.366	0.33
280.58	0.37
280.794	0.4
281.008	0.43
281.222	0.36
281.437	0.47
281.651	0.39
281.865	0.47
282.079	0.34
282.293	0.22
282.507	0.35
282.721	0.34
282.935	0.37
283.148	0.27
283.362	0.29
283.576	0.24
283.79	0.3
284.004	0.31
284.218	0.43
284.432	0.27
284.646	0.3
284.859	0.26
285.073	0.35
285.287	0.32
285.501	0.31
285.714	0.32
285.928	0.35
286.142	0.41
286.356	0.31
286.569	0.26
286.783	0.41
286.997	0.41
287.21	0.35
287.424	0.31
287.637	0.31
287.851	0.25
288.065	0.37
288.278	0.31
288.492	0.33
288.705	0.3
288.919	0.35
289.132	0.21
289.346	0.38
289.559	0.21
289.773	0.22
289.986	0.31
290.2	0.33
290.413	0.39
290.626	0.25
290.84	0.31
291.053	0.31
291.267	0.4
291.48	0.35
291.693	0.28
291.906	0.26
292.12	0.31
292.333	0.28
292.546	0.24
292.76	0.41
292.973	0.32
293.186	0.36
293.399	0.21
293.612	0.35
293.826	0.3
294.039	0.35
294.252	0.27
294.465	0.34
294.678	0.31
294.891	0.3
295.104	0.21
295.317	0.28
295.53	0.29
295.743	0.29
295.956	0.27
296.169	0.41
296.382	0.34
296.595	0.27
296.808	0.29
297.021	0.37
297.234	0.33
297.447	0.28
297.66	0.34
297.873	0.36
298.086	0.38
298.299	0.24
298.511	0.23
298.724	0.26
298.937	0.22
299.15	0.3
299.363	0.26
299.575	0.37
299.788	0.34
300.001	0.3
300.213	0.25
300.426	0.29
300.639	0.25
300.852	0.22
301.064	0.34
301.277	0.35
301.489	0.29
301.702	0.36
301.915	0.29
302.127	0.3
302.34	0.29
302.552	0.27
302.765	0.19
302.977	0.34
303.19	0.24
303.402	0.24
303.615	0.24
303.827	0.23
304.04	0.26
304.252	0.3
304.464	0.31
304.677	0.4
304.889	0.31
305.102	0.26
305.314	0.22
305.526	0.26
305.739	0.3
305.951	0.25
306.163	0.28
306.375	0.34
306.588	0.24
306.8	0.3
307.012	0.23
307.224	0.25
307.436	0.39
307.649	0.17
307.861	0.23
308.073	0.29
308.285	0.23
308.497	0.25
308.709	0.25
308.921	0.31
309.133	0.35
309.346	0.25
309.558	0.23
309.77	0.36
309.982	0.39
310.194	0.3
310.406	0.24
310.617	0.38
310.829	0.31
311.041	0.3
311.253	0.2
311.465	0.24
311.677	0.28
311.889	0.27
312.101	0.24
312.313	0.29
312.524	0.35
312.736	0.18
312.948	0.24
313.16	0.38
313.372	0.33
313.583	0.29
313.795	0.24
314.007	0.24
314.218	0.31
314.43	0.25
314.642	0.26
314.853	0.23
315.065	0.29
315.277	0.28
315.488	0.28
315.7	0.3
315.912	0.34
316.123	0.27
316.335	0.23
316.546	0.37
316.758	0.29
316.969	0.2
317.181	0.28
317.392	0.28
317.604	0.37
317.815	0.2
318.026	0.26
318.238	0.21
318.449	0.32
318.661	0.21
318.872	0.23
319.083	0.28
319.295	0.3
319.506	0.24
319.717	0.28
319.929	0.36
320.14	0.28
320.351	0.29
320.562	0.25
320.774	0.29
320.985	0.29
321.196	0.24
321.407	0.19
321.618	0.33
321.829	0.33
322.041	0.24
322.252	0.24
322.463	0.31
322.674	0.33
322.885	0.19
323.096	0.28
323.307	0.29
323.518	0.3
323.729	0.25
323.94	0.24
324.151	0.3
324.362	0.29
324.573	0.28
324.784	0.21
324.995	0.32
325.206	0.34
325.417	0.24
325.628	0.24
325.838	0.25
326.049	0.3
326.26	0.34
326.471	0.22
326.682	0.32
326.892	0.29
327.103	0.19
327.314	0.28
327.525	0.35
327.735	0.34
327.946	0.25
328.157	0.26
328.368	0.33
328.578	0.29
328.789	0.32
328.999	0.27
329.21	0.26
329.421	0.31
329.631	0.24
329.842	0.19
330.052	0.3
330.263	0.31
330.473	0.3
330.684	0.25
330.894	0.31
331.105	0.33
331.315	0.26
331.526	0.22
331.736	0.4
331.947	0.31
332.157	0.29
332.367	0.21
332.578	0.36
332.788	0.36
332.999	0.31
333.209	0.29
333.419	0.24
333.629	0.27
333.84	0.28
334.05	0.27
334.26	0.35
334.47	0.28
334.681	0.35
334.891	0.22
335.101	0.32
335.311	0.36
335.521	0.27
335.732	0.27
335.942	0.39
336.152	0.31
336.362	0.3
336.572	0.26
336.782	0.3
336.992	0.26
337.202	0.3
337.412	0.27
337.622	0.28
337.832	0.27
338.042	0.3
338.252	0.19
338.462	0.27
338.672	0.29
338.882	0.22
339.092	0.26
339.302	0.38
339.511	0.3
339.721	0.29
339.931	0.21
340.141	0.32
340.351	0.38
340.561	0.34
340.77	0.28
340.98	0.28
341.19	0.32
341.4	0.28
341.609	0.19
341.819	0.27
342.029	0.25
342.238	0.27
342.448	0.19
342.658	0.35
342.867	0.24
343.077	0.25
343.286	0.26
343.496	0.27
343.706	0.29
343.915	0.24
344.125	0.29
344.334	0.31
344.544	0.2
344.753	0.28
344.963	0.21
345.172	0.22
345.381	0.27
345.591	0.22
345.8	0.31
346.01	0.33
346.219	0.37
346.428	0.11
346.638	0.25
346.847	0.26
347.056	0.32
347.266	0.28
347.475	0.25
347.684	0.34
347.893	0.31
348.103	0.29
348.312	0.21
348.521	0.31
348.73	0.27
348.94	0.29
349.149	0.24
349.358	0.28
349.567	0.27
349.776	0.21
349.985	0.19
350.194	0.34
350.403	0.37
350.612	0.21
350.821	0.26
351.03	0.28
351.239	0.22
351.448	0.26
351.657	0.25
351.866	0.4
352.075	0.27
352.284	0.24
352.493	0.2
352.702	0.36
352.911	0.32
353.12	0.25
353.329	0.27
353.538	0.35
353.746	0.27
353.955	0.23
354.164	0.28
354.373	0.28
354.582	0.3
354.79	0.29
354.999	0.28
355.208	0.28
355.416	0.37
355.625	0.25
355.834	0.23
356.042	0.3
356.251	0.28
356.46	0.21
356.668	0.25
356.877	0.36
357.085	0.31
357.294	0.18
357.503	0.28
357.711	0.29
357.92	0.42
358.128	0.31
358.337	0.27
358.545	0.31
358.754	0.21
358.962	0.27
359.17	0.23
359.379	0.32
359.587	0.3
359.796	0.29
360.004	0.34
360.212	0.29
360.421	0.34
360.629	0.25
360.837	0.21
361.046	0.34
361.254	0.38
361.462	0.27
361.67	0.23
361.879	0.3
362.087	0.34
362.295	0.24
362.503	0.25
362.711	0.23
362.92	0.26
363.128	0.24
363.336	0.22
363.544	0.19
363.752	0.23
363.96	0.24
364.168	0.22
364.376	0.3
364.584	0.27
364.792	0.34
365	0.3
365.208	0.25
365.416	0.31
365.624	0.3
365.832	0.22
366.04	0.36
366.248	0.28
366.456	0.31
366.664	0.26
366.872	0.28
367.079	0.27
367.287	0.27
367.495	0.28
367.703	0.24
367.911	0.24
368.118	0.25
368.326	0.31
368.534	0.25
368.742	0.33
368.949	0.23
369.157	0.24
369.365	0.32
369.572	0.25
369.78	0.24
369.988	0.31
370.195	0.27
370.403	0.31
370.61	0.24
370.818	0.29
371.026	0.39
371.233	0.25
371.441	0.29
371.648	0.24
371.856	0.3
372.063	0.29
372.271	0.27
372.478	0.23
372.685	0.25
372.893	0.36
373.1	0.33
373.308	0.26
373.515	0.36
373.722	0.32
373.93	0.3
374.137	0.34
374.344	0.36
374.552	0.29
374.759	0.3
374.966	0.25
375.173	0.28
375.381	0.32
375.588	0.25
375.795	0.22
376.002	0.25
376.209	0.27
376.417	0.29
376.624	0.31
376.831	0.3
377.038	0.29
377.245	0.17
377.452	0.26
377.659	0.28
377.866	0.25
378.073	0.31
378.28	0.26
378.487	0.34
378.694	0.35
378.901	0.25
379.108	0.26
379.315	0.4
379.522	0.39
379.729	0.28
379.936	0.27
380.143	0.29
380.35	0.34
380.557	0.31
380.763	0.29
380.97	0.3
381.177	0.31
381.384	0.32
381.591	0.21
381.797	0.3
382.004	0.32
382.211	0.32
382.418	0.24
382.624	0.34
382.831	0.36
383.038	0.3
383.244	0.28
383.451	0.28
383.658	0.33
383.864	0.29
384.071	0.27
384.277	0.33
384.484	0.28
384.69	0.39
384.897	0.28
385.103	0.31
385.31	0.28
385.516	0.26
385.723	0.22
385.929	0.28
386.136	0.28
386.342	0.33
386.549	0.24
386.755	0.34
386.961	0.32
387.168	0.29
387.374	0.31
387.58	0.38
387.787	0.3
387.993	0.32
388.199	0.27
388.406	0.33
388.612	0.34
388.818	0.26
389.024	0.25
389.231	0.35
389.437	0.41
389.643	0.33
389.849	0.29
390.055	0.29
390.261	0.37
390.467	0.34
390.674	0.29
390.88	0.33
391.086	0.36
391.292	0.28
391.498	0.33
391.704	0.36
391.91	0.31
392.116	0.28
392.322	0.2
392.528	0.33
392.734	0.33
392.94	0.34
393.146	0.3
393.352	0.36
393.557	0.34
393.763	0.31
393.969	0.36
394.175	0.34
394.381	0.32
394.587	0.3
394.792	0.38
394.998	0.36
395.204	0.4
395.41	0.29
395.615	0.32
395.821	0.36
396.027	0.37
396.233	0.3
396.438	0.34
396.644	0.44
396.85	0.41
397.055	0.35
397.261	0.35
397.466	0.43
397.672	0.36
397.878	0.36
398.083	0.44
398.289	0.4
398.494	0.46
398.7	0.39
398.905	0.28
399.111	0.47
399.316	0.31
399.522	0.4
399.727	0.27
399.932	0.32
400.138	0.27
400.343	0.41
400.549	0.38
400.754	0.38
400.959	0.39
401.165	0.38
401.37	0.4
401.575	0.53
401.78	0.44
401.986	0.34
402.191	0.39
402.396	0.41
402.601	0.43
402.807	0.41
403.012	0.38
403.217	0.48
403.422	0.43
403.627	0.43
403.832	0.34
404.037	0.47
404.243	0.5
404.448	0.46
404.653	0.4
404.858	0.49
405.063	0.48
405.268	0.46
405.473	0.38
405.678	0.41
405.883	0.64
406.088	0.54
406.293	0.45
406.498	0.45
406.703	0.56
406.907	0.52
407.112	0.47
407.317	0.55
407.522	0.57
407.727	0.49
407.932	0.55
408.136	0.71
408.341	0.58
408.546	0.61
408.751	0.59
408.956	0.6
409.16	0.69
409.365	0.59
409.57	0.66
409.774	0.69
409.979	0.71
410.184	0.68
410.388	0.62
410.593	0.75
410.798	0.73
411.002	0.7
411.207	0.8
411.411	0.8
411.616	0.79
411.82	0.85
412.025	0.89
412.229	0.87
412.434	0.98
412.638	0.9
412.843	0.94
413.047	0.96
413.252	0.97
413.456	1.04
413.66	1.13
413.865	1.07
414.069	1.16
414.273	1.1
414.478	1.13
414.682	1.19
414.886	1.24
415.091	1.14
415.295	1.21
415.499	1.47
415.703	1.4
415.908	1.46
416.112	1.36
416.316	1.6
416.52	1.57
416.724	1.61
416.929	1.61
417.133	1.86
417.337	1.77
417.541	1.8
417.745	1.92
417.949	2
418.153	2.07
418.357	2.06
418.561	2.3
418.765	2.24
418.969	2.36
419.173	2.41
419.377	2.4
419.581	2.68
419.785	2.64
419.989	2.72
420.193	2.87
420.397	2.88
420.601	3.03
420.804	3.11
421.008	3.09
421.212	3.24
421.416	3.35
421.62	3.26
421.823	3.35
422.027	3.54
422.231	3.47
422.435	3.54
422.638	3.54
422.842	3.74
423.046	3.79
423.249	4.06
423.453	4
423.657	4.1
423.86	4.18
424.064	4.41
424.268	4.52
424.471	4.58
424.675	4.77
424.878	4.82
425.082	4.87
425.285	5.29
425.489	5.09
425.692	5.28
425.896	5.25
426.099	5.51
426.303	5.64
426.506	5.74
426.71	5.97
426.913	6.22
427.116	6.34
427.32	6.33
427.523	6.48
427.726	6.7
427.93	6.88
428.133	7.15
428.336	7.23
428.54	7.36
428.743	7.68
428.946	7.92
429.149	7.94
429.353	7.93
429.556	8.09
429.759	8.07
429.962	8.21
430.165	8.41
430.368	8.06
430.571	8.17
430.775	8.09
430.978	8.12
431.181	8.08
431.384	8.29
431.587	8.33
431.79	8.75
431.993	8.72
432.196	8.95
432.399	9.24
432.602	9.46
432.805	9.58
433.008	10.09
433.211	9.9
433.414	10.22
433.616	10.36
433.819	10.19
434.022	10.49
434.225	10.65
434.428	10.67
434.631	11.1
434.833	10.75
435.036	11.19
435.239	11.33
435.442	11.42
435.645	11.51
435.847	11.65
436.05	12.03
436.253	12.15
436.455	12.16
436.658	12.06
436.861	12.31
437.063	12.38
437.266	12.39
437.468	12.83
437.671	13.1
437.874	13.19
438.076	13.03
438.279	13.43
438.481	13.44
438.684	14.32
438.886	13.87
439.089	14.21
439.291	14.19
439.494	14.53
439.696	14.75
439.899	15.32
440.101	15.67
440.303	15.95
440.506	16.55
440.708	16.34
440.91	16.44
441.113	16.67
441.315	16.99
441.517	16.84
441.72	17.34
441.922	16.94
442.124	16.77
442.326	17.2
442.529	17.41
442.731	17.46
442.933	17.64
443.135	17.41
443.337	17.51
443.539	18.03
443.742	17.68
443.944	18.39
444.146	18.16
444.348	17.88
444.55	17.96
444.752	18.17
444.954	18.12
445.156	18.1
445.358	18.41
445.56	18.58
445.762	18.5
445.964	18.9
446.166	18.61
446.368	18.61
446.57	18.55
446.772	18.24
446.974	17.96
447.175	18.19
447.377	17.94
447.579	18.3
447.781	18.05
447.983	17.92
448.184	17.36
448.386	17.85
448.588	17.31
448.79	17.17
448.991	17.49
449.193	17.58
449.395	16.76
449.597	16.51
449.798	16.37
450	15.93
450.202	15.84
450.403	15.95
450.605	15.87
450.806	15.42
451.008	15.23
451.21	15.09
451.411	14.7
451.613	13.73
451.814	14.11
452.016	14.13
452.217	13.23
452.419	13.29
452.62	13.04
452.821	12.79
453.023	12.58
453.224	12.28
453.426	11.84
453.627	11.12
453.828	11.25
454.03	11.28
454.231	11.31
454.432	11.06
454.634	10.81
454.835	10.5
455.036	10.31
455.238	10.1
455.439	9.77
455.64	9.51
455.841	9.45
456.042	9.5
456.244	9.19
456.445	8.98
456.646	8.77
456.847	8.49
457.048	8.48
457.249	8.4
457.45	8.32
457.651	7.76
457.852	7.67
458.054	7.22
458.255	7.13
458.456	7.42
458.657	7.13
458.858	6.75
459.058	6.7
459.259	6.78
459.46	6.44
459.661	6.42
459.862	6.42
460.063	6.35
460.264	6.33
460.465	6.04
460.666	6.1
460.866	5.81
461.067	5.57
461.268	5.6
461.469	5.53
461.67	5.4
461.87	5.28
462.071	5.28
462.272	5.16
462.473	5.1
462.673	5.25
462.874	5.15
463.075	5.17
463.275	5.14
463.476	5.19
463.676	5.1
463.877	4.96
464.078	4.94
464.278	4.98
464.479	4.84
464.679	4.8
464.88	4.7
465.08	4.7
465.281	4.51
465.481	4.31
465.682	4.17
465.882	4.19
466.083	4.14
466.283	4.07
466.483	3.87
466.684	3.78
466.884	3.66
467.085	3.66
467.285	3.77
467.485	3.63
467.686	3.59
467.886	3.46
468.086	3.41
468.286	3.38
468.487	3.49
468.687	3.28
468.887	3.23
469.087	3.4
469.287	3.29
469.488	3.14
469.688	3.24
469.888	3.18
470.088	3.19
470.288	3.1
470.488	3.03
470.688	2.88
470.888	2.78
471.088	2.75
471.288	2.85
471.488	2.78
471.688	2.76
471.888	2.73
472.088	2.84
472.288	2.73
472.488	2.66
472.688	2.58
472.888	2.59
473.088	2.58
473.288	2.51
473.488	2.49
473.688	2.62
473.887	2.54
474.087	2.46
474.287	2.49
474.487	2.42
474.687	2.49
474.886	2.36
475.086	2.35
475.286	2.34
475.486	2.33
475.685	2.28
475.885	2.19
476.085	2.31
476.284	2.3
476.484	2.31
476.684	2.26
476.883	2.3
477.083	2.22
477.282	2.11
477.482	2.22
477.681	2.13
477.881	2.1
478.08	2.09
478.28	2.02
478.479	2.1
478.679	2.17
478.878	2.06
479.078	2.08
479.277	2.1
479.477	2.03
479.676	2.05
479.875	2.04
480.075	1.96
480.274	2.05
480.473	2.07
480.673	2.01
480.872	2.11
481.071	2.05
481.271	2.05
481.47	1.96
481.669	1.98
481.868	2
482.067	2.06
482.267	1.97
482.466	1.97
482.665	1.95
482.864	2
483.063	1.95
483.262	2.05
483.461	2.08
483.661	2.07
483.86	2.04
484.059	2.05
484.258	2.03
484.457	2.04
484.656	2.02
484.855	2.11
485.054	1.96
485.253	2.03
485.452	1.99
485.651	2.09
485.849	2.03
486.048	1.99
486.247	2.05
486.446	2.09
486.645	2.06
486.844	2.06
487.043	2.04
487.241	2.06
487.44	2.06
487.639	2.15
487.838	2.11
488.037	2.12
488.235	2.2
488.434	2.19
488.633	2.04
488.831	2.28
489.03	2.29
489.229	2.25
489.427	2.23
489.626	2.26
489.825	2.28
490.023	2.32
490.222	2.29
490.42	2.32
490.619	2.39
490.817	2.36
491.016	2.34
491.214	2.39
491.413	2.43
491.611	2.36
491.81	2.42
492.008	2.5
492.207	2.59
492.405	2.56
492.604	2.47
492.802	2.55
493	2.62
493.199	2.64
493.397	2.61
493.595	2.72
493.794	2.68
493.992	2.81
494.19	2.77
494.388	2.84
494.587	2.74
494.785	2.83
494.983	2.75
495.181	2.85
495.379	2.88
495.578	2.96
495.776	2.98
495.974	2.93
496.172	2.99
496.37	3.11
496.568	3.13
496.766	3.09
496.964	3.22
497.162	3.19
497.36	3.2
497.558	3.25
497.756	3.3
497.954	3.31
498.152	3.35
498.35	3.45
498.548	3.35
498.746	3.42
498.944	3.42
499.142	3.49
499.34	3.57
499.538	3.68
499.736	3.55
499.933	3.65
500.131	3.63
500.329	3.8
500.527	3.8
500.725	3.87
500.922	3.88
501.12	3.91
501.318	3.96
501.516	3.92
501.713	4.05
501.911	4.02
502.109	3.95
502.306	4.12
502.504	4.04
