Data from Apollo_Calib_20240827__AbsoluteIrradiance__784__12-13-02-173.txt Node

Date: Wed Aug 28 12:13:02 BST 2024
User: biology
Spectrometer: FLMT08252
Trigger mode: 0
Integration Time (sec): 5.000000E-1
Scans to average: 5
Electric dark correction enabled: true
Nonlinearity correction enabled: false
Boxcar width: 0
XAxis mode: Wavelengths
Number of Pixels in Spectrum: 3648
>>>>>Begin Spectral Data<<<<<
179.588	-0
179.809	-0
180.03	-0
180.251	-0
180.473	-0
180.694	0
180.915	0
181.136	-0
181.357	0
181.578	-0
181.799	-0
182.02	-0
182.241	-0
182.462	-0
182.683	0
182.904	-0
183.125	-0
183.346	0
183.567	0
183.788	0
184.009	0
184.23	0
184.451	0
184.672	0
184.892	0
185.113	0
185.334	0
185.555	0
185.776	0
185.996	0
186.217	0
186.438	0
186.659	0
186.879	0
187.1	0
187.321	0
187.541	0
187.762	0
187.983	0
188.203	0
188.424	0
188.644	0
188.865	0
189.086	0
189.306	0
189.527	0
189.747	0
189.968	0
190.188	0
190.409	0
190.629	0
190.849	0
191.07	0
191.29	0
191.511	0
191.731	0
191.951	0
192.172	0
192.392	0
192.612	0
192.833	0
193.053	0
193.273	0
193.493	0
193.714	0
193.934	0
194.154	0
194.374	0
194.594	0
194.815	0
195.035	0
195.255	0
195.475	0
195.695	0
195.915	0
196.135	0
196.355	0
196.575	0
196.795	0
197.015	0
197.235	0
197.455	0
197.675	0
197.895	0
198.115	0
198.335	0
198.555	0
198.775	0
198.995	0
199.214	0
199.434	0
199.654	0
199.874	0
200.094	3.48
200.313	2.24
200.533	2.55
200.753	1.71
200.973	3.8
201.192	3.7
201.412	1.4
201.632	1.84
201.851	3.4
202.071	2.01
202.291	1.82
202.51	1.37
202.73	2.88
202.95	1.75
203.169	1.95
203.389	1.89
203.608	1.99
203.828	1.33
204.047	1.58
204.267	2.45
204.486	2.15
204.706	2.19
204.925	2.02
205.145	1.56
205.364	2.38
205.583	2.61
205.803	1.35
206.022	1.16
206.242	2.15
206.461	1.53
206.68	1.6
206.9	1.53
207.119	2.48
207.338	2.07
207.557	1.15
207.777	1.24
207.996	1.63
208.215	2.04
208.434	0.93
208.654	0.84
208.873	1.72
209.092	2.19
209.311	1.27
209.53	1.34
209.749	0.85
209.968	1.02
210.187	1.06
210.407	0.8
210.626	1.19
210.845	1.49
211.064	1.23
211.283	1.12
211.502	1.71
211.721	1.17
211.94	1.1
212.159	1.46
212.377	1.26
212.596	1.64
212.815	1.23
213.034	1.38
213.253	1.51
213.472	1.45
213.691	0.92
213.91	0.75
214.128	0.84
214.347	1.5
214.566	0.57
214.785	0.82
215.003	1.36
215.222	0.95
215.441	0.94
215.66	0.64
215.878	1.03
216.097	1.34
216.316	0.69
216.534	0.83
216.753	1.02
216.972	0.93
217.19	0.95
217.409	0.65
217.627	0.8
217.846	0.79
218.064	1.04
218.283	0.57
218.501	1.45
218.72	1.17
218.938	0.65
219.157	0.69
219.375	1.04
219.594	0.92
219.812	0.56
220.031	0.47
220.249	1.39
220.467	1.17
220.686	0.44
220.904	0.61
221.122	0.82
221.341	1.17
221.559	0.93
221.777	0.43
221.995	0.78
222.214	0.89
222.432	0.6
222.65	1.01
222.868	0.81
223.086	0.69
223.305	1.02
223.523	0.81
223.741	1.21
223.959	0.67
224.177	0.41
224.395	0.42
224.613	0.79
224.831	1.07
225.049	0.39
225.267	0.5
225.485	0.8
225.703	0.83
225.921	0.6
226.139	0.45
226.357	0.79
226.575	0.85
226.793	0.53
227.011	1.51
227.229	0.76
227.447	0.95
227.665	0.51
227.883	0.34
228.1	0.67
228.318	0.73
228.536	0.29
228.754	0.44
228.972	0.72
229.189	0.89
229.407	0.61
229.625	0.67
229.843	0.86
230.06	0.73
230.278	0.58
230.496	0.47
230.713	0.68
230.931	0.83
231.149	0.48
231.366	0.23
231.584	0.72
231.801	1.08
232.019	0.53
232.236	0.45
232.454	0.52
232.671	0.75
232.889	0.49
233.106	0.49
233.324	0.57
233.541	0.54
233.759	0.64
233.976	0.46
234.194	0.59
234.411	0.58
234.628	0.49
234.846	0.55
235.063	0.61
235.28	0.54
235.498	0.54
235.715	0.39
235.932	0.77
236.149	0.61
236.367	0.52
236.584	0.58
236.801	0.48
237.018	0.8
237.236	0.57
237.453	0.25
237.67	0.69
237.887	0.49
238.104	0.5
238.321	0.34
238.538	0.43
238.755	0.69
238.973	0.34
239.19	0.39
239.407	0.55
239.624	0.6
239.841	0.42
240.058	0.32
240.275	0.47
240.492	0.49
240.709	0.45
240.925	0.39
241.142	0.61
241.359	0.28
241.576	0.37
241.793	0.38
242.01	0.52
242.227	0.67
242.444	0.58
242.66	0.68
242.877	0.44
243.094	0.38
243.311	0.45
243.527	0.43
243.744	0.46
243.961	0.55
244.178	0.3
244.394	0.35
244.611	0.63
244.828	0.68
245.044	0.38
245.261	0.34
245.477	0.46
245.694	0.59
245.911	0.33
246.127	0.46
246.344	0.65
246.56	0.58
246.777	0.4
246.993	0.38
247.21	0.5
247.426	0.53
247.643	0.33
247.859	0.3
248.076	0.36
248.292	0.74
248.508	0.37
248.725	0.46
248.941	0.55
249.157	0.61
249.374	0.38
249.59	0.45
249.806	0.43
250.023	0.5
250.239	0.31
250.455	0.34
250.671	0.46
250.888	0.46
251.104	0.48
251.32	0.39
251.536	0.4
251.752	0.35
251.969	0.36
252.185	0.45
252.401	0.62
252.617	0.42
252.833	0.4
253.049	0.43
253.265	0.39
253.481	0.41
253.697	0.27
253.913	0.31
254.129	0.47
254.345	0.42
254.561	0.39
254.777	0.37
254.993	0.54
255.209	0.44
255.425	0.39
255.641	0.21
255.857	0.51
256.073	0.43
256.288	0.29
256.504	0.31
256.72	0.42
256.936	0.56
257.152	0.38
257.367	0.32
257.583	0.45
257.799	0.5
258.015	0.34
258.23	0.32
258.446	0.57
258.662	0.48
258.877	0.29
259.093	0.25
259.309	0.48
259.524	0.47
259.74	0.43
259.955	0.26
260.171	0.42
260.387	0.37
260.602	0.43
260.818	0.4
261.033	0.33
261.249	0.34
261.464	0.33
261.68	0.26
261.895	0.41
262.11	0.47
262.326	0.34
262.541	0.29
262.757	0.45
262.972	0.45
263.187	0.41
263.403	0.36
263.618	0.43
263.833	0.46
264.049	0.36
264.264	0.28
264.479	0.38
264.694	0.51
264.91	0.24
265.125	0.37
265.34	0.43
265.555	0.56
265.77	0.39
265.986	0.35
266.201	0.42
266.416	0.47
266.631	0.32
266.846	0.24
267.061	0.48
267.276	0.5
267.491	0.24
267.706	0.45
267.921	0.45
268.136	0.39
268.351	0.35
268.566	0.27
268.781	0.41
268.996	0.53
269.211	0.38
269.426	0.25
269.641	0.31
269.856	0.42
270.071	0.21
270.285	0.23
270.5	0.47
270.715	0.45
270.93	0.31
271.145	0.37
271.359	0.45
271.574	0.33
271.789	0.26
272.004	0.25
272.218	0.28
272.433	0.43
272.648	0.27
272.862	0.37
273.077	0.4
273.292	0.41
273.506	0.23
273.721	0.32
273.936	0.33
274.15	0.49
274.365	0.38
274.579	0.42
274.794	0.46
275.008	0.39
275.223	0.23
275.437	0.34
275.652	0.46
275.866	0.39
276.081	0.35
276.295	0.39
276.509	0.34
276.724	0.36
276.938	0.3
277.153	0.3
277.367	0.42
277.581	0.32
277.796	0.34
278.01	0.24
278.224	0.41
278.438	0.51
278.653	0.24
278.867	0.25
279.081	0.16
279.295	0.35
279.51	0.26
279.724	0.21
279.938	0.39
280.152	0.32
280.366	0.25
280.58	0.34
280.794	0.43
281.008	0.33
281.222	0.39
281.437	0.46
281.651	0.37
281.865	0.38
282.079	0.23
282.293	0.2
282.507	0.27
282.721	0.28
282.935	0.37
283.148	0.18
283.362	0.25
283.576	0.24
283.79	0.25
284.004	0.29
284.218	0.4
284.432	0.27
284.646	0.31
284.859	0.29
285.073	0.27
285.287	0.37
285.501	0.28
285.714	0.27
285.928	0.32
286.142	0.28
286.356	0.28
286.569	0.29
286.783	0.41
286.997	0.4
287.21	0.25
287.424	0.26
287.637	0.35
287.851	0.3
288.065	0.34
288.278	0.28
288.492	0.31
288.705	0.34
288.919	0.32
289.132	0.23
289.346	0.36
289.559	0.21
289.773	0.22
289.986	0.3
290.2	0.26
290.413	0.34
290.626	0.23
290.84	0.25
291.053	0.29
291.267	0.36
291.48	0.31
291.693	0.28
291.906	0.28
292.12	0.31
292.333	0.26
292.546	0.29
292.76	0.43
292.973	0.33
293.186	0.32
293.399	0.25
293.612	0.31
293.826	0.29
294.039	0.27
294.252	0.28
294.465	0.37
294.678	0.28
294.891	0.3
295.104	0.2
295.317	0.3
295.53	0.26
295.743	0.23
295.956	0.28
296.169	0.34
296.382	0.35
296.595	0.23
296.808	0.25
297.021	0.39
297.234	0.36
297.447	0.27
297.66	0.29
297.873	0.37
298.086	0.32
298.299	0.23
298.511	0.19
298.724	0.24
298.937	0.22
299.15	0.22
299.363	0.25
299.575	0.34
299.788	0.29
300.001	0.22
300.213	0.22
300.426	0.23
300.639	0.28
300.852	0.21
301.064	0.3
301.277	0.43
301.489	0.33
301.702	0.32
301.915	0.26
302.127	0.24
302.34	0.31
302.552	0.27
302.765	0.22
302.977	0.33
303.19	0.25
303.402	0.25
303.615	0.22
303.827	0.23
304.04	0.28
304.252	0.26
304.464	0.24
304.677	0.41
304.889	0.3
305.102	0.23
305.314	0.17
305.526	0.28
305.739	0.28
305.951	0.23
306.163	0.21
306.375	0.37
306.588	0.23
306.8	0.25
307.012	0.2
307.224	0.29
307.436	0.35
307.649	0.21
307.861	0.28
308.073	0.32
308.285	0.25
308.497	0.2
308.709	0.25
308.921	0.31
309.133	0.31
309.346	0.23
309.558	0.23
309.77	0.33
309.982	0.34
310.194	0.29
310.406	0.2
310.617	0.35
310.829	0.23
311.041	0.28
311.253	0.21
311.465	0.24
311.677	0.27
311.889	0.23
312.101	0.25
312.313	0.3
312.524	0.38
312.736	0.21
312.948	0.28
313.16	0.35
313.372	0.32
313.583	0.3
313.795	0.24
314.007	0.21
314.218	0.29
314.43	0.29
314.642	0.22
314.853	0.18
315.065	0.33
315.277	0.24
315.488	0.29
315.7	0.31
315.912	0.29
316.123	0.26
316.335	0.24
316.546	0.37
316.758	0.24
316.969	0.24
317.181	0.25
317.392	0.31
317.604	0.29
317.815	0.25
318.026	0.29
318.238	0.25
318.449	0.26
318.661	0.2
318.872	0.2
319.083	0.23
319.295	0.28
319.506	0.24
319.717	0.27
319.929	0.35
320.14	0.29
320.351	0.28
320.562	0.22
320.774	0.27
320.985	0.31
321.196	0.2
321.407	0.16
321.618	0.36
321.829	0.27
322.041	0.31
322.252	0.26
322.463	0.3
322.674	0.28
322.885	0.2
323.096	0.24
323.307	0.26
323.518	0.26
323.729	0.23
323.94	0.24
324.151	0.28
324.362	0.27
324.573	0.26
324.784	0.26
324.995	0.35
325.206	0.3
325.417	0.27
325.628	0.21
325.838	0.25
326.049	0.3
326.26	0.33
326.471	0.24
326.682	0.3
326.892	0.28
327.103	0.15
327.314	0.24
327.525	0.35
327.735	0.28
327.946	0.25
328.157	0.2
328.368	0.35
328.578	0.25
328.789	0.31
328.999	0.24
329.21	0.27
329.421	0.34
329.631	0.23
329.842	0.21
330.052	0.29
330.263	0.33
330.473	0.3
330.684	0.2
330.894	0.25
331.105	0.27
331.315	0.29
331.526	0.22
331.736	0.36
331.947	0.27
332.157	0.3
332.367	0.18
332.578	0.3
332.788	0.34
332.999	0.31
333.209	0.24
333.419	0.23
333.629	0.31
333.84	0.3
334.05	0.27
334.26	0.33
334.47	0.27
334.681	0.33
334.891	0.21
335.101	0.3
335.311	0.35
335.521	0.22
335.732	0.17
335.942	0.38
336.152	0.29
336.362	0.29
336.572	0.21
336.782	0.31
336.992	0.21
337.202	0.2
337.412	0.21
337.622	0.3
337.832	0.25
338.042	0.26
338.252	0.21
338.462	0.24
338.672	0.24
338.882	0.19
339.092	0.21
339.302	0.34
339.511	0.31
339.721	0.24
339.931	0.19
340.141	0.34
340.351	0.3
340.561	0.31
340.77	0.27
340.98	0.31
341.19	0.24
341.4	0.23
341.609	0.23
341.819	0.26
342.029	0.24
342.238	0.27
342.448	0.21
342.658	0.3
342.867	0.25
343.077	0.25
343.286	0.27
343.496	0.28
343.706	0.3
343.915	0.21
344.125	0.24
344.334	0.32
344.544	0.22
344.753	0.2
344.963	0.25
345.172	0.21
345.381	0.24
345.591	0.16
345.8	0.27
346.01	0.36
346.219	0.32
346.428	0.14
346.638	0.22
346.847	0.29
347.056	0.33
347.266	0.24
347.475	0.28
347.684	0.33
347.893	0.3
348.103	0.28
348.312	0.2
348.521	0.26
348.73	0.26
348.94	0.25
349.149	0.21
349.358	0.22
349.567	0.23
349.776	0.18
349.985	0.24
350.194	0.29
350.403	0.32
350.612	0.14
350.821	0.26
351.03	0.27
351.239	0.22
351.448	0.27
351.657	0.24
351.866	0.37
352.075	0.3
352.284	0.26
352.493	0.2
352.702	0.33
352.911	0.27
353.12	0.27
353.329	0.25
353.538	0.26
353.746	0.31
353.955	0.21
354.164	0.23
354.373	0.23
354.582	0.27
354.79	0.23
354.999	0.29
355.208	0.19
355.416	0.33
355.625	0.23
355.834	0.23
356.042	0.28
356.251	0.26
356.46	0.2
356.668	0.27
356.877	0.36
357.085	0.3
357.294	0.15
357.503	0.25
357.711	0.27
357.92	0.46
358.128	0.21
358.337	0.24
358.545	0.3
358.754	0.22
358.962	0.28
359.17	0.26
359.379	0.23
359.587	0.3
359.796	0.25
360.004	0.31
360.212	0.28
360.421	0.33
360.629	0.25
360.837	0.21
361.046	0.27
361.254	0.42
361.462	0.24
361.67	0.22
361.879	0.31
362.087	0.33
362.295	0.24
362.503	0.29
362.711	0.18
362.92	0.23
363.128	0.21
363.336	0.2
363.544	0.22
363.752	0.26
363.96	0.2
364.168	0.18
364.376	0.24
364.584	0.3
364.792	0.31
365	0.26
365.208	0.27
365.416	0.32
365.624	0.3
365.832	0.25
366.04	0.34
366.248	0.24
366.456	0.27
366.664	0.26
366.872	0.24
367.079	0.27
367.287	0.26
367.495	0.28
367.703	0.24
367.911	0.25
368.118	0.25
368.326	0.22
368.534	0.23
368.742	0.32
368.949	0.22
369.157	0.23
369.365	0.27
369.572	0.28
369.78	0.21
369.988	0.26
370.195	0.3
370.403	0.32
370.61	0.26
370.818	0.2
371.026	0.36
371.233	0.21
371.441	0.3
371.648	0.25
371.856	0.31
372.063	0.29
372.271	0.21
372.478	0.17
372.685	0.22
372.893	0.31
373.1	0.25
373.308	0.2
373.515	0.38
373.722	0.33
373.93	0.28
374.137	0.28
374.344	0.37
374.552	0.31
374.759	0.29
374.966	0.24
375.173	0.23
375.381	0.35
375.588	0.26
375.795	0.2
376.002	0.25
376.209	0.24
376.417	0.25
376.624	0.27
376.831	0.3
377.038	0.31
377.245	0.17
377.452	0.27
377.659	0.26
377.866	0.26
378.073	0.21
378.28	0.28
378.487	0.36
378.694	0.31
378.901	0.27
379.108	0.26
379.315	0.37
379.522	0.37
379.729	0.31
379.936	0.23
380.143	0.25
380.35	0.3
380.557	0.26
380.763	0.26
380.97	0.3
381.177	0.32
381.384	0.28
381.591	0.24
381.797	0.3
382.004	0.31
382.211	0.32
382.418	0.23
382.624	0.32
382.831	0.3
383.038	0.29
383.244	0.28
383.451	0.26
383.658	0.3
383.864	0.24
384.071	0.21
384.277	0.39
384.484	0.24
384.69	0.32
384.897	0.25
385.103	0.27
385.31	0.26
385.516	0.24
385.723	0.22
385.929	0.3
386.136	0.29
386.342	0.32
386.549	0.28
386.755	0.33
386.961	0.33
387.168	0.25
387.374	0.24
387.58	0.31
387.787	0.32
387.993	0.32
388.199	0.29
388.406	0.23
388.612	0.31
388.818	0.2
389.024	0.29
389.231	0.32
389.437	0.39
389.643	0.32
389.849	0.28
390.055	0.32
390.261	0.3
390.467	0.33
390.674	0.25
390.88	0.26
391.086	0.28
391.292	0.28
391.498	0.32
391.704	0.34
391.91	0.26
392.116	0.33
392.322	0.18
392.528	0.38
392.734	0.27
392.94	0.33
393.146	0.31
393.352	0.35
393.557	0.27
393.763	0.28
393.969	0.32
394.175	0.3
394.381	0.32
394.587	0.29
394.792	0.28
394.998	0.41
395.204	0.38
395.41	0.3
395.615	0.3
395.821	0.37
396.027	0.36
396.233	0.27
396.438	0.35
396.644	0.42
396.85	0.33
397.055	0.31
397.261	0.34
397.466	0.32
397.672	0.4
397.878	0.36
398.083	0.35
398.289	0.29
398.494	0.39
398.7	0.36
398.905	0.22
399.111	0.47
399.316	0.3
399.522	0.33
399.727	0.33
399.932	0.3
400.138	0.34
400.343	0.4
400.549	0.36
400.754	0.33
400.959	0.42
401.165	0.37
401.37	0.42
401.575	0.49
401.78	0.39
401.986	0.38
402.191	0.34
402.396	0.4
402.601	0.42
402.807	0.4
403.012	0.38
403.217	0.47
403.422	0.4
403.627	0.46
403.832	0.38
404.037	0.48
404.243	0.45
404.448	0.41
404.653	0.44
404.858	0.43
405.063	0.45
405.268	0.36
405.473	0.38
405.678	0.46
405.883	0.66
406.088	0.51
406.293	0.43
406.498	0.47
406.703	0.55
406.907	0.52
407.112	0.41
407.317	0.56
407.522	0.59
407.727	0.48
407.932	0.53
408.136	0.66
408.341	0.58
408.546	0.62
408.751	0.6
408.956	0.55
409.16	0.67
409.365	0.58
409.57	0.6
409.774	0.63
409.979	0.71
410.184	0.69
410.388	0.63
410.593	0.8
410.798	0.81
411.002	0.7
411.207	0.77
411.411	0.81
411.616	0.75
411.82	0.83
412.025	0.87
412.229	0.82
412.434	1.03
412.638	0.91
412.843	0.91
413.047	0.98
413.252	0.97
413.456	1.07
413.66	1.06
413.865	1.05
414.069	1.18
414.273	1.1
414.478	1.13
414.682	1.2
414.886	1.22
415.091	1.18
415.295	1.24
415.499	1.44
415.703	1.32
415.908	1.5
416.112	1.4
416.316	1.66
416.52	1.62
416.724	1.53
416.929	1.61
417.133	1.91
417.337	1.73
417.541	1.77
417.745	1.81
417.949	2.04
418.153	2.12
418.357	2.04
418.561	2.24
418.765	2.24
418.969	2.41
419.173	2.42
419.377	2.38
419.581	2.61
419.785	2.64
419.989	2.65
420.193	2.87
420.397	2.93
420.601	3.05
420.804	3.19
421.008	3.11
421.212	3.31
421.416	3.25
421.62	3.31
421.823	3.38
422.027	3.57
422.231	3.56
422.435	3.5
422.638	3.6
422.842	3.78
423.046	3.85
423.249	3.99
423.453	3.95
423.657	4.21
423.86	4.22
424.064	4.34
424.268	4.49
424.471	4.55
424.675	4.76
424.878	4.84
425.082	4.95
425.285	5.27
425.489	5.17
425.692	5.29
425.896	5.28
426.099	5.49
426.303	5.69
426.506	5.78
426.71	5.98
426.913	6.18
427.116	6.4
427.32	6.34
427.523	6.53
427.726	6.82
427.93	6.77
428.133	7.22
428.336	7.22
428.54	7.46
428.743	7.75
428.946	8.01
429.149	8.01
429.353	7.92
429.556	8.05
429.759	8.05
429.962	8.18
430.165	8.45
430.368	8.06
430.571	8.08
430.775	8.14
430.978	8.09
431.181	8.15
431.384	8.18
431.587	8.36
431.79	8.77
431.993	8.71
432.196	9.06
432.399	9.35
432.602	9.54
432.805	9.54
433.008	10.07
433.211	10.02
433.414	10.35
433.616	10.37
433.819	10.33
434.022	10.47
434.225	10.65
434.428	10.67
434.631	11.15
434.833	10.77
435.036	11.2
435.239	11.34
435.442	11.53
435.645	11.55
435.847	11.63
436.05	12
436.253	12.23
436.455	12.17
436.658	12.1
436.861	12.31
437.063	12.51
437.266	12.39
437.468	12.69
437.671	13.19
437.874	13.16
438.076	12.99
438.279	13.49
438.481	13.51
438.684	14.22
438.886	13.81
439.089	14.07
439.291	14.24
439.494	14.44
439.696	14.75
439.899	15.29
440.101	15.57
440.303	15.8
440.506	16.5
440.708	16.33
440.91	16.46
441.113	16.66
441.315	16.91
441.517	16.8
441.72	17.14
441.922	17.01
442.124	16.73
442.326	17.2
442.529	17.51
442.731	17.43
442.933	17.69
443.135	17.48
443.337	17.53
443.539	18.12
443.742	17.75
443.944	18.4
444.146	18.02
444.348	18.03
444.55	17.9
444.752	18.04
444.954	18.05
445.156	18
445.358	18.51
445.56	18.76
445.762	18.48
445.964	18.83
446.166	18.6
446.368	18.6
446.57	18.56
446.772	18.19
446.974	18.02
447.175	18.29
447.377	17.75
447.579	18.29
447.781	18
447.983	17.73
448.184	17.38
448.386	17.67
448.588	17.18
448.79	17.25
448.991	17.22
449.193	17.42
449.395	16.73
449.597	16.43
449.798	16.31
450	15.87
450.202	15.84
450.403	15.84
450.605	15.71
450.806	15.34
451.008	15.14
451.21	14.91
451.411	14.43
451.613	13.78
451.814	14.11
452.016	13.93
452.217	13.19
452.419	13.19
452.62	12.86
452.821	12.74
453.023	12.5
453.224	12.22
453.426	11.79
453.627	11.02
453.828	11.07
454.03	11.18
454.231	11.13
454.432	11
454.634	10.76
454.835	10.36
455.036	10.33
455.238	9.99
455.439	9.74
455.64	9.45
455.841	9.29
456.042	9.43
456.244	9.05
456.445	8.93
456.646	8.58
456.847	8.49
457.048	8.36
457.249	8.46
457.45	8.1
457.651	7.63
457.852	7.5
458.054	7.16
458.255	7.11
458.456	7.18
458.657	7.06
458.858	6.7
459.058	6.68
459.259	6.64
459.46	6.35
459.661	6.38
459.862	6.41
460.063	6.33
460.264	6.23
460.465	5.99
460.666	6.04
460.866	5.73
461.067	5.48
461.268	5.57
461.469	5.45
461.67	5.35
461.87	5.15
462.071	5.22
462.272	5.1
462.473	4.99
462.673	5.23
462.874	5.11
463.075	5.01
463.275	5.04
463.476	5.12
463.676	5.05
463.877	4.89
464.078	4.86
464.278	4.97
464.479	4.88
464.679	4.62
464.88	4.65
465.08	4.67
465.281	4.47
465.481	4.24
465.682	4.08
465.882	4.18
466.083	4.01
466.283	4.04
466.483	3.84
466.684	3.78
466.884	3.55
467.085	3.69
467.285	3.69
467.485	3.65
467.686	3.57
467.886	3.35
468.086	3.47
468.286	3.34
468.487	3.38
468.687	3.19
468.887	3.2
469.087	3.33
469.287	3.18
469.488	3.06
469.688	3.17
469.888	3.12
470.088	3.11
470.288	3.04
470.488	3.04
470.688	2.89
470.888	2.81
471.088	2.7
471.288	2.81
471.488	2.7
471.688	2.73
471.888	2.66
472.088	2.83
472.288	2.71
472.488	2.56
472.688	2.5
472.888	2.55
473.088	2.59
473.288	2.53
473.488	2.43
473.688	2.58
473.887	2.47
474.087	2.35
474.287	2.46
474.487	2.41
474.687	2.42
474.886	2.34
475.086	2.28
475.286	2.35
475.486	2.29
475.685	2.23
475.885	2.21
476.085	2.26
476.284	2.27
476.484	2.23
476.684	2.22
476.883	2.25
477.083	2.12
477.282	2.16
477.482	2.19
477.681	2.17
477.881	2.04
478.08	2.17
478.28	2.05
478.479	2.13
478.679	2.14
478.878	2.05
479.078	1.98
479.277	2.05
479.477	2.04
479.676	2.03
479.875	2.02
480.075	1.98
480.274	2
480.473	2.04
480.673	1.99
480.872	2.05
481.071	2
481.271	2.02
481.47	1.98
481.669	1.97
481.868	1.96
482.067	1.98
482.267	1.87
482.466	1.91
482.665	1.93
482.864	1.95
483.063	1.94
483.262	2.04
483.461	2.05
483.661	2.09
483.86	1.97
484.059	2.06
484.258	2.03
484.457	2.03
484.656	1.95
484.855	2.1
485.054	1.89
485.253	1.98
485.452	1.95
485.651	2.02
485.849	2.03
486.048	1.97
486.247	2
486.446	2.11
486.645	1.96
486.844	2.05
487.043	2.06
487.241	2.05
487.44	2.06
487.639	2.14
487.838	2.1
488.037	2.14
488.235	2.24
488.434	2.14
488.633	2.04
488.831	2.21
489.03	2.25
489.229	2.2
489.427	2.21
489.626	2.29
489.825	2.28
490.023	2.28
490.222	2.28
490.42	2.33
490.619	2.35
490.817	2.35
491.016	2.35
491.214	2.43
491.413	2.43
491.611	2.34
491.81	2.4
492.008	2.47
492.207	2.55
492.405	2.49
492.604	2.45
492.802	2.57
493	2.6
493.199	2.63
493.397	2.62
493.595	2.71
493.794	2.63
493.992	2.76
494.19	2.77
494.388	2.82
494.587	2.74
494.785	2.79
494.983	2.75
495.181	2.87
495.379	2.9
495.578	2.95
495.776	2.95
495.974	2.92
496.172	2.99
496.37	3.06
496.568	3.1
496.766	3.08
496.964	3.2
497.162	3.18
497.36	3.16
497.558	3.27
497.756	3.31
497.954	3.28
498.152	3.35
498.35	3.43
498.548	3.32
498.746	3.38
498.944	3.38
499.142	3.42
499.34	3.54
499.538	3.63
499.736	3.5
499.933	3.66
500.131	3.61
500.329	3.78
500.527	3.73
500.725	3.85
500.922	3.87
501.12	3.86
501.318	3.94
501.516	3.93
501.713	4.02
501.911	3.98
502.109	3.92
502.306	4.07
502.504	3.97
502.701	4.13
