Data from Apollo_Calib_20240827__AbsoluteIrradiance__44__23-53-00-175.txt Node

Date: Tue Aug 27 23:53:00 BST 2024
User: biology
Spectrometer: FLMT08252
Trigger mode: 0
Integration Time (sec): 5.000000E-1
Scans to average: 5
Electric dark correction enabled: true
Nonlinearity correction enabled: false
Boxcar width: 0
XAxis mode: Wavelengths
Number of Pixels in Spectrum: 3648
>>>>>Begin Spectral Data<<<<<
179.588	-0
179.809	-0
180.03	-0
180.251	-0
180.473	-0
180.694	0
180.915	0
181.136	-0
181.357	0
181.578	0
181.799	-0
182.02	-0
182.241	-0
182.462	-0
182.683	0
182.904	-0
183.125	-0
183.346	0
183.567	0
183.788	0
184.009	0
184.23	0
184.451	0
184.672	0
184.892	0
185.113	0
185.334	0
185.555	0
185.776	0
185.996	0
186.217	0
186.438	0
186.659	0
186.879	0
187.1	0
187.321	0
187.541	0
187.762	0
187.983	0
188.203	0
188.424	0
188.644	0
188.865	0
189.086	0
189.306	0
189.527	0
189.747	0
189.968	0
190.188	0
190.409	0
190.629	0
190.849	0
191.07	0
191.29	0
191.511	0
191.731	0
191.951	0
192.172	0
192.392	0
192.612	0
192.833	0
193.053	0
193.273	0
193.493	0
193.714	0
193.934	0
194.154	0
194.374	0
194.594	0
194.815	0
195.035	0
195.255	0
195.475	0
195.695	0
195.915	0
196.135	0
196.355	0
196.575	0
196.795	0
197.015	0
197.235	0
197.455	0
197.675	0
197.895	0
198.115	0
198.335	0
198.555	0
198.775	0
198.995	0
199.214	0
199.434	0
199.654	0
199.874	0
200.094	4.06
200.313	2.7
200.533	2.04
200.753	2.16
200.973	3.69
201.192	3.36
201.412	1.66
201.632	2.29
201.851	3.4
202.071	1.84
202.291	1.74
202.51	1.64
202.73	2.84
202.95	2.46
203.169	1.69
203.389	1.47
203.608	1.95
203.828	1.69
204.047	1.76
204.267	2.14
204.486	2.03
204.706	2.26
204.925	1.66
205.145	1.83
205.364	2.34
205.583	2.57
205.803	1.17
206.022	1.41
206.242	1.62
206.461	1.67
206.68	1.28
206.9	1.87
207.119	2.4
207.338	1.92
207.557	1.43
207.777	1.38
207.996	1.28
208.215	1.88
208.434	1.01
208.654	0.89
208.873	1.67
209.092	1.95
209.311	1.37
209.53	1.13
209.749	1.27
209.968	0.95
210.187	0.96
210.407	0.84
210.626	1.17
210.845	1.33
211.064	1.32
211.283	0.72
211.502	1.55
211.721	1.24
211.94	1.09
212.159	1.2
212.377	1.34
212.596	1.37
212.815	1.19
213.034	1.05
213.253	1.35
213.472	1.26
213.691	1.11
213.91	0.88
214.128	0.78
214.347	1.44
214.566	0.7
214.785	0.77
215.003	1.2
215.222	0.96
215.441	1.01
215.66	0.75
215.878	0.91
216.097	1.17
216.316	0.79
216.534	0.89
216.753	1.01
216.972	0.75
217.19	0.95
217.409	0.64
217.627	0.78
217.846	0.9
218.064	1.06
218.283	0.7
218.501	1.33
218.72	1.13
218.938	0.63
219.157	0.62
219.375	1.2
219.594	1.05
219.812	0.53
220.031	0.67
220.249	1.35
220.467	1.09
220.686	0.65
220.904	0.59
221.122	0.61
221.341	1.16
221.559	0.83
221.777	0.54
221.995	0.87
222.214	0.9
222.432	0.6
222.65	0.92
222.868	0.68
223.086	0.82
223.305	0.82
223.523	0.87
223.741	0.99
223.959	0.65
224.177	0.48
224.395	0.5
224.613	0.84
224.831	0.99
225.049	0.59
225.267	0.61
225.485	0.83
225.703	0.67
225.921	0.68
226.139	0.56
226.357	0.83
226.575	0.59
226.793	0.62
227.011	1.4
227.229	0.73
227.447	0.89
227.665	0.53
227.883	0.48
228.1	0.57
228.318	0.74
228.536	0.44
228.754	0.5
228.972	0.72
229.189	0.86
229.407	0.61
229.625	0.69
229.843	0.8
230.06	0.83
230.278	0.55
230.496	0.59
230.713	0.78
230.931	0.67
231.149	0.51
231.366	0.41
231.584	0.67
231.801	0.9
232.019	0.52
232.236	0.46
232.454	0.52
232.671	0.69
232.889	0.5
233.106	0.47
233.324	0.57
233.541	0.56
233.759	0.55
233.976	0.58
234.194	0.59
234.411	0.77
234.628	0.48
234.846	0.57
235.063	0.55
235.28	0.55
235.498	0.57
235.715	0.46
235.932	0.66
236.149	0.57
236.367	0.48
236.584	0.55
236.801	0.44
237.018	0.72
237.236	0.54
237.453	0.33
237.67	0.57
237.887	0.58
238.104	0.53
238.321	0.44
238.538	0.48
238.755	0.63
238.973	0.38
239.19	0.5
239.407	0.54
239.624	0.55
239.841	0.44
240.058	0.39
240.275	0.54
240.492	0.43
240.709	0.53
240.925	0.33
241.142	0.5
241.359	0.33
241.576	0.43
241.793	0.43
242.01	0.59
242.227	0.57
242.444	0.57
242.66	0.55
242.877	0.48
243.094	0.4
243.311	0.46
243.527	0.46
243.744	0.53
243.961	0.54
244.178	0.41
244.394	0.38
244.611	0.62
244.828	0.71
245.044	0.41
245.261	0.36
245.477	0.39
245.694	0.52
245.911	0.34
246.127	0.47
246.344	0.67
246.56	0.62
246.777	0.37
246.993	0.41
247.21	0.48
247.426	0.56
247.643	0.4
247.859	0.32
248.076	0.39
248.292	0.67
248.508	0.4
248.725	0.43
248.941	0.41
249.157	0.63
249.374	0.39
249.59	0.42
249.806	0.41
250.023	0.49
250.239	0.34
250.455	0.34
250.671	0.41
250.888	0.48
251.104	0.46
251.32	0.37
251.536	0.45
251.752	0.43
251.969	0.41
252.185	0.51
252.401	0.62
252.617	0.51
252.833	0.31
253.049	0.39
253.265	0.37
253.481	0.5
253.697	0.35
253.913	0.37
254.129	0.49
254.345	0.44
254.561	0.34
254.777	0.39
254.993	0.43
255.209	0.46
255.425	0.43
255.641	0.38
255.857	0.52
256.073	0.45
256.288	0.3
256.504	0.32
256.72	0.36
256.936	0.51
257.152	0.39
257.367	0.37
257.583	0.43
257.799	0.47
258.015	0.31
258.23	0.29
258.446	0.5
258.662	0.44
258.877	0.35
259.093	0.35
259.309	0.42
259.524	0.42
259.74	0.37
259.955	0.28
260.171	0.39
260.387	0.36
260.602	0.42
260.818	0.49
261.033	0.24
261.249	0.35
261.464	0.39
261.68	0.28
261.895	0.41
262.11	0.48
262.326	0.32
262.541	0.28
262.757	0.44
262.972	0.41
263.187	0.4
263.403	0.37
263.618	0.47
263.833	0.37
264.049	0.34
264.264	0.32
264.479	0.4
264.694	0.48
264.91	0.27
265.125	0.36
265.34	0.45
265.555	0.49
265.77	0.42
265.986	0.35
266.201	0.44
266.416	0.46
266.631	0.33
266.846	0.41
267.061	0.41
267.276	0.45
267.491	0.22
267.706	0.42
267.921	0.37
268.136	0.4
268.351	0.37
268.566	0.34
268.781	0.47
268.996	0.36
269.211	0.37
269.426	0.27
269.641	0.33
269.856	0.45
270.071	0.27
270.285	0.24
270.5	0.46
270.715	0.47
270.93	0.32
271.145	0.44
271.359	0.46
271.574	0.23
271.789	0.34
272.004	0.37
272.218	0.27
272.433	0.4
272.648	0.29
272.862	0.44
273.077	0.37
273.292	0.35
273.506	0.3
273.721	0.28
273.936	0.27
274.15	0.4
274.365	0.29
274.579	0.39
274.794	0.35
275.008	0.47
275.223	0.31
275.437	0.29
275.652	0.51
275.866	0.37
276.081	0.34
276.295	0.39
276.509	0.34
276.724	0.3
276.938	0.35
277.153	0.32
277.367	0.31
277.581	0.25
277.796	0.28
278.01	0.25
278.224	0.41
278.438	0.47
278.653	0.3
278.867	0.24
279.081	0.1
279.295	0.33
279.51	0.32
279.724	0.19
279.938	0.38
280.152	0.33
280.366	0.23
280.58	0.36
280.794	0.39
281.008	0.33
281.222	0.36
281.437	0.42
281.651	0.38
281.865	0.39
282.079	0.28
282.293	0.19
282.507	0.3
282.721	0.34
282.935	0.32
283.148	0.2
283.362	0.24
283.576	0.25
283.79	0.35
284.004	0.22
284.218	0.34
284.432	0.27
284.646	0.28
284.859	0.27
285.073	0.28
285.287	0.34
285.501	0.33
285.714	0.28
285.928	0.28
286.142	0.34
286.356	0.31
286.569	0.32
286.783	0.4
286.997	0.38
287.21	0.3
287.424	0.27
287.637	0.27
287.851	0.24
288.065	0.3
288.278	0.26
288.492	0.31
288.705	0.29
288.919	0.32
289.132	0.2
289.346	0.33
289.559	0.2
289.773	0.16
289.986	0.27
290.2	0.3
290.413	0.39
290.626	0.26
290.84	0.28
291.053	0.3
291.267	0.35
291.48	0.28
291.693	0.3
291.906	0.31
292.12	0.29
292.333	0.25
292.546	0.27
292.76	0.36
292.973	0.3
293.186	0.34
293.399	0.26
293.612	0.32
293.826	0.26
294.039	0.27
294.252	0.29
294.465	0.3
294.678	0.32
294.891	0.24
295.104	0.21
295.317	0.28
295.53	0.28
295.743	0.25
295.956	0.24
296.169	0.33
296.382	0.32
296.595	0.25
296.808	0.22
297.021	0.3
297.234	0.3
297.447	0.26
297.66	0.29
297.873	0.34
298.086	0.28
298.299	0.24
298.511	0.17
298.724	0.28
298.937	0.25
299.15	0.22
299.363	0.25
299.575	0.35
299.788	0.3
300.001	0.24
300.213	0.21
300.426	0.25
300.639	0.28
300.852	0.27
301.064	0.27
301.277	0.34
301.489	0.3
301.702	0.32
301.915	0.24
302.127	0.25
302.34	0.26
302.552	0.29
302.765	0.24
302.977	0.33
303.19	0.24
303.402	0.25
303.615	0.27
303.827	0.24
304.04	0.25
304.252	0.3
304.464	0.22
304.677	0.33
304.889	0.3
305.102	0.24
305.314	0.22
305.526	0.28
305.739	0.23
305.951	0.18
306.163	0.28
306.375	0.32
306.588	0.24
306.8	0.26
307.012	0.2
307.224	0.23
307.436	0.35
307.649	0.19
307.861	0.29
308.073	0.31
308.285	0.23
308.497	0.19
308.709	0.24
308.921	0.3
309.133	0.29
309.346	0.26
309.558	0.24
309.77	0.26
309.982	0.34
310.194	0.26
310.406	0.26
310.617	0.35
310.829	0.3
311.041	0.27
311.253	0.24
311.465	0.3
311.677	0.23
311.889	0.24
312.101	0.2
312.313	0.29
312.524	0.29
312.736	0.19
312.948	0.25
313.16	0.36
313.372	0.27
313.583	0.29
313.795	0.22
314.007	0.23
314.218	0.3
314.43	0.29
314.642	0.23
314.853	0.14
315.065	0.3
315.277	0.26
315.488	0.28
315.7	0.3
315.912	0.29
316.123	0.24
316.335	0.25
316.546	0.35
316.758	0.27
316.969	0.22
317.181	0.23
317.392	0.25
317.604	0.32
317.815	0.21
318.026	0.2
318.238	0.24
318.449	0.3
318.661	0.2
318.872	0.21
319.083	0.23
319.295	0.27
319.506	0.24
319.717	0.27
319.929	0.28
320.14	0.27
320.351	0.25
320.562	0.25
320.774	0.27
320.985	0.26
321.196	0.25
321.407	0.19
321.618	0.26
321.829	0.28
322.041	0.26
322.252	0.26
322.463	0.27
322.674	0.29
322.885	0.2
323.096	0.27
323.307	0.26
323.518	0.27
323.729	0.21
323.94	0.25
324.151	0.25
324.362	0.27
324.573	0.24
324.784	0.23
324.995	0.31
325.206	0.31
325.417	0.19
325.628	0.19
325.838	0.26
326.049	0.28
326.26	0.28
326.471	0.25
326.682	0.26
326.892	0.27
327.103	0.21
327.314	0.19
327.525	0.32
327.735	0.28
327.946	0.25
328.157	0.21
328.368	0.31
328.578	0.24
328.789	0.28
328.999	0.28
329.21	0.24
329.421	0.29
329.631	0.23
329.842	0.23
330.052	0.29
330.263	0.31
330.473	0.3
330.684	0.25
330.894	0.27
331.105	0.24
331.315	0.26
331.526	0.23
331.736	0.3
331.947	0.3
332.157	0.3
332.367	0.2
332.578	0.31
332.788	0.34
332.999	0.3
333.209	0.26
333.419	0.2
333.629	0.25
333.84	0.25
334.05	0.26
334.26	0.32
334.47	0.34
334.681	0.29
334.891	0.23
335.101	0.28
335.311	0.35
335.521	0.24
335.732	0.2
335.942	0.37
336.152	0.29
336.362	0.26
336.572	0.27
336.782	0.29
336.992	0.23
337.202	0.22
337.412	0.21
337.622	0.28
337.832	0.28
338.042	0.22
338.252	0.24
338.462	0.21
338.672	0.25
338.882	0.19
339.092	0.23
339.302	0.32
339.511	0.28
339.721	0.19
339.931	0.21
340.141	0.33
340.351	0.29
340.561	0.26
340.77	0.29
340.98	0.27
341.19	0.28
341.4	0.27
341.609	0.22
341.819	0.26
342.029	0.21
342.238	0.27
342.448	0.21
342.658	0.32
342.867	0.22
343.077	0.23
343.286	0.28
343.496	0.29
343.706	0.31
343.915	0.22
344.125	0.26
344.334	0.31
344.544	0.22
344.753	0.22
344.963	0.27
345.172	0.21
345.381	0.2
345.591	0.19
345.8	0.25
346.01	0.34
346.219	0.27
346.428	0.11
346.638	0.29
346.847	0.27
347.056	0.35
347.266	0.28
347.475	0.3
347.684	0.31
347.893	0.3
348.103	0.28
348.312	0.23
348.521	0.26
348.73	0.25
348.94	0.27
349.149	0.23
349.358	0.23
349.567	0.22
349.776	0.15
349.985	0.24
350.194	0.27
350.403	0.31
350.612	0.2
350.821	0.23
351.03	0.24
351.239	0.23
351.448	0.22
351.657	0.25
351.866	0.35
352.075	0.22
352.284	0.31
352.493	0.17
352.702	0.3
352.911	0.28
353.12	0.26
353.329	0.26
353.538	0.29
353.746	0.26
353.955	0.17
354.164	0.26
354.373	0.27
354.582	0.27
354.79	0.23
354.999	0.26
355.208	0.28
355.416	0.33
355.625	0.23
355.834	0.24
356.042	0.26
356.251	0.19
356.46	0.22
356.668	0.26
356.877	0.31
357.085	0.3
357.294	0.18
357.503	0.27
357.711	0.24
357.92	0.36
358.128	0.24
358.337	0.25
358.545	0.27
358.754	0.22
358.962	0.3
359.17	0.22
359.379	0.23
359.587	0.29
359.796	0.26
360.004	0.34
360.212	0.28
360.421	0.32
360.629	0.25
360.837	0.26
361.046	0.31
361.254	0.38
361.462	0.27
361.67	0.22
361.879	0.28
362.087	0.32
362.295	0.24
362.503	0.24
362.711	0.19
362.92	0.23
363.128	0.22
363.336	0.23
363.544	0.23
363.752	0.21
363.96	0.27
364.168	0.2
364.376	0.22
364.584	0.26
364.792	0.3
365	0.25
365.208	0.26
365.416	0.26
365.624	0.29
365.832	0.21
366.04	0.31
366.248	0.22
366.456	0.24
366.664	0.27
366.872	0.26
367.079	0.23
367.287	0.22
367.495	0.28
367.703	0.29
367.911	0.21
368.118	0.26
368.326	0.26
368.534	0.22
368.742	0.32
368.949	0.19
369.157	0.23
369.365	0.28
369.572	0.23
369.78	0.2
369.988	0.28
370.195	0.24
370.403	0.29
370.61	0.26
370.818	0.24
371.026	0.33
371.233	0.2
371.441	0.25
371.648	0.22
371.856	0.24
372.063	0.24
372.271	0.24
372.478	0.21
372.685	0.22
372.893	0.28
373.1	0.22
373.308	0.25
373.515	0.36
373.722	0.29
373.93	0.24
374.137	0.25
374.344	0.34
374.552	0.31
374.759	0.27
374.966	0.26
375.173	0.25
375.381	0.34
375.588	0.26
375.795	0.22
376.002	0.25
376.209	0.24
376.417	0.3
376.624	0.33
376.831	0.26
377.038	0.27
377.245	0.2
377.452	0.31
377.659	0.29
377.866	0.25
378.073	0.25
378.28	0.26
378.487	0.33
378.694	0.32
378.901	0.25
379.108	0.24
379.315	0.29
379.522	0.34
379.729	0.28
379.936	0.26
380.143	0.28
380.35	0.34
380.557	0.28
380.763	0.31
380.97	0.24
381.177	0.28
381.384	0.25
381.591	0.23
381.797	0.33
382.004	0.25
382.211	0.27
382.418	0.29
382.624	0.3
382.831	0.26
383.038	0.27
383.244	0.31
383.451	0.25
383.658	0.33
383.864	0.26
384.071	0.25
384.277	0.34
384.484	0.25
384.69	0.32
384.897	0.25
385.103	0.3
385.31	0.22
385.516	0.25
385.723	0.22
385.929	0.28
386.136	0.24
386.342	0.31
386.549	0.29
386.755	0.36
386.961	0.32
387.168	0.25
387.374	0.3
387.58	0.28
387.787	0.35
387.993	0.3
388.199	0.26
388.406	0.26
388.612	0.27
388.818	0.25
389.024	0.29
389.231	0.32
389.437	0.38
389.643	0.31
389.849	0.26
390.055	0.3
390.261	0.3
390.467	0.32
390.674	0.24
390.88	0.26
391.086	0.35
391.292	0.25
391.498	0.35
391.704	0.33
391.91	0.33
392.116	0.27
392.322	0.21
392.528	0.34
392.734	0.31
392.94	0.31
393.146	0.28
393.352	0.33
393.557	0.27
393.763	0.31
393.969	0.31
394.175	0.32
394.381	0.33
394.587	0.25
394.792	0.28
394.998	0.38
395.204	0.37
395.41	0.29
395.615	0.34
395.821	0.3
396.027	0.37
396.233	0.29
396.438	0.34
396.644	0.41
396.85	0.3
397.055	0.34
397.261	0.36
397.466	0.41
397.672	0.39
397.878	0.37
398.083	0.34
398.289	0.3
398.494	0.44
398.7	0.38
398.905	0.3
399.111	0.41
399.316	0.3
399.522	0.38
399.727	0.33
399.932	0.34
400.138	0.3
400.343	0.39
400.549	0.32
400.754	0.39
400.959	0.38
401.165	0.38
401.37	0.4
401.575	0.46
401.78	0.37
401.986	0.34
402.191	0.37
402.396	0.39
402.601	0.35
402.807	0.44
403.012	0.44
403.217	0.44
403.422	0.4
403.627	0.42
403.832	0.39
404.037	0.44
404.243	0.38
404.448	0.42
404.653	0.41
404.858	0.43
405.063	0.44
405.268	0.45
405.473	0.44
405.678	0.39
405.883	0.6
406.088	0.49
406.293	0.42
406.498	0.45
406.703	0.48
406.907	0.53
407.112	0.46
407.317	0.51
407.522	0.62
407.727	0.47
407.932	0.54
408.136	0.63
408.341	0.56
408.546	0.59
408.751	0.58
408.956	0.57
409.16	0.62
409.365	0.59
409.57	0.66
409.774	0.63
409.979	0.72
410.184	0.69
410.388	0.66
410.593	0.69
410.798	0.77
411.002	0.7
411.207	0.8
411.411	0.82
411.616	0.8
411.82	0.84
412.025	0.86
412.229	0.86
412.434	0.93
412.638	0.88
412.843	0.97
413.047	0.94
413.252	0.94
413.456	1.02
413.66	1.13
413.865	1.04
414.069	1.12
414.273	1.1
414.478	1.14
414.682	1.22
414.886	1.23
415.091	1.23
415.295	1.24
415.499	1.4
415.703	1.35
415.908	1.48
416.112	1.37
416.316	1.63
416.52	1.47
416.724	1.55
416.929	1.62
417.133	1.87
417.337	1.79
417.541	1.78
417.745	1.89
417.949	2.02
418.153	1.99
418.357	2.06
418.561	2.24
418.765	2.17
418.969	2.33
419.173	2.41
419.377	2.46
419.581	2.66
419.785	2.57
419.989	2.67
420.193	2.81
420.397	2.92
420.601	3.02
420.804	3.16
421.008	3.08
421.212	3.25
421.416	3.3
421.62	3.36
421.823	3.4
422.027	3.56
422.231	3.49
422.435	3.48
422.638	3.59
422.842	3.71
423.046	3.86
423.249	4
423.453	3.97
423.657	4.15
423.86	4.26
424.064	4.4
424.268	4.49
424.471	4.53
424.675	4.71
424.878	4.73
425.082	4.89
425.285	5.27
425.489	5.22
425.692	5.22
425.896	5.32
426.099	5.57
426.303	5.64
426.506	5.75
426.71	6.03
426.913	6.2
427.116	6.36
427.32	6.3
427.523	6.5
427.726	6.76
427.93	6.82
428.133	7.17
428.336	7.27
428.54	7.52
428.743	7.7
428.946	7.94
429.149	7.87
429.353	8.01
429.556	8.14
429.759	8.08
429.962	8.18
430.165	8.41
430.368	8
430.571	8.18
430.775	8.25
430.978	8.11
431.181	8.19
431.384	8.28
431.587	8.35
431.79	8.82
431.993	8.71
432.196	9
432.399	9.36
432.602	9.43
432.805	9.59
433.008	10.13
433.211	10.01
433.414	10.38
433.616	10.21
433.819	10.28
434.022	10.54
434.225	10.6
434.428	10.69
434.631	11.19
434.833	10.89
435.036	11.23
435.239	11.35
435.442	11.53
435.645	11.62
435.847	11.62
436.05	11.92
436.253	12.21
436.455	12.23
436.658	12.12
436.861	12.41
437.063	12.6
437.266	12.45
437.468	12.73
437.671	13.02
437.874	13.22
438.076	13.17
438.279	13.49
438.481	13.47
438.684	14.32
438.886	13.99
439.089	14.29
439.291	14.26
439.494	14.56
439.696	14.8
439.899	15.32
440.101	15.74
440.303	16.03
440.506	16.69
440.708	16.39
440.91	16.5
441.113	16.75
441.315	17.14
441.517	16.85
441.72	17.35
441.922	16.95
442.124	17.03
442.326	17.38
442.529	17.47
442.731	17.54
442.933	17.89
443.135	17.59
443.337	17.46
443.539	18.05
443.742	17.87
443.944	18.44
444.146	18.24
444.348	18.2
444.55	18.08
444.752	18.21
444.954	18.17
445.156	18.18
445.358	18.49
445.56	18.89
445.762	18.68
445.964	18.86
446.166	18.74
446.368	18.88
446.57	18.65
446.772	18.37
446.974	18.15
447.175	18.29
447.377	18.05
447.579	18.56
447.781	18.11
447.983	17.94
448.184	17.45
448.386	17.8
448.588	17.44
448.79	17.28
448.991	17.49
449.193	17.61
449.395	16.91
449.597	16.52
449.798	16.31
450	16.02
450.202	15.97
450.403	15.97
450.605	15.69
450.806	15.36
451.008	15.35
451.21	15.01
451.411	14.62
451.613	13.77
451.814	14.21
452.016	13.98
452.217	13.31
452.419	13.35
452.62	13.01
452.821	12.93
453.023	12.64
453.224	12.25
453.426	11.98
453.627	11.13
453.828	11.33
454.03	11.29
454.231	11.29
454.432	11.08
454.634	10.84
454.835	10.6
455.036	10.48
455.238	10.1
455.439	9.8
455.64	9.59
455.841	9.42
456.042	9.48
456.244	9.17
456.445	8.86
456.646	8.65
456.847	8.53
457.048	8.48
457.249	8.47
457.45	8.12
457.651	7.77
457.852	7.59
458.054	7.16
458.255	7.18
458.456	7.25
458.657	7.06
458.858	6.77
459.058	6.59
459.259	6.72
459.46	6.43
459.661	6.37
459.862	6.42
460.063	6.31
460.264	6.26
460.465	6.05
460.666	6.03
460.866	5.81
461.067	5.55
461.268	5.6
461.469	5.52
461.67	5.3
461.87	5.18
462.071	5.26
462.272	5.16
462.473	5.04
462.673	5.26
462.874	5.16
463.075	5.13
463.275	5.12
463.476	5.17
463.676	5.09
463.877	4.96
464.078	4.98
464.278	5.01
464.479	4.87
464.679	4.72
464.88	4.66
465.08	4.65
465.281	4.52
465.481	4.38
465.682	4.08
465.882	4.13
466.083	4.16
466.283	4.02
466.483	3.84
466.684	3.78
466.884	3.75
467.085	3.62
467.285	3.8
467.485	3.56
467.686	3.56
467.886	3.44
468.086	3.35
468.286	3.28
468.487	3.45
468.687	3.26
468.887	3.2
469.087	3.32
469.287	3.26
469.488	3.03
469.688	3.22
469.888	3.16
470.088	3.15
470.288	3.04
470.488	2.95
470.688	2.84
470.888	2.86
471.088	2.75
471.288	2.82
471.488	2.77
471.688	2.78
471.888	2.64
472.088	2.81
472.288	2.72
472.488	2.6
472.688	2.54
472.888	2.61
473.088	2.6
473.288	2.44
473.488	2.48
473.688	2.61
473.887	2.46
474.087	2.37
474.287	2.41
474.487	2.32
474.687	2.4
474.886	2.36
475.086	2.31
475.286	2.34
475.486	2.37
475.685	2.21
475.885	2.18
476.085	2.22
476.284	2.2
476.484	2.24
476.684	2.22
476.883	2.3
477.083	2.19
477.282	2.13
477.482	2.16
477.681	2.14
477.881	2.05
478.08	2.09
478.28	2.01
478.479	2.09
478.679	2.13
478.878	2.09
479.078	2
479.277	2.08
479.477	2.04
479.676	2
479.875	2.01
480.075	2
480.274	2.04
480.473	2.04
480.673	2.04
480.872	2.04
481.071	2.02
481.271	2.05
481.47	1.96
481.669	1.99
481.868	1.99
482.067	1.99
482.267	1.93
482.466	1.92
482.665	1.87
482.864	1.95
483.063	1.95
483.262	2.03
483.461	2.06
483.661	2.08
483.86	2
484.059	2.06
484.258	2.03
484.457	1.98
484.656	2.02
484.855	2.05
485.054	1.94
485.253	1.99
485.452	1.93
485.651	2.07
485.849	2.01
486.048	1.99
486.247	2.01
486.446	2.06
486.645	2.01
486.844	2.05
487.043	2.04
487.241	2.11
487.44	2.04
487.639	2.14
487.838	2.1
488.037	2.08
488.235	2.15
488.434	2.16
488.633	2.04
488.831	2.2
489.03	2.2
489.229	2.18
489.427	2.23
489.626	2.25
489.825	2.23
490.023	2.29
490.222	2.26
490.42	2.29
490.619	2.33
490.817	2.4
491.016	2.34
491.214	2.37
491.413	2.39
491.611	2.33
491.81	2.4
492.008	2.45
492.207	2.54
492.405	2.51
492.604	2.45
492.802	2.53
493	2.63
493.199	2.6
493.397	2.6
493.595	2.7
493.794	2.65
493.992	2.78
494.19	2.72
494.388	2.79
494.587	2.73
494.785	2.74
494.983	2.71
495.181	2.84
495.379	2.92
495.578	2.96
495.776	2.97
495.974	2.9
496.172	3
496.37	3.07
496.568	3.09
496.766	3.07
496.964	3.19
497.162	3.18
497.36	3.22
497.558	3.22
497.756	3.28
497.954	3.29
498.152	3.35
498.35	3.44
498.548	3.32
498.746	3.34
498.944	3.49
499.142	3.41
499.34	3.55
499.538	3.62
499.736	3.54
499.933	3.6
500.131	3.61
500.329	3.76
500.527	3.76
500.725	3.84
500.922	3.85
501.12	3.86
501.318	3.97
501.516	3.91
501.713	4
501.911	3.95
502.109	3.94
502.306	4.12
502.504	3.99
502.701	4.09
502.899	4.18
