Data from Apollo_Calib_20240827__AbsoluteIrradiance__871__13-40-01-177.txt Node

Date: Wed Aug 28 13:40:01 BST 2024
User: biology
Spectrometer: FLMT08252
Trigger mode: 0
Integration Time (sec): 5.000000E-1
Scans to average: 5
Electric dark correction enabled: true
Nonlinearity correction enabled: false
Boxcar width: 0
XAxis mode: Wavelengths
Number of Pixels in Spectrum: 3648
>>>>>Begin Spectral Data<<<<<
179.588	-0
179.809	-0
180.03	-0
180.251	-0
180.473	-0
180.694	0
180.915	0
181.136	-0
181.357	0
181.578	-0
181.799	-0
182.02	-0
182.241	-0
182.462	-0
182.683	0
182.904	-0
183.125	-0
183.346	0
183.567	0
183.788	0
184.009	0
184.23	0
184.451	0
184.672	0
184.892	0
185.113	0
185.334	0
185.555	0
185.776	0
185.996	0
186.217	0
186.438	0
186.659	0
186.879	0
187.1	0
187.321	0
187.541	0
187.762	0
187.983	0
188.203	0
188.424	0
188.644	0
188.865	0
189.086	0
189.306	0
189.527	0
189.747	0
189.968	0
190.188	0
190.409	0
190.629	0
190.849	0
191.07	0
191.29	0
191.511	0
191.731	0
191.951	0
192.172	0
192.392	0
192.612	0
192.833	0
193.053	0
193.273	0
193.493	0
193.714	0
193.934	0
194.154	0
194.374	0
194.594	0
194.815	0
195.035	0
195.255	0
195.475	0
195.695	0
195.915	0
196.135	0
196.355	0
196.575	0
196.795	0
197.015	0
197.235	0
197.455	0
197.675	0
197.895	0
198.115	0
198.335	0
198.555	0
198.775	0
198.995	0
199.214	0
199.434	0
199.654	0
199.874	0
200.094	3.72
200.313	2.9
200.533	1.64
200.753	1.6
200.973	3.47
201.192	3.54
201.412	1.38
201.632	1.89
201.851	3.57
202.071	2.02
202.291	2.05
202.51	1.76
202.73	2.56
202.95	1.98
203.169	1.43
203.389	1.81
203.608	2.73
203.828	1.83
204.047	1.29
204.267	2.39
204.486	2.39
204.706	2.37
204.925	1.87
205.145	1.58
205.364	2.22
205.583	3.02
205.803	1.3
206.022	1.14
206.242	1.89
206.461	1.77
206.68	1.15
206.9	1.39
207.119	2.57
207.338	2.2
207.557	1.07
207.777	0.92
207.996	1.57
208.215	2.06
208.434	1.33
208.654	0.88
208.873	1.59
209.092	2.2
209.311	1.13
209.53	1.05
209.749	1.05
209.968	0.92
210.187	0.92
210.407	0.69
210.626	1.23
210.845	1.64
211.064	1.24
211.283	0.96
211.502	1.51
211.721	1.21
211.94	0.86
212.159	1.39
212.377	1.57
212.596	1.72
212.815	1.25
213.034	1.05
213.253	1.25
213.472	1.24
213.691	0.92
213.91	0.56
214.128	0.49
214.347	1.49
214.566	0.56
214.785	0.66
215.003	1.34
215.222	1.14
215.441	0.79
215.66	0.6
215.878	0.94
216.097	1.31
216.316	0.69
216.534	0.81
216.753	0.93
216.972	0.9
217.19	0.82
217.409	0.75
217.627	0.69
217.846	0.87
218.064	0.95
218.283	0.81
218.501	1.6
218.72	1.18
218.938	0.59
219.157	0.75
219.375	1.15
219.594	1.2
219.812	0.5
220.031	0.51
220.249	1.22
220.467	1.23
220.686	0.63
220.904	0.43
221.122	0.66
221.341	1.3
221.559	0.7
221.777	0.39
221.995	0.92
222.214	0.96
222.432	0.57
222.65	0.83
222.868	0.87
223.086	0.89
223.305	0.87
223.523	0.59
223.741	1.16
223.959	0.68
224.177	0.34
224.395	0.61
224.613	0.72
224.831	0.95
225.049	0.52
225.267	0.64
225.485	0.76
225.703	0.54
225.921	0.45
226.139	0.53
226.357	0.92
226.575	0.82
226.793	0.56
227.011	1.5
227.229	0.74
227.447	0.89
227.665	0.5
227.883	0.29
228.1	0.6
228.318	0.8
228.536	0.25
228.754	0.45
228.972	0.72
229.189	0.78
229.407	0.58
229.625	0.56
229.843	0.87
230.06	0.88
230.278	0.51
230.496	0.61
230.713	0.59
230.931	0.81
231.149	0.52
231.366	0.31
231.584	0.53
231.801	1.09
232.019	0.48
232.236	0.34
232.454	0.43
232.671	0.64
232.889	0.49
233.106	0.31
233.324	0.51
233.541	0.52
233.759	0.53
233.976	0.31
234.194	0.48
234.411	0.69
234.628	0.4
234.846	0.43
235.063	0.6
235.28	0.59
235.498	0.58
235.715	0.42
235.932	0.71
236.149	0.45
236.367	0.45
236.584	0.59
236.801	0.49
237.018	0.6
237.236	0.39
237.453	0.29
237.67	0.65
237.887	0.54
238.104	0.43
238.321	0.37
238.538	0.45
238.755	0.72
238.973	0.27
239.19	0.43
239.407	0.67
239.624	0.57
239.841	0.36
240.058	0.42
240.275	0.51
240.492	0.52
240.709	0.43
240.925	0.5
241.142	0.43
241.359	0.37
241.576	0.41
241.793	0.32
242.01	0.49
242.227	0.72
242.444	0.54
242.66	0.62
242.877	0.49
243.094	0.42
243.311	0.36
243.527	0.38
243.744	0.65
243.961	0.54
244.178	0.42
244.394	0.36
244.611	0.59
244.828	0.73
245.044	0.38
245.261	0.39
245.477	0.5
245.694	0.51
245.911	0.32
246.127	0.58
246.344	0.7
246.56	0.65
246.777	0.34
246.993	0.43
247.21	0.46
247.426	0.57
247.643	0.28
247.859	0.37
248.076	0.36
248.292	0.74
248.508	0.38
248.725	0.47
248.941	0.52
249.157	0.63
249.374	0.35
249.59	0.45
249.806	0.4
250.023	0.47
250.239	0.29
250.455	0.32
250.671	0.47
250.888	0.47
251.104	0.53
251.32	0.37
251.536	0.43
251.752	0.48
251.969	0.36
252.185	0.31
252.401	0.62
252.617	0.48
252.833	0.33
253.049	0.44
253.265	0.45
253.481	0.48
253.697	0.35
253.913	0.33
254.129	0.52
254.345	0.4
254.561	0.31
254.777	0.4
254.993	0.5
255.209	0.38
255.425	0.35
255.641	0.25
255.857	0.5
256.073	0.4
256.288	0.32
256.504	0.36
256.72	0.48
256.936	0.64
257.152	0.32
257.367	0.32
257.583	0.43
257.799	0.47
258.015	0.27
258.23	0.27
258.446	0.68
258.662	0.43
258.877	0.32
259.093	0.32
259.309	0.41
259.524	0.42
259.74	0.33
259.955	0.24
260.171	0.4
260.387	0.41
260.602	0.46
260.818	0.44
261.033	0.3
261.249	0.44
261.464	0.33
261.68	0.24
261.895	0.39
262.11	0.43
262.326	0.33
262.541	0.22
262.757	0.47
262.972	0.39
263.187	0.44
263.403	0.43
263.618	0.53
263.833	0.41
264.049	0.33
264.264	0.36
264.479	0.36
264.694	0.5
264.91	0.25
265.125	0.34
265.34	0.41
265.555	0.56
265.77	0.43
265.986	0.32
266.201	0.4
266.416	0.42
266.631	0.39
266.846	0.3
267.061	0.56
267.276	0.49
267.491	0.19
267.706	0.43
267.921	0.46
268.136	0.4
268.351	0.32
268.566	0.23
268.781	0.49
268.996	0.46
269.211	0.32
269.426	0.26
269.641	0.39
269.856	0.43
270.071	0.23
270.285	0.23
270.5	0.41
270.715	0.41
270.93	0.3
271.145	0.33
271.359	0.45
271.574	0.32
271.789	0.34
272.004	0.26
272.218	0.3
272.433	0.45
272.648	0.33
272.862	0.42
273.077	0.41
273.292	0.34
273.506	0.26
273.721	0.34
273.936	0.44
274.15	0.42
274.365	0.21
274.579	0.39
274.794	0.43
275.008	0.46
275.223	0.19
275.437	0.37
275.652	0.44
275.866	0.38
276.081	0.31
276.295	0.38
276.509	0.32
276.724	0.32
276.938	0.29
277.153	0.3
277.367	0.3
277.581	0.29
277.796	0.29
278.01	0.25
278.224	0.36
278.438	0.51
278.653	0.23
278.867	0.26
279.081	0.39
279.295	0.36
279.51	0.36
279.724	0.15
279.938	0.34
280.152	0.41
280.366	0.3
280.58	0.32
280.794	0.44
281.008	0.41
281.222	0.38
281.437	0.52
281.651	0.32
281.865	0.43
282.079	0.29
282.293	0.17
282.507	0.29
282.721	0.3
282.935	0.32
283.148	0.17
283.362	0.29
283.576	0.21
283.79	0.28
284.004	0.23
284.218	0.4
284.432	0.25
284.646	0.33
284.859	0.27
285.073	0.25
285.287	0.32
285.501	0.33
285.714	0.28
285.928	0.3
286.142	0.36
286.356	0.29
286.569	0.27
286.783	0.41
286.997	0.41
287.21	0.31
287.424	0.34
287.637	0.26
287.851	0.28
288.065	0.35
288.278	0.22
288.492	0.32
288.705	0.26
288.919	0.3
289.132	0.25
289.346	0.35
289.559	0.21
289.773	0.23
289.986	0.26
290.2	0.27
290.413	0.39
290.626	0.23
290.84	0.21
291.053	0.29
291.267	0.4
291.48	0.27
291.693	0.28
291.906	0.25
292.12	0.31
292.333	0.24
292.546	0.24
292.76	0.4
292.973	0.35
293.186	0.32
293.399	0.27
293.612	0.35
293.826	0.24
294.039	0.23
294.252	0.24
294.465	0.34
294.678	0.31
294.891	0.26
295.104	0.28
295.317	0.27
295.53	0.33
295.743	0.26
295.956	0.25
296.169	0.37
296.382	0.31
296.595	0.24
296.808	0.2
297.021	0.33
297.234	0.32
297.447	0.25
297.66	0.26
297.873	0.32
298.086	0.35
298.299	0.22
298.511	0.15
298.724	0.24
298.937	0.19
299.15	0.26
299.363	0.27
299.575	0.34
299.788	0.3
300.001	0.22
300.213	0.21
300.426	0.24
300.639	0.24
300.852	0.19
301.064	0.28
301.277	0.32
301.489	0.29
301.702	0.28
301.915	0.29
302.127	0.25
302.34	0.26
302.552	0.31
302.765	0.19
302.977	0.38
303.19	0.2
303.402	0.24
303.615	0.25
303.827	0.26
304.04	0.27
304.252	0.29
304.464	0.22
304.677	0.4
304.889	0.32
305.102	0.24
305.314	0.21
305.526	0.3
305.739	0.28
305.951	0.19
306.163	0.24
306.375	0.35
306.588	0.23
306.8	0.22
307.012	0.19
307.224	0.27
307.436	0.39
307.649	0.2
307.861	0.29
308.073	0.29
308.285	0.28
308.497	0.2
308.709	0.2
308.921	0.28
309.133	0.33
309.346	0.22
309.558	0.26
309.77	0.31
309.982	0.35
310.194	0.3
310.406	0.22
310.617	0.35
310.829	0.3
311.041	0.3
311.253	0.23
311.465	0.27
311.677	0.28
311.889	0.23
312.101	0.22
312.313	0.31
312.524	0.36
312.736	0.18
312.948	0.2
313.16	0.39
313.372	0.31
313.583	0.26
313.795	0.24
314.007	0.23
314.218	0.36
314.43	0.23
314.642	0.23
314.853	0.15
315.065	0.3
315.277	0.24
315.488	0.26
315.7	0.33
315.912	0.29
316.123	0.26
316.335	0.21
316.546	0.4
316.758	0.29
316.969	0.22
317.181	0.22
317.392	0.25
317.604	0.39
317.815	0.21
318.026	0.24
318.238	0.25
318.449	0.3
318.661	0.18
318.872	0.21
319.083	0.2
319.295	0.33
319.506	0.2
319.717	0.24
319.929	0.27
320.14	0.25
320.351	0.32
320.562	0.22
320.774	0.29
320.985	0.26
321.196	0.24
321.407	0.14
321.618	0.34
321.829	0.26
322.041	0.29
322.252	0.31
322.463	0.3
322.674	0.33
322.885	0.2
323.096	0.31
323.307	0.25
323.518	0.22
323.729	0.23
323.94	0.2
324.151	0.24
324.362	0.29
324.573	0.27
324.784	0.24
324.995	0.33
325.206	0.26
325.417	0.21
325.628	0.2
325.838	0.32
326.049	0.31
326.26	0.29
326.471	0.19
326.682	0.31
326.892	0.25
327.103	0.17
327.314	0.25
327.525	0.34
327.735	0.27
327.946	0.26
328.157	0.21
328.368	0.34
328.578	0.22
328.789	0.32
328.999	0.27
329.21	0.19
329.421	0.34
329.631	0.18
329.842	0.21
330.052	0.32
330.263	0.33
330.473	0.28
330.684	0.24
330.894	0.3
331.105	0.26
331.315	0.28
331.526	0.18
331.736	0.37
331.947	0.3
332.157	0.32
332.367	0.19
332.578	0.29
332.788	0.33
332.999	0.3
333.209	0.26
333.419	0.18
333.629	0.29
333.84	0.26
334.05	0.28
334.26	0.39
334.47	0.28
334.681	0.3
334.891	0.24
335.101	0.27
335.311	0.35
335.521	0.24
335.732	0.18
335.942	0.28
336.152	0.31
336.362	0.27
336.572	0.27
336.782	0.31
336.992	0.21
337.202	0.25
337.412	0.21
337.622	0.32
337.832	0.26
338.042	0.22
338.252	0.21
338.462	0.26
338.672	0.29
338.882	0.24
339.092	0.27
339.302	0.36
339.511	0.3
339.721	0.27
339.931	0.17
340.141	0.3
340.351	0.31
340.561	0.26
340.77	0.26
340.98	0.3
341.19	0.25
341.4	0.25
341.609	0.2
341.819	0.25
342.029	0.18
342.238	0.26
342.448	0.2
342.658	0.29
342.867	0.28
343.077	0.24
343.286	0.3
343.496	0.25
343.706	0.34
343.915	0.17
344.125	0.23
344.334	0.27
344.544	0.23
344.753	0.2
344.963	0.19
345.172	0.22
345.381	0.23
345.591	0.22
345.8	0.25
346.01	0.31
346.219	0.34
346.428	0.14
346.638	0.27
346.847	0.24
347.056	0.35
347.266	0.25
347.475	0.23
347.684	0.32
347.893	0.31
348.103	0.31
348.312	0.27
348.521	0.27
348.73	0.27
348.94	0.27
349.149	0.22
349.358	0.25
349.567	0.23
349.776	0.22
349.985	0.22
350.194	0.33
350.403	0.3
350.612	0.16
350.821	0.18
351.03	0.24
351.239	0.21
351.448	0.26
351.657	0.2
351.866	0.38
352.075	0.25
352.284	0.33
352.493	0.17
352.702	0.32
352.911	0.28
353.12	0.28
353.329	0.26
353.538	0.3
353.746	0.23
353.955	0.19
354.164	0.26
354.373	0.24
354.582	0.29
354.79	0.27
354.999	0.31
355.208	0.26
355.416	0.34
355.625	0.19
355.834	0.23
356.042	0.31
356.251	0.24
356.46	0.18
356.668	0.29
356.877	0.36
357.085	0.33
357.294	0.17
357.503	0.23
357.711	0.25
357.92	0.43
358.128	0.24
358.337	0.23
358.545	0.25
358.754	0.23
358.962	0.27
359.17	0.23
359.379	0.29
359.587	0.27
359.796	0.26
360.004	0.32
360.212	0.25
360.421	0.3
360.629	0.21
360.837	0.22
361.046	0.32
361.254	0.38
361.462	0.23
361.67	0.2
361.879	0.27
362.087	0.35
362.295	0.24
362.503	0.23
362.711	0.2
362.92	0.2
363.128	0.21
363.336	0.19
363.544	0.18
363.752	0.23
363.96	0.24
364.168	0.21
364.376	0.29
364.584	0.28
364.792	0.31
365	0.27
365.208	0.26
365.416	0.25
365.624	0.29
365.832	0.22
366.04	0.34
366.248	0.26
366.456	0.27
366.664	0.27
366.872	0.21
367.079	0.25
367.287	0.24
367.495	0.26
367.703	0.26
367.911	0.21
368.118	0.26
368.326	0.27
368.534	0.2
368.742	0.38
368.949	0.18
369.157	0.26
369.365	0.29
369.572	0.21
369.78	0.21
369.988	0.29
370.195	0.25
370.403	0.32
370.61	0.23
370.818	0.23
371.026	0.34
371.233	0.2
371.441	0.26
371.648	0.23
371.856	0.29
372.063	0.28
372.271	0.25
372.478	0.19
372.685	0.23
372.893	0.3
373.1	0.23
373.308	0.23
373.515	0.41
373.722	0.33
373.93	0.21
374.137	0.32
374.344	0.34
374.552	0.29
374.759	0.3
374.966	0.31
375.173	0.3
375.381	0.35
375.588	0.24
375.795	0.19
376.002	0.28
376.209	0.23
376.417	0.27
376.624	0.26
376.831	0.33
377.038	0.3
377.245	0.21
377.452	0.21
377.659	0.29
377.866	0.21
378.073	0.25
378.28	0.28
378.487	0.35
378.694	0.35
378.901	0.25
379.108	0.29
379.315	0.36
379.522	0.34
379.729	0.26
379.936	0.26
380.143	0.28
380.35	0.29
380.557	0.25
380.763	0.24
380.97	0.34
381.177	0.31
381.384	0.28
381.591	0.19
381.797	0.28
382.004	0.37
382.211	0.29
382.418	0.23
382.624	0.3
382.831	0.34
383.038	0.23
383.244	0.27
383.451	0.27
383.658	0.31
383.864	0.3
384.071	0.19
384.277	0.37
384.484	0.26
384.69	0.36
384.897	0.27
385.103	0.26
385.31	0.27
385.516	0.26
385.723	0.24
385.929	0.3
386.136	0.26
386.342	0.33
386.549	0.28
386.755	0.36
386.961	0.33
387.168	0.24
387.374	0.29
387.58	0.34
387.787	0.28
387.993	0.3
388.199	0.3
388.406	0.28
388.612	0.27
388.818	0.24
389.024	0.23
389.231	0.33
389.437	0.39
389.643	0.34
389.849	0.29
390.055	0.27
390.261	0.28
390.467	0.35
390.674	0.27
390.88	0.31
391.086	0.38
391.292	0.22
391.498	0.35
391.704	0.37
391.91	0.29
392.116	0.27
392.322	0.22
392.528	0.33
392.734	0.3
392.94	0.34
393.146	0.26
393.352	0.31
393.557	0.3
393.763	0.29
393.969	0.39
394.175	0.32
394.381	0.34
394.587	0.27
394.792	0.28
394.998	0.39
395.204	0.33
395.41	0.24
395.615	0.33
395.821	0.37
396.027	0.32
396.233	0.28
396.438	0.37
396.644	0.38
396.85	0.36
397.055	0.26
397.261	0.35
397.466	0.4
397.672	0.36
397.878	0.36
398.083	0.39
398.289	0.33
398.494	0.39
398.7	0.4
398.905	0.31
399.111	0.47
399.316	0.29
399.522	0.31
399.727	0.31
399.932	0.31
400.138	0.31
400.343	0.38
400.549	0.3
400.754	0.32
400.959	0.41
401.165	0.38
401.37	0.34
401.575	0.33
401.78	0.38
401.986	0.31
402.191	0.36
402.396	0.39
402.601	0.43
402.807	0.41
403.012	0.39
403.217	0.47
403.422	0.39
403.627	0.42
403.832	0.35
404.037	0.48
404.243	0.41
404.448	0.39
404.653	0.42
404.858	0.47
405.063	0.47
405.268	0.38
405.473	0.37
405.678	0.41
405.883	0.67
406.088	0.55
406.293	0.42
406.498	0.49
406.703	0.54
406.907	0.46
407.112	0.48
407.317	0.54
407.522	0.6
407.727	0.5
407.932	0.55
408.136	0.65
408.341	0.55
408.546	0.57
408.751	0.54
408.956	0.57
409.16	0.71
409.365	0.58
409.57	0.64
409.774	0.62
409.979	0.72
410.184	0.71
410.388	0.61
410.593	0.79
410.798	0.74
411.002	0.74
411.207	0.83
411.411	0.74
411.616	0.78
411.82	0.83
412.025	0.87
412.229	0.83
412.434	1.01
412.638	0.96
412.843	0.89
413.047	1.04
413.252	0.98
413.456	1.04
413.66	1.05
413.865	1.08
414.069	1.18
414.273	1.13
414.478	1.18
414.682	1.22
414.886	1.21
415.091	1.19
415.295	1.3
415.499	1.47
415.703	1.41
415.908	1.47
416.112	1.35
416.316	1.59
416.52	1.63
416.724	1.59
416.929	1.66
417.133	1.94
417.337	1.8
417.541	1.88
417.745	1.89
417.949	2.01
418.153	2.07
418.357	2.05
418.561	2.36
418.765	2.26
418.969	2.47
419.173	2.51
419.377	2.47
419.581	2.78
419.785	2.68
419.989	2.68
420.193	2.86
420.397	2.91
420.601	3.07
420.804	3.18
421.008	3.2
421.212	3.34
421.416	3.35
421.62	3.32
421.823	3.4
422.027	3.55
422.231	3.63
422.435	3.56
422.638	3.63
422.842	3.82
423.046	3.88
423.249	4.09
423.453	4.06
423.657	4.22
423.86	4.37
424.064	4.42
424.268	4.62
424.471	4.54
424.675	4.89
424.878	4.92
425.082	4.92
425.285	5.29
425.489	5.17
425.692	5.4
425.896	5.34
426.099	5.64
426.303	5.7
426.506	5.85
426.71	6.1
426.913	6.32
427.116	6.47
427.32	6.5
427.523	6.54
427.726	6.89
427.93	6.95
428.133	7.33
428.336	7.24
428.54	7.47
428.743	7.88
428.946	8.04
429.149	8.05
429.353	8.05
429.556	8.13
429.759	8.25
429.962	8.37
430.165	8.43
430.368	8.13
430.571	8.15
430.775	8.24
430.978	8.2
431.181	8.27
431.384	8.33
431.587	8.46
431.79	8.86
431.993	8.71
432.196	9.03
432.399	9.43
432.602	9.56
432.805	9.61
433.008	10.15
433.211	10.07
433.414	10.48
433.616	10.49
433.819	10.47
434.022	10.65
434.225	10.76
434.428	10.69
434.631	11.21
434.833	10.98
435.036	11.3
435.239	11.49
435.442	11.51
435.645	11.64
435.847	11.71
436.05	12.11
436.253	12.3
436.455	12.33
436.658	12.11
436.861	12.65
437.063	12.64
437.266	12.58
437.468	12.96
437.671	13.33
437.874	13.29
438.076	13.05
438.279	13.64
438.481	13.63
438.684	14.46
438.886	14.11
439.089	14.32
439.291	14.29
439.494	14.63
439.696	14.84
439.899	15.37
440.101	15.73
440.303	16.07
440.506	16.74
440.708	16.39
440.91	16.76
441.113	16.95
441.315	17.09
441.517	16.84
441.72	17.34
441.922	17.02
442.124	16.83
442.326	17.37
442.529	17.53
442.731	17.61
442.933	17.93
443.135	17.7
443.337	17.77
443.539	18.2
443.742	17.74
443.944	18.46
444.146	18.16
444.348	18.3
444.55	17.98
444.752	18.25
444.954	18.19
445.156	18.17
445.358	18.49
445.56	18.78
445.762	18.64
445.964	18.84
446.166	18.71
446.368	18.63
446.57	18.68
446.772	18.22
446.974	17.97
447.175	18.34
447.377	17.93
447.579	18.48
447.781	18.11
447.983	17.81
448.184	17.37
448.386	17.75
448.588	17.19
448.79	17.1
448.991	17.69
449.193	17.52
449.395	16.88
449.597	16.52
449.798	16.33
450	15.79
450.202	15.84
450.403	15.8
450.605	15.66
450.806	15.36
451.008	15.27
451.21	14.97
451.411	14.4
451.613	13.68
451.814	13.92
452.016	13.95
452.217	13.11
452.419	13.23
452.62	12.92
452.821	12.51
453.023	12.42
453.224	12.11
453.426	11.65
453.627	10.92
453.828	11.18
454.03	11.12
454.231	11.14
454.432	10.91
454.634	10.71
454.835	10.38
455.036	10.3
455.238	9.83
455.439	9.75
455.64	9.36
455.841	9.23
456.042	9.46
456.244	9
456.445	8.69
456.646	8.47
456.847	8.48
457.048	8.31
457.249	8.34
457.45	8.23
457.651	7.58
457.852	7.53
458.054	7.17
458.255	7.08
458.456	7.22
458.657	7.05
458.858	6.56
459.058	6.63
459.259	6.6
459.46	6.35
459.661	6.34
459.862	6.4
460.063	6.21
460.264	6.3
460.465	5.89
460.666	6.01
460.866	5.79
461.067	5.41
461.268	5.54
461.469	5.49
461.67	5.28
461.87	5.18
462.071	5.14
462.272	5.03
462.473	5.05
462.673	5.18
462.874	5.1
463.075	5.09
463.275	4.99
463.476	5.03
463.676	5.04
463.877	4.91
464.078	4.96
464.278	4.87
464.479	4.73
464.679	4.71
464.88	4.68
465.08	4.66
465.281	4.49
465.481	4.23
465.682	4.11
465.882	4.12
466.083	4.08
466.283	3.97
466.483	3.94
466.684	3.66
466.884	3.62
467.085	3.63
467.285	3.71
467.485	3.6
467.686	3.53
467.886	3.35
468.086	3.31
468.286	3.32
468.487	3.44
468.687	3.19
468.887	3.17
469.087	3.33
469.287	3.26
469.488	3.03
469.688	3.18
469.888	3.14
470.088	3.07
470.288	3.02
470.488	3.08
470.688	2.82
470.888	2.85
471.088	2.7
471.288	2.76
471.488	2.73
471.688	2.74
471.888	2.64
472.088	2.85
472.288	2.73
472.488	2.61
472.688	2.54
472.888	2.58
473.088	2.59
473.288	2.47
473.488	2.44
473.688	2.61
473.887	2.46
474.087	2.39
474.287	2.39
474.487	2.32
474.687	2.38
474.886	2.33
475.086	2.28
475.286	2.35
475.486	2.27
475.685	2.2
475.885	2.16
476.085	2.3
476.284	2.26
476.484	2.26
476.684	2.24
476.883	2.26
477.083	2.18
477.282	2.1
477.482	2.11
477.681	2.19
477.881	2.06
478.08	2.06
478.28	2.03
478.479	2.09
478.679	2.18
478.878	2.06
479.078	2.01
479.277	2.06
479.477	2.03
479.676	1.98
479.875	1.97
480.075	1.94
480.274	2.02
480.473	2.02
480.673	2.02
480.872	2.09
481.071	2.07
481.271	2.03
481.47	1.98
481.669	2.07
481.868	1.99
482.067	1.95
482.267	1.93
482.466	1.93
482.665	1.93
482.864	1.9
483.063	1.9
483.262	2.03
483.461	2.04
483.661	2.06
483.86	1.95
484.059	2.04
484.258	2.03
484.457	2
484.656	2.01
484.855	2.07
485.054	1.9
485.253	1.95
485.452	1.95
485.651	2.05
485.849	2.02
486.048	1.99
486.247	1.97
486.446	2.12
486.645	2.06
486.844	2.09
487.043	2.04
487.241	2.09
487.44	2.06
487.639	2.14
487.838	2.13
488.037	2.13
488.235	2.21
488.434	2.17
488.633	2.06
488.831	2.22
489.03	2.21
489.229	2.21
489.427	2.22
489.626	2.3
489.825	2.28
490.023	2.31
490.222	2.25
490.42	2.28
490.619	2.4
490.817	2.36
491.016	2.35
491.214	2.43
491.413	2.43
491.611	2.39
491.81	2.42
492.008	2.47
492.207	2.56
492.405	2.5
492.604	2.46
492.802	2.51
493	2.59
493.199	2.61
493.397	2.67
493.595	2.69
493.794	2.67
493.992	2.75
494.19	2.72
494.388	2.82
494.587	2.75
494.785	2.8
494.983	2.7
495.181	2.85
495.379	2.86
495.578	2.94
495.776	2.95
495.974	2.94
496.172	2.96
496.37	3.08
496.568	3.13
496.766	3.09
496.964	3.15
497.162	3.21
497.36	3.2
497.558	3.24
497.756	3.28
497.954	3.28
498.152	3.38
498.35	3.44
498.548	3.36
498.746	3.37
498.944	3.42
499.142	3.44
499.34	3.5
499.538	3.65
499.736	3.55
499.933	3.64
500.131	3.63
500.329	3.8
500.527	3.76
500.725	3.91
500.922	3.89
501.12	3.88
501.318	3.91
501.516	3.94
501.713	4.01
501.911	4
502.109	3.96
502.306	4.1
502.504	4.02
