Data from Apollo_Calib_20240827__AbsoluteIrradiance__890__13-59-00-334.txt Node

Date: Wed Aug 28 13:59:00 BST 2024
User: biology
Spectrometer: FLMT08252
Trigger mode: 0
Integration Time (sec): 5.000000E-1
Scans to average: 5
Electric dark correction enabled: true
Nonlinearity correction enabled: false
Boxcar width: 0
XAxis mode: Wavelengths
Number of Pixels in Spectrum: 3648
>>>>>Begin Spectral Data<<<<<
179.588	-0
179.809	-0
180.03	-0
180.251	-0
180.473	-0
180.694	0
180.915	0
181.136	-0
181.357	-0
181.578	-0
181.799	0
182.02	-0
182.241	0
182.462	-0
182.683	0
182.904	-0
183.125	-0
183.346	0
183.567	0
183.788	0
184.009	0
184.23	0
184.451	0
184.672	0
184.892	0
185.113	0
185.334	0
185.555	0
185.776	0
185.996	0
186.217	0
186.438	0
186.659	0
186.879	0
187.1	0
187.321	0
187.541	0
187.762	0
187.983	0
188.203	0
188.424	0
188.644	0
188.865	0
189.086	0
189.306	0
189.527	0
189.747	0
189.968	0
190.188	0
190.409	0
190.629	0
190.849	0
191.07	0
191.29	0
191.511	0
191.731	0
191.951	0
192.172	0
192.392	0
192.612	0
192.833	0
193.053	0
193.273	0
193.493	0
193.714	0
193.934	0
194.154	0
194.374	0
194.594	0
194.815	0
195.035	0
195.255	0
195.475	0
195.695	0
195.915	0
196.135	0
196.355	0
196.575	0
196.795	0
197.015	0
197.235	0
197.455	0
197.675	0
197.895	0
198.115	0
198.335	0
198.555	0
198.775	0
198.995	0
199.214	0
199.434	0
199.654	0
199.874	0
200.094	4.17
200.313	2.21
200.533	2.09
200.753	1.57
200.973	3.29
201.192	3.45
201.412	1.24
201.632	1.55
201.851	3.19
202.071	1.8
202.291	1.44
202.51	1.08
202.73	3.09
202.95	1.74
203.169	1.51
203.389	1.7
203.608	1.85
203.828	1.49
204.047	1.43
204.267	1.74
204.486	2.33
204.706	2.4
204.925	2.2
205.145	1.52
205.364	2.31
205.583	2.74
205.803	1.36
206.022	1.13
206.242	1.63
206.461	1.65
206.68	1.32
206.9	1.64
207.119	2.83
207.338	2.45
207.557	1.2
207.777	1.1
207.996	1.35
208.215	2.23
208.434	1.21
208.654	0.74
208.873	1.48
209.092	1.89
209.311	1.16
209.53	1.11
209.749	1.18
209.968	0.93
210.187	1.1
210.407	0.51
210.626	1.1
210.845	1.95
211.064	1
211.283	0.75
211.502	1.75
211.721	1.26
211.94	0.85
212.159	1.27
212.377	1.5
212.596	1.69
212.815	1.34
213.034	1.22
213.253	1.46
213.472	1.1
213.691	0.9
213.91	0.68
214.128	0.71
214.347	1.35
214.566	0.5
214.785	0.39
215.003	1.16
215.222	1.25
215.441	0.89
215.66	0.61
215.878	0.83
216.097	1.12
216.316	0.63
216.534	0.83
216.753	1.19
216.972	0.93
217.19	0.79
217.409	0.65
217.627	0.89
217.846	0.87
218.064	0.93
218.283	0.75
218.501	1.53
218.72	1.18
218.938	0.4
219.157	0.53
219.375	1
219.594	1.03
219.812	0.44
220.031	0.41
220.249	1.23
220.467	1.23
220.686	0.54
220.904	0.53
221.122	0.62
221.341	1.24
221.559	0.79
221.777	0.59
221.995	0.77
222.214	0.98
222.432	0.7
222.65	0.89
222.868	0.76
223.086	0.88
223.305	0.88
223.523	0.67
223.741	1.21
223.959	0.87
224.177	0.47
224.395	0.48
224.613	0.92
224.831	1
225.049	0.47
225.267	0.55
225.485	0.84
225.703	0.63
225.921	0.57
226.139	0.45
226.357	0.99
226.575	0.91
226.793	0.38
227.011	1.65
227.229	0.82
227.447	0.85
227.665	0.56
227.883	0.46
228.1	0.64
228.318	0.78
228.536	0.24
228.754	0.46
228.972	0.88
229.189	0.63
229.407	0.5
229.625	0.62
229.843	0.88
230.06	0.76
230.278	0.5
230.496	0.61
230.713	0.76
230.931	0.87
231.149	0.43
231.366	0.35
231.584	0.63
231.801	1.01
232.019	0.5
232.236	0.29
232.454	0.41
232.671	0.81
232.889	0.48
233.106	0.32
233.324	0.49
233.541	0.5
233.759	0.46
233.976	0.4
234.194	0.48
234.411	0.54
234.628	0.36
234.846	0.44
235.063	0.49
235.28	0.6
235.498	0.52
235.715	0.25
235.932	0.85
236.149	0.52
236.367	0.42
236.584	0.5
236.801	0.4
237.018	0.62
237.236	0.52
237.453	0.27
237.67	0.69
237.887	0.52
238.104	0.53
238.321	0.34
238.538	0.33
238.755	0.69
238.973	0.26
239.19	0.45
239.407	0.47
239.624	0.53
239.841	0.35
240.058	0.4
240.275	0.54
240.492	0.47
240.709	0.44
240.925	0.4
241.142	0.55
241.359	0.39
241.576	0.29
241.793	0.31
242.01	0.45
242.227	0.72
242.444	0.53
242.66	0.57
242.877	0.6
243.094	0.44
243.311	0.42
243.527	0.41
243.744	0.49
243.961	0.53
244.178	0.38
244.394	0.47
244.611	0.59
244.828	0.79
245.044	0.29
245.261	0.35
245.477	0.48
245.694	0.51
245.911	0.32
246.127	0.41
246.344	0.77
246.56	0.52
246.777	0.35
246.993	0.43
247.21	0.55
247.426	0.49
247.643	0.31
247.859	0.36
248.076	0.35
248.292	0.68
248.508	0.44
248.725	0.5
248.941	0.47
249.157	0.69
249.374	0.34
249.59	0.39
249.806	0.43
250.023	0.57
250.239	0.37
250.455	0.39
250.671	0.37
250.888	0.46
251.104	0.49
251.32	0.33
251.536	0.38
251.752	0.39
251.969	0.43
252.185	0.41
252.401	0.72
252.617	0.3
252.833	0.3
253.049	0.39
253.265	0.48
253.481	0.42
253.697	0.25
253.913	0.3
254.129	0.49
254.345	0.41
254.561	0.3
254.777	0.38
254.993	0.47
255.209	0.41
255.425	0.39
255.641	0.23
255.857	0.5
256.073	0.51
256.288	0.27
256.504	0.27
256.72	0.47
256.936	0.57
257.152	0.4
257.367	0.33
257.583	0.37
257.799	0.61
258.015	0.27
258.23	0.31
258.446	0.55
258.662	0.4
258.877	0.29
259.093	0.29
259.309	0.41
259.524	0.45
259.74	0.32
259.955	0.25
260.171	0.4
260.387	0.35
260.602	0.4
260.818	0.39
261.033	0.29
261.249	0.45
261.464	0.29
261.68	0.23
261.895	0.5
262.11	0.42
262.326	0.31
262.541	0.22
262.757	0.45
262.972	0.46
263.187	0.39
263.403	0.3
263.618	0.47
263.833	0.4
264.049	0.21
264.264	0.37
264.479	0.34
264.694	0.47
264.91	0.19
265.125	0.39
265.34	0.44
265.555	0.62
265.77	0.37
265.986	0.29
266.201	0.41
266.416	0.49
266.631	0.32
266.846	0.33
267.061	0.51
267.276	0.38
267.491	0.19
267.706	0.3
267.921	0.42
268.136	0.37
268.351	0.34
268.566	0.2
268.781	0.46
268.996	0.49
269.211	0.27
269.426	0.32
269.641	0.31
269.856	0.42
270.071	0.24
270.285	0.16
270.5	0.44
270.715	0.48
270.93	0.34
271.145	0.39
271.359	0.48
271.574	0.34
271.789	0.2
272.004	0.23
272.218	0.31
272.433	0.4
272.648	0.28
272.862	0.45
273.077	0.36
273.292	0.35
273.506	0.25
273.721	0.28
273.936	0.51
274.15	0.39
274.365	0.27
274.579	0.37
274.794	0.44
275.008	0.37
275.223	0.2
275.437	0.34
275.652	0.41
275.866	0.34
276.081	0.31
276.295	0.36
276.509	0.37
276.724	0.4
276.938	0.32
277.153	0.33
277.367	0.41
277.581	0.25
277.796	0.26
278.01	0.24
278.224	0.34
278.438	0.48
278.653	0.26
278.867	0.25
279.081	0.16
279.295	0.26
279.51	0.3
279.724	0.2
279.938	0.37
280.152	0.37
280.366	0.29
280.58	0.29
280.794	0.49
281.008	0.36
281.222	0.35
281.437	0.49
281.651	0.36
281.865	0.42
282.079	0.31
282.293	0.17
282.507	0.26
282.721	0.32
282.935	0.29
283.148	0.17
283.362	0.28
283.576	0.21
283.79	0.25
284.004	0.23
284.218	0.36
284.432	0.27
284.646	0.32
284.859	0.28
285.073	0.29
285.287	0.31
285.501	0.3
285.714	0.3
285.928	0.27
286.142	0.28
286.356	0.23
286.569	0.23
286.783	0.44
286.997	0.38
287.21	0.28
287.424	0.34
287.637	0.29
287.851	0.24
288.065	0.31
288.278	0.25
288.492	0.33
288.705	0.31
288.919	0.31
289.132	0.2
289.346	0.38
289.559	0.19
289.773	0.2
289.986	0.23
290.2	0.28
290.413	0.38
290.626	0.28
290.84	0.26
291.053	0.29
291.267	0.38
291.48	0.24
291.693	0.21
291.906	0.24
292.12	0.31
292.333	0.21
292.546	0.27
292.76	0.39
292.973	0.35
293.186	0.34
293.399	0.24
293.612	0.37
293.826	0.3
294.039	0.3
294.252	0.27
294.465	0.35
294.678	0.31
294.891	0.26
295.104	0.22
295.317	0.26
295.53	0.31
295.743	0.27
295.956	0.29
296.169	0.38
296.382	0.31
296.595	0.27
296.808	0.25
297.021	0.37
297.234	0.34
297.447	0.29
297.66	0.31
297.873	0.37
298.086	0.35
298.299	0.22
298.511	0.17
298.724	0.27
298.937	0.22
299.15	0.23
299.363	0.22
299.575	0.3
299.788	0.27
300.001	0.21
300.213	0.2
300.426	0.28
300.639	0.22
300.852	0.21
301.064	0.26
301.277	0.39
301.489	0.29
301.702	0.29
301.915	0.27
302.127	0.23
302.34	0.28
302.552	0.28
302.765	0.14
302.977	0.3
303.19	0.22
303.402	0.21
303.615	0.23
303.827	0.28
304.04	0.26
304.252	0.3
304.464	0.27
304.677	0.41
304.889	0.35
305.102	0.24
305.314	0.21
305.526	0.27
305.739	0.32
305.951	0.23
306.163	0.22
306.375	0.38
306.588	0.26
306.8	0.19
307.012	0.18
307.224	0.26
307.436	0.33
307.649	0.18
307.861	0.24
308.073	0.32
308.285	0.25
308.497	0.18
308.709	0.2
308.921	0.27
309.133	0.3
309.346	0.21
309.558	0.2
309.77	0.32
309.982	0.37
310.194	0.25
310.406	0.2
310.617	0.39
310.829	0.28
311.041	0.33
311.253	0.2
311.465	0.25
311.677	0.27
311.889	0.29
312.101	0.23
312.313	0.31
312.524	0.36
312.736	0.17
312.948	0.22
313.16	0.36
313.372	0.28
313.583	0.3
313.795	0.23
314.007	0.22
314.218	0.32
314.43	0.27
314.642	0.23
314.853	0.19
315.065	0.31
315.277	0.25
315.488	0.25
315.7	0.35
315.912	0.34
316.123	0.24
316.335	0.24
316.546	0.38
316.758	0.24
316.969	0.2
317.181	0.24
317.392	0.25
317.604	0.34
317.815	0.2
318.026	0.19
318.238	0.25
318.449	0.25
318.661	0.13
318.872	0.16
319.083	0.22
319.295	0.31
319.506	0.2
319.717	0.28
319.929	0.33
320.14	0.28
320.351	0.24
320.562	0.17
320.774	0.28
320.985	0.23
321.196	0.23
321.407	0.17
321.618	0.28
321.829	0.33
322.041	0.27
322.252	0.26
322.463	0.3
322.674	0.31
322.885	0.22
323.096	0.22
323.307	0.26
323.518	0.28
323.729	0.2
323.94	0.27
324.151	0.27
324.362	0.29
324.573	0.28
324.784	0.22
324.995	0.31
325.206	0.3
325.417	0.23
325.628	0.23
325.838	0.27
326.049	0.26
326.26	0.32
326.471	0.22
326.682	0.25
326.892	0.24
327.103	0.19
327.314	0.19
327.525	0.35
327.735	0.29
327.946	0.26
328.157	0.18
328.368	0.33
328.578	0.3
328.789	0.32
328.999	0.29
329.21	0.24
329.421	0.33
329.631	0.24
329.842	0.2
330.052	0.24
330.263	0.34
330.473	0.29
330.684	0.23
330.894	0.29
331.105	0.31
331.315	0.28
331.526	0.15
331.736	0.37
331.947	0.28
332.157	0.26
332.367	0.2
332.578	0.32
332.788	0.31
332.999	0.28
333.209	0.29
333.419	0.19
333.629	0.31
333.84	0.31
334.05	0.27
334.26	0.38
334.47	0.27
334.681	0.3
334.891	0.23
335.101	0.3
335.311	0.38
335.521	0.21
335.732	0.22
335.942	0.34
336.152	0.3
336.362	0.24
336.572	0.27
336.782	0.31
336.992	0.24
337.202	0.26
337.412	0.24
337.622	0.27
337.832	0.28
338.042	0.22
338.252	0.24
338.462	0.21
338.672	0.26
338.882	0.29
339.092	0.23
339.302	0.37
339.511	0.3
339.721	0.23
339.931	0.16
340.141	0.33
340.351	0.3
340.561	0.29
340.77	0.24
340.98	0.28
341.19	0.26
341.4	0.29
341.609	0.13
341.819	0.22
342.029	0.21
342.238	0.22
342.448	0.21
342.658	0.3
342.867	0.22
343.077	0.3
343.286	0.25
343.496	0.28
343.706	0.32
343.915	0.16
344.125	0.27
344.334	0.29
344.544	0.19
344.753	0.21
344.963	0.25
345.172	0.22
345.381	0.23
345.591	0.2
345.8	0.19
346.01	0.34
346.219	0.34
346.428	0.24
346.638	0.22
346.847	0.24
347.056	0.34
347.266	0.22
347.475	0.23
347.684	0.28
347.893	0.3
348.103	0.31
348.312	0.21
348.521	0.27
348.73	0.29
348.94	0.26
349.149	0.22
349.358	0.21
349.567	0.24
349.776	0.14
349.985	0.24
350.194	0.33
350.403	0.35
350.612	0.13
350.821	0.17
351.03	0.24
351.239	0.2
351.448	0.29
351.657	0.22
351.866	0.3
352.075	0.25
352.284	0.34
352.493	0.2
352.702	0.28
352.911	0.3
353.12	0.27
353.329	0.25
353.538	0.28
353.746	0.28
353.955	0.19
354.164	0.28
354.373	0.25
354.582	0.31
354.79	0.25
354.999	0.26
355.208	0.26
355.416	0.33
355.625	0.18
355.834	0.19
356.042	0.29
356.251	0.22
356.46	0.19
356.668	0.25
356.877	0.36
357.085	0.3
357.294	0.17
357.503	0.26
357.711	0.25
357.92	0.43
358.128	0.28
358.337	0.19
358.545	0.26
358.754	0.21
358.962	0.3
359.17	0.23
359.379	0.23
359.587	0.29
359.796	0.25
360.004	0.27
360.212	0.27
360.421	0.3
360.629	0.24
360.837	0.25
361.046	0.32
361.254	0.39
361.462	0.22
361.67	0.24
361.879	0.29
362.087	0.33
362.295	0.24
362.503	0.22
362.711	0.22
362.92	0.23
363.128	0.21
363.336	0.2
363.544	0.2
363.752	0.21
363.96	0.22
364.168	0.23
364.376	0.26
364.584	0.25
364.792	0.34
365	0.31
365.208	0.27
365.416	0.33
365.624	0.27
365.832	0.23
366.04	0.32
366.248	0.26
366.456	0.26
366.664	0.26
366.872	0.27
367.079	0.26
367.287	0.24
367.495	0.24
367.703	0.26
367.911	0.21
368.118	0.24
368.326	0.24
368.534	0.18
368.742	0.35
368.949	0.19
369.157	0.22
369.365	0.28
369.572	0.22
369.78	0.19
369.988	0.26
370.195	0.29
370.403	0.31
370.61	0.22
370.818	0.26
371.026	0.38
371.233	0.22
371.441	0.23
371.648	0.23
371.856	0.3
372.063	0.3
372.271	0.24
372.478	0.23
372.685	0.22
372.893	0.3
373.1	0.23
373.308	0.23
373.515	0.37
373.722	0.34
373.93	0.26
374.137	0.29
374.344	0.35
374.552	0.3
374.759	0.29
374.966	0.24
375.173	0.26
375.381	0.34
375.588	0.22
375.795	0.18
376.002	0.28
376.209	0.24
376.417	0.24
376.624	0.26
376.831	0.32
377.038	0.29
377.245	0.17
377.452	0.23
377.659	0.3
377.866	0.25
378.073	0.25
378.28	0.28
378.487	0.33
378.694	0.34
378.901	0.25
379.108	0.25
379.315	0.32
379.522	0.35
379.729	0.26
379.936	0.27
380.143	0.26
380.35	0.26
380.557	0.26
380.763	0.25
380.97	0.26
381.177	0.34
381.384	0.29
381.591	0.23
381.797	0.32
382.004	0.33
382.211	0.31
382.418	0.23
382.624	0.33
382.831	0.35
383.038	0.24
383.244	0.29
383.451	0.26
383.658	0.31
383.864	0.27
384.071	0.23
384.277	0.36
384.484	0.24
384.69	0.32
384.897	0.25
385.103	0.28
385.31	0.21
385.516	0.22
385.723	0.24
385.929	0.26
386.136	0.27
386.342	0.33
386.549	0.27
386.755	0.33
386.961	0.33
387.168	0.24
387.374	0.3
387.58	0.31
387.787	0.24
387.993	0.3
388.199	0.23
388.406	0.23
388.612	0.3
388.818	0.29
389.024	0.27
389.231	0.29
389.437	0.39
389.643	0.3
389.849	0.27
390.055	0.3
390.261	0.29
390.467	0.33
390.674	0.22
390.88	0.31
391.086	0.32
391.292	0.28
391.498	0.39
391.704	0.37
391.91	0.27
392.116	0.26
392.322	0.24
392.528	0.36
392.734	0.3
392.94	0.35
393.146	0.3
393.352	0.34
393.557	0.25
393.763	0.26
393.969	0.38
394.175	0.32
394.381	0.31
394.587	0.26
394.792	0.35
394.998	0.35
395.204	0.39
395.41	0.28
395.615	0.33
395.821	0.35
396.027	0.32
396.233	0.26
396.438	0.38
396.644	0.38
396.85	0.39
397.055	0.3
397.261	0.28
397.466	0.32
397.672	0.3
397.878	0.4
398.083	0.35
398.289	0.35
398.494	0.37
398.7	0.42
398.905	0.24
399.111	0.47
399.316	0.3
399.522	0.34
399.727	0.3
399.932	0.35
400.138	0.33
400.343	0.36
400.549	0.33
400.754	0.31
400.959	0.36
401.165	0.35
401.37	0.39
401.575	0.34
401.78	0.34
401.986	0.36
402.191	0.37
402.396	0.37
402.601	0.42
402.807	0.41
403.012	0.37
403.217	0.5
403.422	0.43
403.627	0.44
403.832	0.4
404.037	0.49
404.243	0.45
404.448	0.4
404.653	0.39
404.858	0.48
405.063	0.49
405.268	0.46
405.473	0.41
405.678	0.45
405.883	0.66
406.088	0.5
406.293	0.41
406.498	0.41
406.703	0.53
406.907	0.47
407.112	0.44
407.317	0.52
407.522	0.53
407.727	0.44
407.932	0.57
408.136	0.7
408.341	0.54
408.546	0.61
408.751	0.58
408.956	0.58
409.16	0.67
409.365	0.63
409.57	0.57
409.774	0.58
409.979	0.7
410.184	0.67
410.388	0.59
410.593	0.81
410.798	0.7
411.002	0.71
411.207	0.79
411.411	0.77
411.616	0.81
411.82	0.8
412.025	0.82
412.229	0.81
412.434	0.97
412.638	0.92
412.843	0.85
413.047	0.97
413.252	0.89
413.456	0.96
413.66	1.04
413.865	1.04
414.069	1.21
414.273	1.1
414.478	1.11
414.682	1.15
414.886	1.25
415.091	1.14
415.295	1.2
415.499	1.46
415.703	1.33
415.908	1.46
416.112	1.34
416.316	1.54
416.52	1.54
416.724	1.54
416.929	1.63
417.133	1.82
417.337	1.72
417.541	1.8
417.745	1.79
417.949	1.91
418.153	2.03
418.357	1.97
418.561	2.22
418.765	2.21
418.969	2.34
419.173	2.41
419.377	2.38
419.581	2.59
419.785	2.56
419.989	2.63
420.193	2.76
420.397	2.92
420.601	2.97
420.804	3.09
421.008	3.03
421.212	3.24
421.416	3.29
421.62	3.17
421.823	3.27
422.027	3.53
422.231	3.46
422.435	3.41
422.638	3.46
422.842	3.62
423.046	3.7
423.249	3.92
423.453	3.91
423.657	4.03
423.86	4.13
424.064	4.26
424.268	4.43
424.471	4.42
424.675	4.59
424.878	4.67
425.082	4.76
425.285	5.09
425.489	5.05
425.692	5.17
425.896	5.21
426.099	5.38
426.303	5.5
426.506	5.57
426.71	5.92
426.913	6.19
427.116	6.26
427.32	6.23
427.523	6.4
427.726	6.71
427.93	6.68
428.133	6.97
428.336	7.14
428.54	7.24
428.743	7.67
428.946	7.74
429.149	7.78
429.353	7.74
429.556	7.82
429.759	7.96
429.962	8.08
430.165	8.34
430.368	7.88
430.571	7.98
430.775	8.02
430.978	7.89
431.181	8.05
431.384	8.16
431.587	8.24
431.79	8.65
431.993	8.55
432.196	8.94
432.399	9.18
432.602	9.4
432.805	9.41
433.008	9.97
433.211	9.91
433.414	10.21
433.616	10.2
433.819	10.13
434.022	10.4
434.225	10.52
434.428	10.54
434.631	10.99
434.833	10.67
435.036	10.96
435.239	11.31
435.442	11.37
435.645	11.36
435.847	11.39
436.05	11.84
436.253	12.01
436.455	12.13
436.658	11.96
436.861	12.22
437.063	12.35
437.266	12.3
437.468	12.73
437.671	13
437.874	12.99
438.076	12.72
438.279	13.38
438.481	13.47
438.684	14.17
438.886	13.67
439.089	14.1
439.291	14.05
439.494	14.45
439.696	14.67
439.899	15.08
440.101	15.59
440.303	15.67
440.506	16.5
440.708	16.1
440.91	16.36
441.113	16.6
441.315	16.82
441.517	16.66
441.72	17.19
441.922	16.71
442.124	16.74
442.326	17.06
442.529	17.35
442.731	17.25
442.933	17.73
443.135	17.31
443.337	17.31
443.539	18.02
443.742	17.56
443.944	18.18
444.146	17.99
444.348	18.01
444.55	17.85
444.752	17.95
444.954	18.09
445.156	17.88
445.358	18.32
445.56	18.54
445.762	18.34
445.964	18.67
446.166	18.63
446.368	18.48
446.57	18.54
446.772	18.08
446.974	18.04
447.175	18.26
447.377	18.05
447.579	18.44
447.781	17.98
447.983	17.8
448.184	17.25
448.386	17.65
448.588	17.23
448.79	17.18
448.991	17.47
449.193	17.46
449.395	16.77
449.597	16.23
449.798	16.28
450	15.87
450.202	15.88
450.403	15.85
450.605	15.73
450.806	15.48
451.008	15.34
451.21	15.09
451.411	14.67
451.613	13.86
451.814	14.11
452.016	14.01
452.217	13.49
452.419	13.35
452.62	12.97
452.821	12.68
453.023	12.63
453.224	12.35
453.426	11.83
453.627	11.22
453.828	11.28
454.03	11.41
454.231	11.35
454.432	11.1
454.634	11.01
454.835	10.5
455.036	10.5
455.238	10.13
455.439	9.91
455.64	9.65
455.841	9.41
456.042	9.61
456.244	9.3
456.445	8.98
456.646	8.72
456.847	8.63
457.048	8.6
457.249	8.62
457.45	8.38
457.651	7.8
457.852	7.71
458.054	7.24
458.255	7.35
458.456	7.34
458.657	7.26
458.858	6.73
459.058	6.73
459.259	6.89
459.46	6.47
459.661	6.5
459.862	6.55
460.063	6.33
460.264	6.36
460.465	6
460.666	6.04
460.866	5.82
461.067	5.62
461.268	5.63
461.469	5.54
461.67	5.49
461.87	5.22
462.071	5.35
462.272	5.18
462.473	5.12
462.673	5.35
462.874	5.14
463.075	5.23
463.275	5.14
463.476	5.17
463.676	5.14
463.877	5
464.078	5.08
464.278	5.05
464.479	4.94
464.679	4.81
464.88	4.78
465.08	4.79
465.281	4.53
465.481	4.38
465.682	4.15
465.882	4.28
466.083	4.11
466.283	4.05
466.483	3.91
466.684	3.75
466.884	3.65
467.085	3.75
467.285	3.84
467.485	3.62
467.686	3.63
467.886	3.42
468.086	3.48
468.286	3.43
468.487	3.45
468.687	3.23
468.887	3.35
469.087	3.42
469.287	3.28
469.488	3.12
469.688	3.27
469.888	3.21
470.088	3.16
470.288	3.08
470.488	3.06
470.688	2.91
470.888	2.86
471.088	2.69
471.288	2.88
471.488	2.83
471.688	2.79
471.888	2.7
472.088	2.9
472.288	2.74
472.488	2.62
472.688	2.6
472.888	2.63
473.088	2.63
473.288	2.47
473.488	2.44
473.688	2.64
473.887	2.5
474.087	2.43
474.287	2.48
474.487	2.43
474.687	2.43
474.886	2.35
475.086	2.34
475.286	2.36
475.486	2.32
475.685	2.28
475.885	2.22
476.085	2.33
476.284	2.36
476.484	2.25
476.684	2.27
476.883	2.33
477.083	2.22
477.282	2.12
477.482	2.24
477.681	2.16
477.881	2.11
478.08	2.09
478.28	2.06
478.479	2.13
478.679	2.15
478.878	2.07
479.078	2.05
479.277	2.13
479.477	2.07
479.676	2.08
479.875	2.06
480.075	1.97
480.274	2.05
480.473	2.07
480.673	2.04
480.872	2.09
481.071	2.09
481.271	2.07
481.47	2
481.669	2.05
481.868	1.98
482.067	2.03
482.267	1.95
482.466	1.95
482.665	1.98
482.864	1.92
483.063	1.93
483.262	2.04
483.461	2.05
483.661	2.06
483.86	2.05
484.059	2.09
484.258	2.03
484.457	2.03
484.656	2.04
484.855	2.15
485.054	1.91
485.253	2.01
485.452	1.97
485.651	2.06
485.849	2.02
486.048	2.03
486.247	2.02
486.446	2.09
486.645	2.06
486.844	2.1
487.043	2.05
487.241	2.1
487.44	2.05
487.639	2.14
487.838	2.17
488.037	2.12
488.235	2.25
488.434	2.15
488.633	2.04
488.831	2.23
489.03	2.23
489.229	2.24
489.427	2.2
489.626	2.3
489.825	2.28
490.023	2.32
490.222	2.24
490.42	2.37
490.619	2.4
490.817	2.36
491.016	2.36
491.214	2.44
491.413	2.47
491.611	2.38
491.81	2.41
492.008	2.45
492.207	2.56
492.405	2.55
492.604	2.52
492.802	2.58
493	2.61
493.199	2.62
493.397	2.66
493.595	2.72
493.794	2.69
493.992	2.74
494.19	2.74
494.388	2.84
494.587	2.78
494.785	2.82
494.983	2.7
495.181	2.9
495.379	2.91
495.578	2.97
495.776	2.91
495.974	2.9
496.172	3
496.37	3.08
496.568	3.05
496.766	3.08
496.964	3.2
497.162	3.21
497.36	3.2
497.558	3.28
497.756	3.32
497.954	3.29
498.152	3.38
498.35	3.45
498.548	3.39
498.746	3.39
498.944	3.42
499.142	3.45
499.34	3.57
499.538	3.64
499.736	3.49
499.933	3.66
500.131	3.65
500.329	3.77
500.527	3.75
500.725	3.88
500.922	3.91
501.12	3.89
501.318	3.96
501.516	3.93
501.713	4.05
501.911	4
502.109	3.97
502.306	4.12
502.504	4.02
502.701	4.08
502.899	4.16
