Data from Apollo_Calib_20240827__AbsoluteIrradiance__803__12-32-01-333.txt Node

Date: Wed Aug 28 12:32:01 BST 2024
User: biology
Spectrometer: FLMT08252
Trigger mode: 0
Integration Time (sec): 5.000000E-1
Scans to average: 5
Electric dark correction enabled: true
Nonlinearity correction enabled: false
Boxcar width: 0
XAxis mode: Wavelengths
Number of Pixels in Spectrum: 3648
>>>>>Begin Spectral Data<<<<<
179.588	-0
179.809	-0
180.03	-0
180.251	-0
180.473	-0
180.694	0
180.915	0
181.136	-0
181.357	0
181.578	0
181.799	-0
182.02	-0
182.241	-0
182.462	-0
182.683	0
182.904	-0
183.125	-0
183.346	0
183.567	0
183.788	0
184.009	0
184.23	0
184.451	0
184.672	0
184.892	0
185.113	0
185.334	0
185.555	0
185.776	0
185.996	0
186.217	0
186.438	0
186.659	0
186.879	0
187.1	0
187.321	0
187.541	0
187.762	0
187.983	0
188.203	0
188.424	0
188.644	0
188.865	0
189.086	0
189.306	0
189.527	0
189.747	0
189.968	0
190.188	0
190.409	0
190.629	0
190.849	0
191.07	0
191.29	0
191.511	0
191.731	0
191.951	0
192.172	0
192.392	0
192.612	0
192.833	0
193.053	0
193.273	0
193.493	0
193.714	0
193.934	0
194.154	0
194.374	0
194.594	0
194.815	0
195.035	0
195.255	0
195.475	0
195.695	0
195.915	0
196.135	0
196.355	0
196.575	0
196.795	0
197.015	0
197.235	0
197.455	0
197.675	0
197.895	0
198.115	0
198.335	0
198.555	0
198.775	0
198.995	0
199.214	0
199.434	0
199.654	0
199.874	0
200.094	4.23
200.313	2.79
200.533	2.02
200.753	1.36
200.973	3.91
201.192	4.11
201.412	1.7
201.632	1.98
201.851	3.17
202.071	1.9
202.291	1.52
202.51	0.96
202.73	2.2
202.95	1.61
203.169	1.46
203.389	1.99
203.608	1.98
203.828	1.41
204.047	1.51
204.267	2.36
204.486	2.14
204.706	2.28
204.925	1.76
205.145	1.48
205.364	2.22
205.583	2.75
205.803	1.29
206.022	1.2
206.242	1.69
206.461	1.31
206.68	1.34
206.9	1.5
207.119	2.42
207.338	2.31
207.557	1.22
207.777	1.19
207.996	1.31
208.215	1.91
208.434	1.22
208.654	0.8
208.873	1.07
209.092	2.32
209.311	1.22
209.53	0.92
209.749	1.17
209.968	1.01
210.187	1.37
210.407	0.82
210.626	1.01
210.845	1.63
211.064	0.93
211.283	0.86
211.502	1.65
211.721	1.11
211.94	0.91
212.159	1.37
212.377	1.38
212.596	1.73
212.815	1.33
213.034	1.29
213.253	1.39
213.472	1.29
213.691	0.93
213.91	0.85
214.128	0.8
214.347	1.63
214.566	0.49
214.785	0.68
215.003	1.3
215.222	1.27
215.441	0.96
215.66	0.38
215.878	0.98
216.097	1.29
216.316	0.94
216.534	0.74
216.753	1.11
216.972	0.8
217.19	0.83
217.409	0.64
217.627	0.73
217.846	0.88
218.064	1
218.283	0.33
218.501	1.26
218.72	1.24
218.938	0.61
219.157	0.83
219.375	1.08
219.594	0.94
219.812	0.54
220.031	0.6
220.249	1.13
220.467	1.19
220.686	0.72
220.904	0.53
221.122	0.57
221.341	1.39
221.559	0.83
221.777	0.34
221.995	0.88
222.214	0.96
222.432	0.61
222.65	0.87
222.868	0.8
223.086	0.79
223.305	0.84
223.523	0.61
223.741	1.27
223.959	0.64
224.177	0.39
224.395	0.6
224.613	0.73
224.831	0.85
225.049	0.57
225.267	0.55
225.485	0.62
225.703	0.58
225.921	0.72
226.139	0.52
226.357	0.76
226.575	0.76
226.793	0.58
227.011	1.41
227.229	0.76
227.447	0.9
227.665	0.52
227.883	0.37
228.1	0.71
228.318	0.85
228.536	0.29
228.754	0.48
228.972	0.74
229.189	0.84
229.407	0.49
229.625	0.57
229.843	0.94
230.06	0.76
230.278	0.53
230.496	0.58
230.713	0.72
230.931	0.77
231.149	0.45
231.366	0.33
231.584	0.46
231.801	1.11
232.019	0.56
232.236	0.4
232.454	0.61
232.671	0.62
232.889	0.5
233.106	0.48
233.324	0.73
233.541	0.48
233.759	0.59
233.976	0.44
234.194	0.62
234.411	0.52
234.628	0.46
234.846	0.45
235.063	0.52
235.28	0.55
235.498	0.59
235.715	0.38
235.932	0.76
236.149	0.53
236.367	0.42
236.584	0.47
236.801	0.52
237.018	0.64
237.236	0.46
237.453	0.29
237.67	0.57
237.887	0.52
238.104	0.47
238.321	0.41
238.538	0.34
238.755	0.66
238.973	0.31
239.19	0.55
239.407	0.6
239.624	0.5
239.841	0.37
240.058	0.37
240.275	0.57
240.492	0.48
240.709	0.42
240.925	0.31
241.142	0.51
241.359	0.38
241.576	0.32
241.793	0.44
242.01	0.47
242.227	0.67
242.444	0.44
242.66	0.64
242.877	0.6
243.094	0.4
243.311	0.41
243.527	0.44
243.744	0.5
243.961	0.5
244.178	0.35
244.394	0.5
244.611	0.54
244.828	0.67
245.044	0.42
245.261	0.42
245.477	0.45
245.694	0.66
245.911	0.41
246.127	0.48
246.344	0.57
246.56	0.53
246.777	0.36
246.993	0.37
247.21	0.48
247.426	0.53
247.643	0.34
247.859	0.25
248.076	0.32
248.292	0.61
248.508	0.32
248.725	0.42
248.941	0.54
249.157	0.62
249.374	0.34
249.59	0.42
249.806	0.5
250.023	0.49
250.239	0.39
250.455	0.27
250.671	0.39
250.888	0.45
251.104	0.5
251.32	0.39
251.536	0.4
251.752	0.41
251.969	0.43
252.185	0.35
252.401	0.65
252.617	0.49
252.833	0.38
253.049	0.38
253.265	0.34
253.481	0.39
253.697	0.38
253.913	0.29
254.129	0.42
254.345	0.53
254.561	0.39
254.777	0.37
254.993	0.44
255.209	0.4
255.425	0.35
255.641	0.31
255.857	0.45
256.073	0.53
256.288	0.29
256.504	0.31
256.72	0.47
256.936	0.57
257.152	0.35
257.367	0.33
257.583	0.42
257.799	0.43
258.015	0.3
258.23	0.4
258.446	0.65
258.662	0.34
258.877	0.34
259.093	0.33
259.309	0.32
259.524	0.49
259.74	0.37
259.955	0.23
260.171	0.42
260.387	0.38
260.602	0.44
260.818	0.4
261.033	0.34
261.249	0.43
261.464	0.27
261.68	0.28
261.895	0.45
262.11	0.43
262.326	0.36
262.541	0.29
262.757	0.51
262.972	0.44
263.187	0.37
263.403	0.39
263.618	0.47
263.833	0.42
264.049	0.33
264.264	0.33
264.479	0.39
264.694	0.5
264.91	0.28
265.125	0.34
265.34	0.48
265.555	0.57
265.77	0.37
265.986	0.32
266.201	0.44
266.416	0.51
266.631	0.31
266.846	0.32
267.061	0.45
267.276	0.44
267.491	0.16
267.706	0.38
267.921	0.44
268.136	0.4
268.351	0.34
268.566	0.21
268.781	0.5
268.996	0.42
269.211	0.37
269.426	0.28
269.641	0.28
269.856	0.43
270.071	0.29
270.285	0.24
270.5	0.46
270.715	0.39
270.93	0.3
271.145	0.34
271.359	0.43
271.574	0.29
271.789	0.35
272.004	0.3
272.218	0.37
272.433	0.39
272.648	0.27
272.862	0.41
273.077	0.38
273.292	0.32
273.506	0.29
273.721	0.29
273.936	0.36
274.15	0.4
274.365	0.31
274.579	0.36
274.794	0.38
275.008	0.36
275.223	0.19
275.437	0.26
275.652	0.39
275.866	0.38
276.081	0.33
276.295	0.4
276.509	0.28
276.724	0.32
276.938	0.3
277.153	0.32
277.367	0.41
277.581	0.28
277.796	0.31
278.01	0.26
278.224	0.4
278.438	0.51
278.653	0.28
278.867	0.28
279.081	0.14
279.295	0.28
279.51	0.38
279.724	0.22
279.938	0.35
280.152	0.33
280.366	0.25
280.58	0.3
280.794	0.42
281.008	0.33
281.222	0.35
281.437	0.47
281.651	0.35
281.865	0.4
282.079	0.31
282.293	0.15
282.507	0.27
282.721	0.31
282.935	0.26
283.148	0.19
283.362	0.3
283.576	0.23
283.79	0.33
284.004	0.24
284.218	0.44
284.432	0.3
284.646	0.28
284.859	0.19
285.073	0.28
285.287	0.33
285.501	0.34
285.714	0.26
285.928	0.33
286.142	0.3
286.356	0.24
286.569	0.24
286.783	0.41
286.997	0.36
287.21	0.27
287.424	0.27
287.637	0.29
287.851	0.28
288.065	0.32
288.278	0.26
288.492	0.33
288.705	0.28
288.919	0.39
289.132	0.2
289.346	0.37
289.559	0.21
289.773	0.23
289.986	0.25
290.2	0.29
290.413	0.37
290.626	0.21
290.84	0.24
291.053	0.31
291.267	0.42
291.48	0.27
291.693	0.24
291.906	0.2
292.12	0.31
292.333	0.26
292.546	0.24
292.76	0.36
292.973	0.32
293.186	0.31
293.399	0.25
293.612	0.33
293.826	0.33
294.039	0.25
294.252	0.22
294.465	0.34
294.678	0.3
294.891	0.29
295.104	0.24
295.317	0.21
295.53	0.3
295.743	0.27
295.956	0.24
296.169	0.41
296.382	0.35
296.595	0.25
296.808	0.26
297.021	0.42
297.234	0.33
297.447	0.24
297.66	0.35
297.873	0.31
298.086	0.35
298.299	0.22
298.511	0.17
298.724	0.28
298.937	0.18
299.15	0.18
299.363	0.25
299.575	0.33
299.788	0.3
300.001	0.19
300.213	0.27
300.426	0.27
300.639	0.21
300.852	0.17
301.064	0.31
301.277	0.37
301.489	0.34
301.702	0.26
301.915	0.28
302.127	0.31
302.34	0.29
302.552	0.26
302.765	0.21
302.977	0.35
303.19	0.19
303.402	0.23
303.615	0.25
303.827	0.27
304.04	0.23
304.252	0.29
304.464	0.24
304.677	0.38
304.889	0.29
305.102	0.18
305.314	0.17
305.526	0.29
305.739	0.32
305.951	0.22
306.163	0.22
306.375	0.36
306.588	0.21
306.8	0.23
307.012	0.19
307.224	0.3
307.436	0.33
307.649	0.17
307.861	0.27
308.073	0.3
308.285	0.25
308.497	0.19
308.709	0.19
308.921	0.3
309.133	0.3
309.346	0.22
309.558	0.26
309.77	0.3
309.982	0.38
310.194	0.29
310.406	0.22
310.617	0.39
310.829	0.27
311.041	0.24
311.253	0.2
311.465	0.27
311.677	0.26
311.889	0.28
312.101	0.21
312.313	0.31
312.524	0.37
312.736	0.2
312.948	0.24
313.16	0.36
313.372	0.32
313.583	0.27
313.795	0.23
314.007	0.25
314.218	0.35
314.43	0.23
314.642	0.25
314.853	0.19
315.065	0.35
315.277	0.24
315.488	0.3
315.7	0.32
315.912	0.31
316.123	0.26
316.335	0.26
316.546	0.38
316.758	0.26
316.969	0.23
317.181	0.25
317.392	0.28
317.604	0.33
317.815	0.28
318.026	0.2
318.238	0.23
318.449	0.24
318.661	0.2
318.872	0.19
319.083	0.2
319.295	0.32
319.506	0.2
319.717	0.26
319.929	0.27
320.14	0.24
320.351	0.27
320.562	0.21
320.774	0.3
320.985	0.3
321.196	0.19
321.407	0.17
321.618	0.31
321.829	0.28
322.041	0.27
322.252	0.25
322.463	0.3
322.674	0.33
322.885	0.17
323.096	0.23
323.307	0.23
323.518	0.3
323.729	0.22
323.94	0.21
324.151	0.24
324.362	0.31
324.573	0.25
324.784	0.24
324.995	0.32
325.206	0.31
325.417	0.27
325.628	0.23
325.838	0.25
326.049	0.29
326.26	0.34
326.471	0.23
326.682	0.27
326.892	0.25
327.103	0.17
327.314	0.21
327.525	0.33
327.735	0.31
327.946	0.27
328.157	0.2
328.368	0.3
328.578	0.25
328.789	0.35
328.999	0.21
329.21	0.26
329.421	0.35
329.631	0.21
329.842	0.17
330.052	0.27
330.263	0.31
330.473	0.29
330.684	0.21
330.894	0.27
331.105	0.29
331.315	0.25
331.526	0.16
331.736	0.34
331.947	0.28
332.157	0.28
332.367	0.23
332.578	0.3
332.788	0.38
332.999	0.34
333.209	0.24
333.419	0.21
333.629	0.27
333.84	0.29
334.05	0.25
334.26	0.37
334.47	0.27
334.681	0.29
334.891	0.24
335.101	0.34
335.311	0.41
335.521	0.26
335.732	0.21
335.942	0.39
336.152	0.26
336.362	0.28
336.572	0.3
336.782	0.33
336.992	0.26
337.202	0.24
337.412	0.24
337.622	0.23
337.832	0.29
338.042	0.21
338.252	0.22
338.462	0.26
338.672	0.26
338.882	0.21
339.092	0.32
339.302	0.32
339.511	0.29
339.721	0.27
339.931	0.17
340.141	0.3
340.351	0.36
340.561	0.27
340.77	0.26
340.98	0.27
341.19	0.32
341.4	0.23
341.609	0.22
341.819	0.26
342.029	0.21
342.238	0.24
342.448	0.23
342.658	0.28
342.867	0.22
343.077	0.24
343.286	0.27
343.496	0.25
343.706	0.31
343.915	0.2
344.125	0.22
344.334	0.3
344.544	0.23
344.753	0.22
344.963	0.2
345.172	0.21
345.381	0.18
345.591	0.21
345.8	0.25
346.01	0.34
346.219	0.34
346.428	0.14
346.638	0.24
346.847	0.27
347.056	0.34
347.266	0.22
347.475	0.24
347.684	0.27
347.893	0.31
348.103	0.25
348.312	0.22
348.521	0.25
348.73	0.26
348.94	0.23
349.149	0.25
349.358	0.24
349.567	0.25
349.776	0.21
349.985	0.22
350.194	0.3
350.403	0.32
350.612	0.12
350.821	0.24
351.03	0.25
351.239	0.22
351.448	0.26
351.657	0.23
351.866	0.37
352.075	0.25
352.284	0.32
352.493	0.18
352.702	0.32
352.911	0.31
353.12	0.25
353.329	0.23
353.538	0.28
353.746	0.21
353.955	0.22
354.164	0.28
354.373	0.26
354.582	0.27
354.79	0.23
354.999	0.28
355.208	0.25
355.416	0.33
355.625	0.16
355.834	0.26
356.042	0.31
356.251	0.19
356.46	0.2
356.668	0.26
356.877	0.38
357.085	0.28
357.294	0.14
357.503	0.26
357.711	0.21
357.92	0.42
358.128	0.29
358.337	0.21
358.545	0.29
358.754	0.22
358.962	0.27
359.17	0.24
359.379	0.28
359.587	0.25
359.796	0.19
360.004	0.26
360.212	0.27
360.421	0.31
360.629	0.23
360.837	0.23
361.046	0.28
361.254	0.38
361.462	0.27
361.67	0.23
361.879	0.27
362.087	0.34
362.295	0.25
362.503	0.23
362.711	0.23
362.92	0.25
363.128	0.19
363.336	0.27
363.544	0.18
363.752	0.27
363.96	0.2
364.168	0.18
364.376	0.27
364.584	0.28
364.792	0.32
365	0.29
365.208	0.25
365.416	0.28
365.624	0.37
365.832	0.23
366.04	0.33
366.248	0.24
366.456	0.21
366.664	0.25
366.872	0.27
367.079	0.26
367.287	0.25
367.495	0.3
367.703	0.25
367.911	0.25
368.118	0.28
368.326	0.26
368.534	0.22
368.742	0.32
368.949	0.2
369.157	0.23
369.365	0.32
369.572	0.22
369.78	0.24
369.988	0.25
370.195	0.27
370.403	0.28
370.61	0.23
370.818	0.24
371.026	0.36
371.233	0.2
371.441	0.26
371.648	0.24
371.856	0.27
372.063	0.28
372.271	0.25
372.478	0.24
372.685	0.23
372.893	0.29
373.1	0.24
373.308	0.23
373.515	0.38
373.722	0.32
373.93	0.22
374.137	0.3
374.344	0.35
374.552	0.3
374.759	0.29
374.966	0.21
375.173	0.23
375.381	0.3
375.588	0.27
375.795	0.2
376.002	0.25
376.209	0.24
376.417	0.25
376.624	0.26
376.831	0.35
377.038	0.23
377.245	0.2
377.452	0.21
377.659	0.27
377.866	0.27
378.073	0.25
378.28	0.28
378.487	0.35
378.694	0.35
378.901	0.22
379.108	0.23
379.315	0.35
379.522	0.37
379.729	0.29
379.936	0.23
380.143	0.24
380.35	0.27
380.557	0.24
380.763	0.3
380.97	0.26
381.177	0.31
381.384	0.28
381.591	0.18
381.797	0.27
382.004	0.33
382.211	0.35
382.418	0.23
382.624	0.33
382.831	0.33
383.038	0.25
383.244	0.31
383.451	0.24
383.658	0.29
383.864	0.27
384.071	0.23
384.277	0.35
384.484	0.24
384.69	0.39
384.897	0.27
385.103	0.26
385.31	0.28
385.516	0.22
385.723	0.21
385.929	0.3
386.136	0.26
386.342	0.3
386.549	0.24
386.755	0.33
386.961	0.36
387.168	0.28
387.374	0.31
387.58	0.36
387.787	0.28
387.993	0.29
388.199	0.29
388.406	0.22
388.612	0.25
388.818	0.21
389.024	0.28
389.231	0.24
389.437	0.37
389.643	0.3
389.849	0.29
390.055	0.3
390.261	0.31
390.467	0.35
390.674	0.32
390.88	0.26
391.086	0.35
391.292	0.22
391.498	0.32
391.704	0.29
391.91	0.26
392.116	0.29
392.322	0.23
392.528	0.37
392.734	0.3
392.94	0.35
393.146	0.29
393.352	0.35
393.557	0.27
393.763	0.33
393.969	0.4
394.175	0.29
394.381	0.31
394.587	0.29
394.792	0.29
394.998	0.4
395.204	0.38
395.41	0.27
395.615	0.36
395.821	0.33
396.027	0.37
396.233	0.3
396.438	0.37
396.644	0.42
396.85	0.35
397.055	0.33
397.261	0.35
397.466	0.41
397.672	0.34
397.878	0.4
398.083	0.38
398.289	0.3
398.494	0.44
398.7	0.4
398.905	0.29
399.111	0.45
399.316	0.27
399.522	0.3
399.727	0.33
399.932	0.32
400.138	0.34
400.343	0.4
400.549	0.36
400.754	0.39
400.959	0.39
401.165	0.33
401.37	0.37
401.575	0.42
401.78	0.4
401.986	0.38
402.191	0.37
402.396	0.37
402.601	0.42
402.807	0.44
403.012	0.36
403.217	0.44
403.422	0.43
403.627	0.43
403.832	0.36
404.037	0.49
404.243	0.43
404.448	0.42
404.653	0.41
404.858	0.46
405.063	0.47
405.268	0.42
405.473	0.35
405.678	0.4
405.883	0.68
406.088	0.52
406.293	0.43
406.498	0.46
406.703	0.52
406.907	0.42
407.112	0.48
407.317	0.58
407.522	0.56
407.727	0.45
407.932	0.53
408.136	0.66
408.341	0.55
408.546	0.59
408.751	0.57
408.956	0.61
409.16	0.65
409.365	0.63
409.57	0.61
409.774	0.65
409.979	0.69
410.184	0.68
410.388	0.61
410.593	0.79
410.798	0.79
411.002	0.75
411.207	0.77
411.411	0.79
411.616	0.74
411.82	0.82
412.025	0.8
412.229	0.85
412.434	0.96
412.638	0.93
412.843	0.91
413.047	0.96
413.252	0.92
413.456	1.05
413.66	1.08
413.865	1.01
414.069	1.15
414.273	1.08
414.478	1.16
414.682	1.11
414.886	1.24
415.091	1.18
415.295	1.25
415.499	1.41
415.703	1.38
415.908	1.47
416.112	1.4
416.316	1.59
416.52	1.55
416.724	1.53
416.929	1.64
417.133	1.9
417.337	1.68
417.541	1.81
417.745	1.88
417.949	1.98
418.153	2.02
418.357	2.02
418.561	2.29
418.765	2.26
418.969	2.39
419.173	2.4
419.377	2.38
419.581	2.73
419.785	2.6
419.989	2.63
420.193	2.73
420.397	2.94
420.601	3.01
420.804	3.1
421.008	3.04
421.212	3.29
421.416	3.25
421.62	3.28
421.823	3.38
422.027	3.51
422.231	3.58
422.435	3.51
422.638	3.57
422.842	3.72
423.046	3.74
423.249	3.96
423.453	4.01
423.657	4.18
423.86	4.18
424.064	4.38
424.268	4.42
424.471	4.52
424.675	4.67
424.878	4.84
425.082	4.9
425.285	5.28
425.489	5.17
425.692	5.35
425.896	5.32
426.099	5.49
426.303	5.6
426.506	5.7
426.71	6.09
426.913	6.19
427.116	6.37
427.32	6.43
427.523	6.48
427.726	6.78
427.93	6.85
428.133	7.11
428.336	7.32
428.54	7.48
428.743	7.72
428.946	7.87
429.149	7.99
429.353	7.85
429.556	8.12
429.759	8.15
429.962	8.24
430.165	8.49
430.368	7.96
430.571	8.07
430.775	8.15
430.978	8.14
431.181	8.16
431.384	8.29
431.587	8.44
431.79	8.8
431.993	8.72
432.196	8.93
432.399	9.33
432.602	9.53
432.805	9.54
433.008	10.09
433.211	10
433.414	10.3
433.616	10.32
433.819	10.27
434.022	10.51
434.225	10.64
434.428	10.75
434.631	11.17
434.833	10.9
435.036	11.13
435.239	11.41
435.442	11.4
435.645	11.5
435.847	11.72
436.05	11.91
436.253	12.29
436.455	12.07
436.658	12.11
436.861	12.3
437.063	12.45
437.266	12.5
437.468	12.73
437.671	13.14
437.874	13.2
438.076	13.02
438.279	13.44
438.481	13.49
438.684	14.33
438.886	13.79
439.089	14.19
439.291	14.22
439.494	14.6
439.696	14.68
439.899	15.28
440.101	15.71
440.303	15.9
440.506	16.57
440.708	16.31
440.91	16.47
441.113	16.85
441.315	16.97
441.517	16.79
441.72	17.34
441.922	16.86
442.124	16.88
442.326	17.24
442.529	17.58
442.731	17.37
442.933	17.75
443.135	17.5
443.337	17.44
443.539	18.1
443.742	17.74
443.944	18.47
444.146	18.17
444.348	18.13
444.55	17.95
444.752	18.09
444.954	18.19
445.156	17.98
445.358	18.41
445.56	18.73
445.762	18.59
445.964	18.81
446.166	18.67
446.368	18.58
446.57	18.59
446.772	18.23
446.974	17.94
447.175	18.34
447.377	17.88
447.579	18.37
447.781	18.11
447.983	17.69
448.184	17.41
448.386	17.74
448.588	17.28
448.79	17.16
448.991	17.47
449.193	17.43
449.395	16.84
449.597	16.41
449.798	16.33
450	15.94
450.202	15.81
450.403	15.64
450.605	15.59
450.806	15.46
451.008	15.27
451.21	14.96
451.411	14.61
451.613	13.75
451.814	13.96
452.016	14.02
452.217	13.32
452.419	13.26
452.62	12.89
452.821	12.65
453.023	12.62
453.224	12.17
453.426	11.86
453.627	11.13
453.828	11.11
454.03	11.2
454.231	11.21
454.432	11.06
454.634	10.78
454.835	10.55
455.036	10.4
455.238	9.96
455.439	9.75
455.64	9.5
455.841	9.36
456.042	9.55
456.244	9.14
456.445	8.8
456.646	8.58
456.847	8.56
457.048	8.34
457.249	8.48
457.45	8.24
457.651	7.66
457.852	7.57
458.054	7.24
458.255	7.14
458.456	7.25
458.657	7.18
458.858	6.73
459.058	6.68
459.259	6.79
459.46	6.4
459.661	6.31
459.862	6.46
460.063	6.35
460.264	6.33
460.465	5.95
460.666	6.1
460.866	5.76
461.067	5.46
461.268	5.58
461.469	5.49
461.67	5.34
461.87	5.15
462.071	5.29
462.272	5.18
462.473	5.08
462.673	5.23
462.874	5.14
463.075	5.09
463.275	5.1
463.476	5.22
463.676	5.08
463.877	4.95
464.078	4.96
464.278	4.99
464.479	4.88
464.679	4.73
464.88	4.71
465.08	4.62
465.281	4.43
465.481	4.27
465.682	4.08
465.882	4.13
466.083	4.04
466.283	4.09
466.483	3.95
466.684	3.75
466.884	3.65
467.085	3.66
467.285	3.69
467.485	3.57
467.686	3.5
467.886	3.46
468.086	3.32
468.286	3.31
468.487	3.43
468.687	3.21
468.887	3.28
469.087	3.33
469.287	3.26
469.488	3.05
469.688	3.18
469.888	3.16
470.088	3.12
470.288	3.03
470.488	3.06
470.688	2.87
470.888	2.83
471.088	2.69
471.288	2.8
471.488	2.75
471.688	2.73
471.888	2.68
472.088	2.86
472.288	2.74
472.488	2.61
472.688	2.59
472.888	2.58
473.088	2.63
473.288	2.52
473.488	2.46
473.688	2.62
473.887	2.48
474.087	2.39
474.287	2.51
474.487	2.36
474.687	2.4
474.886	2.32
475.086	2.35
475.286	2.32
475.486	2.23
475.685	2.21
475.885	2.22
476.085	2.23
476.284	2.29
476.484	2.27
476.684	2.25
476.883	2.28
477.083	2.19
477.282	2.11
477.482	2.24
477.681	2.17
477.881	2.08
478.08	2.09
478.28	2.03
478.479	2.12
478.679	2.17
478.878	2.02
479.078	2
479.277	2.05
479.477	1.98
479.676	2.01
479.875	2.01
480.075	1.96
480.274	1.99
480.473	2.07
480.673	2
480.872	2.09
481.071	2.05
481.271	2.01
481.47	2
481.669	1.99
481.868	1.95
482.067	1.97
482.267	1.93
482.466	1.95
482.665	1.91
482.864	1.94
483.063	1.94
483.262	2.02
483.461	2.07
483.661	2.05
483.86	2.03
484.059	2.05
484.258	2.04
484.457	2
484.656	1.99
484.855	2.08
485.054	1.92
485.253	2
485.452	1.97
485.651	2.05
485.849	2.06
486.048	2
486.247	2.1
486.446	2.09
486.645	2.05
486.844	2.06
487.043	2.06
487.241	2.08
487.44	2.08
487.639	2.11
487.838	2.13
488.037	2.12
488.235	2.2
488.434	2.16
488.633	2.06
488.831	2.23
489.03	2.25
489.229	2.22
489.427	2.21
489.626	2.26
489.825	2.29
490.023	2.25
490.222	2.28
490.42	2.31
490.619	2.39
490.817	2.35
491.016	2.36
491.214	2.38
491.413	2.38
491.611	2.38
491.81	2.42
492.008	2.43
492.207	2.57
492.405	2.5
492.604	2.41
492.802	2.54
493	2.59
493.199	2.57
493.397	2.66
493.595	2.72
493.794	2.67
493.992	2.78
494.19	2.75
494.388	2.81
494.587	2.77
494.785	2.79
494.983	2.73
495.181	2.86
495.379	2.91
495.578	2.93
495.776	2.94
495.974	2.91
496.172	2.93
496.37	3.15
496.568	3.06
496.766	3.08
496.964	3.18
497.162	3.2
497.36	3.2
497.558	3.22
497.756	3.29
497.954	3.29
498.152	3.35
498.35	3.38
498.548	3.38
498.746	3.37
498.944	3.4
499.142	3.45
499.34	3.56
499.538	3.65
499.736	3.53
499.933	3.63
500.131	3.62
500.329	3.74
500.527	3.71
500.725	3.86
500.922	3.88
501.12	3.87
501.318	3.95
501.516	3.91
501.713	4.01
501.911	4.01
502.109	4.01
502.306	4.09
502.504	4.05
502.701	4.08
