Data from Apollo_Calib_20240827__AbsoluteIrradiance__807__12-36-01-322.txt Node

Date: Wed Aug 28 12:36:01 BST 2024
User: biology
Spectrometer: FLMT08252
Trigger mode: 0
Integration Time (sec): 5.000000E-1
Scans to average: 5
Electric dark correction enabled: true
Nonlinearity correction enabled: false
Boxcar width: 0
XAxis mode: Wavelengths
Number of Pixels in Spectrum: 3648
>>>>>Begin Spectral Data<<<<<
179.588	-0
179.809	-0
180.03	-0
180.251	-0
180.473	-0
180.694	0
180.915	0
181.136	-0
181.357	0
181.578	-0
181.799	0
182.02	-0
182.241	-0
182.462	-0
182.683	0
182.904	-0
183.125	-0
183.346	0
183.567	0
183.788	0
184.009	0
184.23	0
184.451	0
184.672	0
184.892	0
185.113	0
185.334	0
185.555	0
185.776	0
185.996	0
186.217	0
186.438	0
186.659	0
186.879	0
187.1	0
187.321	0
187.541	0
187.762	0
187.983	0
188.203	0
188.424	0
188.644	0
188.865	0
189.086	0
189.306	0
189.527	0
189.747	0
189.968	0
190.188	0
190.409	0
190.629	0
190.849	0
191.07	0
191.29	0
191.511	0
191.731	0
191.951	0
192.172	0
192.392	0
192.612	0
192.833	0
193.053	0
193.273	0
193.493	0
193.714	0
193.934	0
194.154	0
194.374	0
194.594	0
194.815	0
195.035	0
195.255	0
195.475	0
195.695	0
195.915	0
196.135	0
196.355	0
196.575	0
196.795	0
197.015	0
197.235	0
197.455	0
197.675	0
197.895	0
198.115	0
198.335	0
198.555	0
198.775	0
198.995	0
199.214	0
199.434	0
199.654	0
199.874	0
200.094	3.48
200.313	2.96
200.533	1.83
200.753	1.8
200.973	3.97
201.192	3.4
201.412	1.54
201.632	1.81
201.851	3.31
202.071	1.65
202.291	2.11
202.51	1.23
202.73	2.73
202.95	2.21
203.169	1.5
203.389	1.73
203.608	2.17
203.828	1.94
204.047	1.26
204.267	2.28
204.486	2.16
204.706	2.49
204.925	1.61
205.145	1.61
205.364	2.44
205.583	2.31
205.803	1.28
206.022	1.24
206.242	1.89
206.461	2.27
206.68	1.6
206.9	1.81
207.119	2.56
207.338	2.35
207.557	1.33
207.777	1.26
207.996	1.36
208.215	2.28
208.434	1.05
208.654	0.93
208.873	1.64
209.092	2.02
209.311	1.16
209.53	1.38
209.749	1.34
209.968	1.21
210.187	0.85
210.407	0.81
210.626	1.21
210.845	1.52
211.064	1.16
211.283	0.86
211.502	1.5
211.721	0.97
211.94	1.17
212.159	1.37
212.377	1.42
212.596	1.48
212.815	1.19
213.034	1.35
213.253	1.43
213.472	1.33
213.691	1.15
213.91	0.88
214.128	0.77
214.347	1.45
214.566	0.5
214.785	0.47
215.003	1.42
215.222	1.19
215.441	0.72
215.66	0.56
215.878	1.05
216.097	1.33
216.316	0.53
216.534	0.93
216.753	1.07
216.972	1.05
217.19	1.02
217.409	0.59
217.627	0.85
217.846	0.89
218.064	0.83
218.283	0.75
218.501	1.47
218.72	1.05
218.938	0.66
219.157	0.75
219.375	1.14
219.594	1.1
219.812	0.59
220.031	0.54
220.249	1.38
220.467	1.17
220.686	0.61
220.904	0.49
221.122	0.76
221.341	1.27
221.559	0.73
221.777	0.57
221.995	0.76
222.214	0.98
222.432	0.65
222.65	0.91
222.868	0.82
223.086	0.81
223.305	0.97
223.523	0.7
223.741	1.18
223.959	0.76
224.177	0.48
224.395	0.5
224.613	0.87
224.831	1.07
225.049	0.51
225.267	0.62
225.485	0.75
225.703	0.58
225.921	0.56
226.139	0.56
226.357	0.94
226.575	0.94
226.793	0.6
227.011	1.58
227.229	0.78
227.447	0.87
227.665	0.61
227.883	0.31
228.1	0.78
228.318	0.78
228.536	0.39
228.754	0.36
228.972	0.76
229.189	0.73
229.407	0.54
229.625	0.62
229.843	0.89
230.06	0.93
230.278	0.52
230.496	0.67
230.713	0.76
230.931	1.02
231.149	0.53
231.366	0.4
231.584	0.61
231.801	1.11
232.019	0.47
232.236	0.43
232.454	0.41
232.671	0.68
232.889	0.56
233.106	0.51
233.324	0.65
233.541	0.53
233.759	0.54
233.976	0.47
234.194	0.6
234.411	0.56
234.628	0.39
234.846	0.47
235.063	0.54
235.28	0.55
235.498	0.41
235.715	0.45
235.932	0.77
236.149	0.63
236.367	0.45
236.584	0.59
236.801	0.54
237.018	0.75
237.236	0.57
237.453	0.3
237.67	0.77
237.887	0.49
238.104	0.62
238.321	0.39
238.538	0.37
238.755	0.73
238.973	0.28
239.19	0.47
239.407	0.65
239.624	0.49
239.841	0.34
240.058	0.38
240.275	0.62
240.492	0.46
240.709	0.45
240.925	0.47
241.142	0.56
241.359	0.35
241.576	0.38
241.793	0.42
242.01	0.48
242.227	0.78
242.444	0.56
242.66	0.67
242.877	0.52
243.094	0.46
243.311	0.44
243.527	0.46
243.744	0.46
243.961	0.63
244.178	0.41
244.394	0.41
244.611	0.6
244.828	0.64
245.044	0.34
245.261	0.45
245.477	0.59
245.694	0.64
245.911	0.4
246.127	0.45
246.344	0.74
246.56	0.5
246.777	0.3
246.993	0.45
247.21	0.49
247.426	0.62
247.643	0.36
247.859	0.34
248.076	0.44
248.292	0.79
248.508	0.42
248.725	0.52
248.941	0.6
249.157	0.63
249.374	0.35
249.59	0.46
249.806	0.42
250.023	0.48
250.239	0.4
250.455	0.32
250.671	0.41
250.888	0.51
251.104	0.48
251.32	0.32
251.536	0.41
251.752	0.43
251.969	0.47
252.185	0.44
252.401	0.69
252.617	0.56
252.833	0.35
253.049	0.46
253.265	0.49
253.481	0.49
253.697	0.38
253.913	0.4
254.129	0.41
254.345	0.48
254.561	0.37
254.777	0.44
254.993	0.52
255.209	0.46
255.425	0.4
255.641	0.35
255.857	0.47
256.073	0.41
256.288	0.27
256.504	0.33
256.72	0.46
256.936	0.6
257.152	0.32
257.367	0.37
257.583	0.35
257.799	0.58
258.015	0.35
258.23	0.33
258.446	0.6
258.662	0.43
258.877	0.32
259.093	0.3
259.309	0.42
259.524	0.43
259.74	0.36
259.955	0.2
260.171	0.39
260.387	0.43
260.602	0.46
260.818	0.43
261.033	0.26
261.249	0.51
261.464	0.32
261.68	0.22
261.895	0.48
262.11	0.46
262.326	0.37
262.541	0.26
262.757	0.48
262.972	0.42
263.187	0.43
263.403	0.41
263.618	0.51
263.833	0.36
264.049	0.29
264.264	0.35
264.479	0.39
264.694	0.56
264.91	0.27
265.125	0.34
265.34	0.45
265.555	0.64
265.77	0.44
265.986	0.33
266.201	0.41
266.416	0.51
266.631	0.29
266.846	0.33
267.061	0.47
267.276	0.47
267.491	0.15
267.706	0.43
267.921	0.43
268.136	0.41
268.351	0.39
268.566	0.24
268.781	0.43
268.996	0.49
269.211	0.34
269.426	0.22
269.641	0.33
269.856	0.48
270.071	0.29
270.285	0.22
270.5	0.47
270.715	0.47
270.93	0.29
271.145	0.37
271.359	0.45
271.574	0.3
271.789	0.35
272.004	0.34
272.218	0.34
272.433	0.39
272.648	0.24
272.862	0.39
273.077	0.4
273.292	0.29
273.506	0.25
273.721	0.33
273.936	0.32
274.15	0.5
274.365	0.29
274.579	0.39
274.794	0.44
275.008	0.45
275.223	0.23
275.437	0.31
275.652	0.49
275.866	0.43
276.081	0.33
276.295	0.37
276.509	0.37
276.724	0.37
276.938	0.29
277.153	0.42
277.367	0.44
277.581	0.29
277.796	0.26
278.01	0.25
278.224	0.42
278.438	0.54
278.653	0.24
278.867	0.31
279.081	0.22
279.295	0.31
279.51	0.31
279.724	0.22
279.938	0.36
280.152	0.39
280.366	0.24
280.58	0.32
280.794	0.39
281.008	0.42
281.222	0.36
281.437	0.5
281.651	0.41
281.865	0.44
282.079	0.29
282.293	0.21
282.507	0.27
282.721	0.32
282.935	0.3
283.148	0.18
283.362	0.31
283.576	0.24
283.79	0.31
284.004	0.23
284.218	0.41
284.432	0.28
284.646	0.3
284.859	0.24
285.073	0.33
285.287	0.3
285.501	0.3
285.714	0.32
285.928	0.33
286.142	0.37
286.356	0.26
286.569	0.25
286.783	0.43
286.997	0.38
287.21	0.31
287.424	0.34
287.637	0.31
287.851	0.27
288.065	0.36
288.278	0.29
288.492	0.38
288.705	0.26
288.919	0.36
289.132	0.23
289.346	0.42
289.559	0.21
289.773	0.18
289.986	0.27
290.2	0.29
290.413	0.38
290.626	0.25
290.84	0.28
291.053	0.3
291.267	0.4
291.48	0.29
291.693	0.31
291.906	0.25
292.12	0.32
292.333	0.23
292.546	0.29
292.76	0.36
292.973	0.32
293.186	0.31
293.399	0.28
293.612	0.36
293.826	0.28
294.039	0.29
294.252	0.27
294.465	0.3
294.678	0.29
294.891	0.26
295.104	0.24
295.317	0.29
295.53	0.29
295.743	0.27
295.956	0.25
296.169	0.38
296.382	0.33
296.595	0.24
296.808	0.21
297.021	0.39
297.234	0.35
297.447	0.22
297.66	0.28
297.873	0.37
298.086	0.35
298.299	0.2
298.511	0.21
298.724	0.26
298.937	0.24
299.15	0.19
299.363	0.29
299.575	0.33
299.788	0.28
300.001	0.23
300.213	0.2
300.426	0.25
300.639	0.25
300.852	0.27
301.064	0.31
301.277	0.38
301.489	0.36
301.702	0.3
301.915	0.26
302.127	0.29
302.34	0.32
302.552	0.32
302.765	0.24
302.977	0.32
303.19	0.22
303.402	0.26
303.615	0.25
303.827	0.25
304.04	0.29
304.252	0.34
304.464	0.24
304.677	0.43
304.889	0.31
305.102	0.27
305.314	0.24
305.526	0.25
305.739	0.36
305.951	0.19
306.163	0.29
306.375	0.33
306.588	0.27
306.8	0.27
307.012	0.2
307.224	0.32
307.436	0.36
307.649	0.2
307.861	0.28
308.073	0.32
308.285	0.22
308.497	0.25
308.709	0.24
308.921	0.34
309.133	0.37
309.346	0.26
309.558	0.25
309.77	0.32
309.982	0.37
310.194	0.33
310.406	0.25
310.617	0.4
310.829	0.28
311.041	0.32
311.253	0.25
311.465	0.27
311.677	0.26
311.889	0.25
312.101	0.26
312.313	0.35
312.524	0.38
312.736	0.21
312.948	0.27
313.16	0.35
313.372	0.34
313.583	0.29
313.795	0.21
314.007	0.29
314.218	0.35
314.43	0.26
314.642	0.23
314.853	0.19
315.065	0.33
315.277	0.24
315.488	0.3
315.7	0.34
315.912	0.29
316.123	0.24
316.335	0.27
316.546	0.39
316.758	0.27
316.969	0.25
317.181	0.26
317.392	0.24
317.604	0.32
317.815	0.21
318.026	0.21
318.238	0.24
318.449	0.3
318.661	0.2
318.872	0.19
319.083	0.23
319.295	0.28
319.506	0.28
319.717	0.29
319.929	0.34
320.14	0.27
320.351	0.27
320.562	0.25
320.774	0.27
320.985	0.33
321.196	0.28
321.407	0.2
321.618	0.32
321.829	0.32
322.041	0.32
322.252	0.22
322.463	0.33
322.674	0.33
322.885	0.2
323.096	0.23
323.307	0.29
323.518	0.29
323.729	0.26
323.94	0.21
324.151	0.24
324.362	0.3
324.573	0.3
324.784	0.25
324.995	0.32
325.206	0.31
325.417	0.26
325.628	0.2
325.838	0.29
326.049	0.28
326.26	0.3
326.471	0.26
326.682	0.33
326.892	0.26
327.103	0.18
327.314	0.22
327.525	0.32
327.735	0.27
327.946	0.23
328.157	0.24
328.368	0.36
328.578	0.23
328.789	0.35
328.999	0.28
329.21	0.22
329.421	0.35
329.631	0.2
329.842	0.2
330.052	0.28
330.263	0.33
330.473	0.26
330.684	0.26
330.894	0.23
331.105	0.29
331.315	0.27
331.526	0.17
331.736	0.39
331.947	0.28
332.157	0.32
332.367	0.22
332.578	0.3
332.788	0.37
332.999	0.33
333.209	0.23
333.419	0.21
333.629	0.31
333.84	0.29
334.05	0.24
334.26	0.34
334.47	0.26
334.681	0.32
334.891	0.26
335.101	0.35
335.311	0.4
335.521	0.25
335.732	0.22
335.942	0.39
336.152	0.3
336.362	0.26
336.572	0.28
336.782	0.33
336.992	0.25
337.202	0.24
337.412	0.25
337.622	0.32
337.832	0.25
338.042	0.22
338.252	0.22
338.462	0.23
338.672	0.3
338.882	0.26
339.092	0.3
339.302	0.33
339.511	0.33
339.721	0.25
339.931	0.21
340.141	0.34
340.351	0.34
340.561	0.31
340.77	0.29
340.98	0.3
341.19	0.26
341.4	0.23
341.609	0.19
341.819	0.22
342.029	0.19
342.238	0.3
342.448	0.21
342.658	0.3
342.867	0.25
343.077	0.22
343.286	0.24
343.496	0.3
343.706	0.34
343.915	0.22
344.125	0.26
344.334	0.32
344.544	0.19
344.753	0.22
344.963	0.22
345.172	0.24
345.381	0.27
345.591	0.2
345.8	0.24
346.01	0.36
346.219	0.35
346.428	0.15
346.638	0.29
346.847	0.27
347.056	0.31
347.266	0.25
347.475	0.2
347.684	0.35
347.893	0.32
348.103	0.28
348.312	0.22
348.521	0.24
348.73	0.3
348.94	0.3
349.149	0.24
349.358	0.28
349.567	0.21
349.776	0.18
349.985	0.2
350.194	0.29
350.403	0.3
350.612	0.2
350.821	0.23
351.03	0.27
351.239	0.2
351.448	0.24
351.657	0.24
351.866	0.36
352.075	0.25
352.284	0.32
352.493	0.25
352.702	0.33
352.911	0.26
353.12	0.26
353.329	0.23
353.538	0.31
353.746	0.22
353.955	0.19
354.164	0.24
354.373	0.25
354.582	0.3
354.79	0.29
354.999	0.27
355.208	0.26
355.416	0.34
355.625	0.18
355.834	0.21
356.042	0.29
356.251	0.24
356.46	0.17
356.668	0.28
356.877	0.37
357.085	0.28
357.294	0.17
357.503	0.27
357.711	0.29
357.92	0.42
358.128	0.27
358.337	0.2
358.545	0.27
358.754	0.24
358.962	0.32
359.17	0.23
359.379	0.29
359.587	0.28
359.796	0.23
360.004	0.32
360.212	0.35
360.421	0.35
360.629	0.26
360.837	0.28
361.046	0.31
361.254	0.4
361.462	0.27
361.67	0.22
361.879	0.28
362.087	0.32
362.295	0.25
362.503	0.23
362.711	0.23
362.92	0.25
363.128	0.22
363.336	0.24
363.544	0.17
363.752	0.27
363.96	0.18
364.168	0.21
364.376	0.27
364.584	0.28
364.792	0.33
365	0.27
365.208	0.3
365.416	0.31
365.624	0.34
365.832	0.23
366.04	0.32
366.248	0.25
366.456	0.31
366.664	0.26
366.872	0.26
367.079	0.27
367.287	0.26
367.495	0.25
367.703	0.35
367.911	0.26
368.118	0.23
368.326	0.21
368.534	0.21
368.742	0.36
368.949	0.22
369.157	0.25
369.365	0.29
369.572	0.23
369.78	0.2
369.988	0.31
370.195	0.24
370.403	0.32
370.61	0.2
370.818	0.27
371.026	0.38
371.233	0.26
371.441	0.26
371.648	0.24
371.856	0.29
372.063	0.26
372.271	0.2
372.478	0.23
372.685	0.22
372.893	0.33
373.1	0.29
373.308	0.26
373.515	0.35
373.722	0.33
373.93	0.25
374.137	0.31
374.344	0.35
374.552	0.33
374.759	0.28
374.966	0.27
375.173	0.3
375.381	0.36
375.588	0.29
375.795	0.24
376.002	0.26
376.209	0.23
376.417	0.28
376.624	0.26
376.831	0.33
377.038	0.24
377.245	0.18
377.452	0.22
377.659	0.31
377.866	0.21
378.073	0.23
378.28	0.24
378.487	0.36
378.694	0.35
378.901	0.29
379.108	0.27
379.315	0.34
379.522	0.4
379.729	0.24
379.936	0.28
380.143	0.28
380.35	0.3
380.557	0.25
380.763	0.25
380.97	0.32
381.177	0.31
381.384	0.28
381.591	0.21
381.797	0.31
382.004	0.32
382.211	0.31
382.418	0.28
382.624	0.32
382.831	0.32
383.038	0.27
383.244	0.3
383.451	0.27
383.658	0.32
383.864	0.25
384.071	0.22
384.277	0.36
384.484	0.3
384.69	0.37
384.897	0.29
385.103	0.29
385.31	0.27
385.516	0.24
385.723	0.22
385.929	0.31
386.136	0.28
386.342	0.33
386.549	0.27
386.755	0.37
386.961	0.33
387.168	0.27
387.374	0.29
387.58	0.3
387.787	0.31
387.993	0.32
388.199	0.26
388.406	0.25
388.612	0.25
388.818	0.26
389.024	0.26
389.231	0.3
389.437	0.41
389.643	0.33
389.849	0.29
390.055	0.3
390.261	0.3
390.467	0.37
390.674	0.29
390.88	0.3
391.086	0.35
391.292	0.27
391.498	0.33
391.704	0.32
391.91	0.34
392.116	0.26
392.322	0.21
392.528	0.39
392.734	0.3
392.94	0.32
393.146	0.28
393.352	0.34
393.557	0.32
393.763	0.26
393.969	0.4
394.175	0.3
394.381	0.32
394.587	0.27
394.792	0.33
394.998	0.37
395.204	0.36
395.41	0.27
395.615	0.35
395.821	0.35
396.027	0.34
396.233	0.33
396.438	0.35
396.644	0.39
396.85	0.34
397.055	0.32
397.261	0.38
397.466	0.3
397.672	0.35
397.878	0.39
398.083	0.37
398.289	0.33
398.494	0.4
398.7	0.37
398.905	0.33
399.111	0.41
399.316	0.3
399.522	0.31
399.727	0.37
399.932	0.33
400.138	0.31
400.343	0.41
400.549	0.37
400.754	0.4
400.959	0.39
401.165	0.35
401.37	0.36
401.575	0.45
401.78	0.42
401.986	0.39
402.191	0.34
402.396	0.37
402.601	0.45
402.807	0.4
403.012	0.4
403.217	0.45
403.422	0.42
403.627	0.45
403.832	0.42
404.037	0.49
404.243	0.44
404.448	0.44
404.653	0.42
404.858	0.48
405.063	0.48
405.268	0.46
405.473	0.39
405.678	0.39
405.883	0.71
406.088	0.49
406.293	0.44
406.498	0.52
406.703	0.5
406.907	0.45
407.112	0.43
407.317	0.52
407.522	0.61
407.727	0.5
407.932	0.53
408.136	0.68
408.341	0.56
408.546	0.64
408.751	0.56
408.956	0.6
409.16	0.71
409.365	0.63
409.57	0.64
409.774	0.62
409.979	0.69
410.184	0.7
410.388	0.66
410.593	0.74
410.798	0.74
411.002	0.73
411.207	0.79
411.411	0.82
411.616	0.7
411.82	0.83
412.025	0.9
412.229	0.88
412.434	0.98
412.638	0.96
412.843	0.95
413.047	1.01
413.252	0.94
413.456	1.03
413.66	1.1
413.865	1.03
414.069	1.15
414.273	1.09
414.478	1.11
414.682	1.18
414.886	1.26
415.091	1.18
415.295	1.25
415.499	1.45
415.703	1.32
415.908	1.5
416.112	1.36
416.316	1.59
416.52	1.59
416.724	1.55
416.929	1.65
417.133	1.96
417.337	1.79
417.541	1.89
417.745	1.84
417.949	1.98
418.153	2.05
418.357	2.04
418.561	2.32
418.765	2.23
418.969	2.41
419.173	2.42
419.377	2.46
419.581	2.71
419.785	2.71
419.989	2.7
420.193	2.88
420.397	2.94
420.601	3.16
420.804	3.19
421.008	3.13
421.212	3.35
421.416	3.34
421.62	3.35
421.823	3.4
422.027	3.57
422.231	3.62
422.435	3.61
422.638	3.58
422.842	3.77
423.046	3.76
423.249	4.02
423.453	4.03
423.657	4.17
423.86	4.33
424.064	4.46
424.268	4.52
424.471	4.56
424.675	4.74
424.878	4.88
425.082	4.96
425.285	5.3
425.489	5.23
425.692	5.43
425.896	5.36
426.099	5.53
426.303	5.76
426.506	5.83
426.71	6.09
426.913	6.26
427.116	6.5
427.32	6.4
427.523	6.55
427.726	6.85
427.93	6.84
428.133	7.21
428.336	7.37
428.54	7.45
428.743	7.82
428.946	8.14
429.149	7.96
429.353	7.99
429.556	8.15
429.759	8.18
429.962	8.39
430.165	8.51
430.368	8.03
430.571	8.2
430.775	8.22
430.978	8.21
431.181	8.24
431.384	8.37
431.587	8.49
431.79	8.84
431.993	8.79
432.196	9.03
432.399	9.45
432.602	9.56
432.805	9.66
433.008	10.23
433.211	10.08
433.414	10.46
433.616	10.42
433.819	10.38
434.022	10.53
434.225	10.7
434.428	10.69
434.631	11.17
434.833	10.92
435.036	11.24
435.239	11.34
435.442	11.43
435.645	11.66
435.847	11.73
436.05	12.11
436.253	12.29
436.455	12.12
436.658	12.27
436.861	12.49
437.063	12.58
437.266	12.49
437.468	12.98
437.671	13.17
437.874	13.23
438.076	13.12
438.279	13.52
438.481	13.49
438.684	14.44
438.886	13.84
439.089	14.31
439.291	14.23
439.494	14.71
439.696	14.76
439.899	15.34
440.101	15.65
440.303	15.94
440.506	16.74
440.708	16.41
440.91	16.51
441.113	16.76
441.315	17.15
441.517	16.92
441.72	17.37
441.922	16.96
442.124	16.94
442.326	17.26
442.529	17.53
442.731	17.41
442.933	17.82
443.135	17.56
443.337	17.57
443.539	18.19
443.742	17.86
443.944	18.53
444.146	18.1
444.348	18.15
444.55	18.02
444.752	18.24
444.954	18.28
445.156	18.17
445.358	18.57
445.56	18.69
445.762	18.6
445.964	18.95
446.166	18.68
446.368	18.59
446.57	18.79
446.772	18.2
446.974	18.07
447.175	18.26
447.377	18.02
447.579	18.36
447.781	18.03
447.983	17.87
448.184	17.3
448.386	17.71
448.588	17.26
448.79	17.16
448.991	17.55
449.193	17.5
449.395	16.76
449.597	16.48
449.798	16.27
450	15.85
450.202	15.8
450.403	15.86
450.605	15.71
450.806	15.41
451.008	15.18
451.21	15
451.411	14.56
451.613	13.7
451.814	14.06
452.016	14.03
452.217	13.18
452.419	13.21
452.62	12.83
452.821	12.71
453.023	12.57
453.224	12.18
453.426	11.68
453.627	10.99
453.828	11.1
454.03	11.14
454.231	11.23
454.432	10.91
454.634	10.71
454.835	10.5
455.036	10.3
455.238	9.95
455.439	9.67
455.64	9.39
455.841	9.34
456.042	9.47
456.244	9.09
456.445	8.83
456.646	8.54
456.847	8.48
457.048	8.38
457.249	8.45
457.45	8.25
457.651	7.64
457.852	7.49
458.054	7.18
458.255	7.13
458.456	7.15
458.657	7.19
458.858	6.67
459.058	6.54
459.259	6.6
459.46	6.43
459.661	6.38
459.862	6.42
460.063	6.34
460.264	6.21
460.465	5.93
460.666	5.98
460.866	5.67
461.067	5.5
461.268	5.51
461.469	5.45
461.67	5.38
461.87	5.2
462.071	5.25
462.272	5.15
462.473	5.1
462.673	5.24
462.874	5.07
463.075	5.03
463.275	5.06
463.476	5.12
463.676	5.08
463.877	4.9
464.078	4.93
464.278	5.01
464.479	4.84
464.679	4.67
464.88	4.65
465.08	4.6
465.281	4.5
465.481	4.29
465.682	4.09
465.882	4.12
466.083	4
466.283	4.07
466.483	3.95
466.684	3.75
466.884	3.57
467.085	3.62
467.285	3.69
467.485	3.61
467.686	3.51
467.886	3.42
468.086	3.35
468.286	3.32
468.487	3.48
468.687	3.28
468.887	3.18
469.087	3.28
469.287	3.21
469.488	3.07
469.688	3.15
469.888	3.18
470.088	3.11
470.288	3.07
470.488	3.02
470.688	2.85
470.888	2.84
471.088	2.69
471.288	2.79
471.488	2.74
471.688	2.73
471.888	2.7
472.088	2.85
472.288	2.72
472.488	2.6
472.688	2.51
472.888	2.64
473.088	2.59
473.288	2.5
473.488	2.46
473.688	2.55
473.887	2.47
474.087	2.42
474.287	2.43
474.487	2.39
474.687	2.42
474.886	2.34
475.086	2.3
475.286	2.32
475.486	2.28
475.685	2.14
475.885	2.2
476.085	2.27
476.284	2.24
476.484	2.2
476.684	2.21
476.883	2.3
477.083	2.21
477.282	2.08
477.482	2.2
477.681	2.12
477.881	2.03
478.08	2.09
478.28	2.02
478.479	2.05
478.679	2.13
478.878	2.08
479.078	1.98
479.277	2.09
479.477	2.08
479.676	2.03
479.875	2.02
480.075	1.91
480.274	2.03
480.473	2.09
480.673	1.99
480.872	2.05
481.071	2.06
481.271	2.04
481.47	2
481.669	2
481.868	1.98
482.067	1.95
482.267	1.92
482.466	1.92
482.665	1.93
482.864	1.92
483.063	1.89
483.262	2.01
483.461	2.07
483.661	2.06
483.86	2
484.059	2.06
484.258	2.04
484.457	2
484.656	2.02
484.855	2.13
485.054	1.89
485.253	1.98
485.452	1.97
485.651	2.08
485.849	2.02
486.048	2
486.247	2.02
486.446	2.12
486.645	2.06
486.844	2.06
487.043	2.02
487.241	2.1
487.44	2.07
487.639	2.14
487.838	2.12
488.037	2.12
488.235	2.19
488.434	2.17
488.633	2.06
488.831	2.25
489.03	2.24
489.229	2.19
489.427	2.21
489.626	2.3
489.825	2.3
490.023	2.31
490.222	2.24
490.42	2.31
490.619	2.37
490.817	2.38
491.016	2.35
491.214	2.44
491.413	2.44
491.611	2.39
491.81	2.37
492.008	2.48
492.207	2.55
492.405	2.56
492.604	2.46
492.802	2.57
493	2.62
493.199	2.63
493.397	2.64
493.595	2.68
493.794	2.67
493.992	2.76
494.19	2.72
494.388	2.83
494.587	2.75
494.785	2.76
494.983	2.74
495.181	2.87
495.379	2.92
495.578	2.98
495.776	2.94
495.974	2.98
496.172	3
496.37	3.08
496.568	3.09
496.766	3.14
496.964	3.21
497.162	3.2
497.36	3.23
497.558	3.25
497.756	3.33
497.954	3.29
498.152	3.33
498.35	3.45
498.548	3.41
498.746	3.38
498.944	3.44
499.142	3.42
499.34	3.52
499.538	3.67
499.736	3.53
499.933	3.65
500.131	3.63
500.329	3.8
500.527	3.81
500.725	3.85
500.922	3.94
501.12	3.89
501.318	4
501.516	3.95
501.713	4.03
501.911	4.01
502.109	3.96
502.306	4.12
502.504	4.03
502.701	4.07
502.899	4.2
