Data from Apollo_Calib_20240827__AbsoluteIrradiance__828__12-57-02-075.txt Node

Date: Wed Aug 28 12:57:02 BST 2024
User: biology
Spectrometer: FLMT08252
Trigger mode: 0
Integration Time (sec): 5.000000E-1
Scans to average: 5
Electric dark correction enabled: true
Nonlinearity correction enabled: false
Boxcar width: 0
XAxis mode: Wavelengths
Number of Pixels in Spectrum: 3648
>>>>>Begin Spectral Data<<<<<
179.588	-0
179.809	-0
180.03	-0
180.251	-0
180.473	-0
180.694	0
180.915	0
181.136	-0
181.357	0
181.578	-0
181.799	-0
182.02	-0
182.241	-0
182.462	-0
182.683	0
182.904	-0
183.125	-0
183.346	0
183.567	0
183.788	0
184.009	0
184.23	0
184.451	0
184.672	0
184.892	0
185.113	0
185.334	0
185.555	0
185.776	0
185.996	0
186.217	0
186.438	0
186.659	0
186.879	0
187.1	0
187.321	0
187.541	0
187.762	0
187.983	0
188.203	0
188.424	0
188.644	0
188.865	0
189.086	0
189.306	0
189.527	0
189.747	0
189.968	0
190.188	0
190.409	0
190.629	0
190.849	0
191.07	0
191.29	0
191.511	0
191.731	0
191.951	0
192.172	0
192.392	0
192.612	0
192.833	0
193.053	0
193.273	0
193.493	0
193.714	0
193.934	0
194.154	0
194.374	0
194.594	0
194.815	0
195.035	0
195.255	0
195.475	0
195.695	0
195.915	0
196.135	0
196.355	0
196.575	0
196.795	0
197.015	0
197.235	0
197.455	0
197.675	0
197.895	0
198.115	0
198.335	0
198.555	0
198.775	0
198.995	0
199.214	0
199.434	0
199.654	0
199.874	0
200.094	4.22
200.313	2.79
200.533	1.61
200.753	1.3
200.973	3.93
201.192	3.46
201.412	1.53
201.632	1.77
201.851	3.85
202.071	1.94
202.291	1.7
202.51	1.45
202.73	2.96
202.95	1.65
203.169	1.29
203.389	1.93
203.608	2.41
203.828	1.39
204.047	1.64
204.267	1.62
204.486	2.16
204.706	2.56
204.925	1.63
205.145	1.07
205.364	2.07
205.583	2.47
205.803	1.14
206.022	0.91
206.242	1.82
206.461	1.53
206.68	1.12
206.9	1.86
207.119	2.63
207.338	2.31
207.557	1.05
207.777	1.39
207.996	1.37
208.215	2.26
208.434	0.92
208.654	0.68
208.873	1.57
209.092	2.3
209.311	1.12
209.53	1.03
209.749	1.33
209.968	1.04
210.187	1.19
210.407	0.77
210.626	1.2
210.845	1.6
211.064	1.27
211.283	0.78
211.502	1.59
211.721	1.42
211.94	0.84
212.159	0.97
212.377	1.35
212.596	1.68
212.815	1.08
213.034	1.18
213.253	1.21
213.472	1.36
213.691	0.94
213.91	0.73
214.128	0.89
214.347	1.46
214.566	0.55
214.785	0.62
215.003	1.16
215.222	1.25
215.441	0.92
215.66	0.45
215.878	0.9
216.097	1.19
216.316	0.67
216.534	0.89
216.753	1.08
216.972	0.86
217.19	0.85
217.409	0.62
217.627	0.95
217.846	0.94
218.064	0.95
218.283	0.57
218.501	1.31
218.72	1.12
218.938	0.46
219.157	0.68
219.375	0.98
219.594	1.16
219.812	0.35
220.031	0.34
220.249	1.2
220.467	1.19
220.686	0.49
220.904	0.49
221.122	0.77
221.341	1.31
221.559	0.74
221.777	0.44
221.995	0.81
222.214	0.89
222.432	0.61
222.65	0.89
222.868	0.76
223.086	0.76
223.305	0.83
223.523	0.58
223.741	1.05
223.959	0.7
224.177	0.36
224.395	0.63
224.613	0.93
224.831	0.94
225.049	0.49
225.267	0.59
225.485	0.76
225.703	0.62
225.921	0.55
226.139	0.49
226.357	0.83
226.575	0.81
226.793	0.52
227.011	1.46
227.229	0.61
227.447	0.96
227.665	0.57
227.883	0.44
228.1	0.67
228.318	0.76
228.536	0.32
228.754	0.37
228.972	0.64
229.189	0.78
229.407	0.57
229.625	0.56
229.843	0.85
230.06	0.85
230.278	0.62
230.496	0.6
230.713	0.67
230.931	0.82
231.149	0.55
231.366	0.43
231.584	0.47
231.801	1.01
232.019	0.49
232.236	0.42
232.454	0.49
232.671	0.69
232.889	0.51
233.106	0.3
233.324	0.6
233.541	0.54
233.759	0.56
233.976	0.33
234.194	0.55
234.411	0.54
234.628	0.4
234.846	0.37
235.063	0.59
235.28	0.54
235.498	0.43
235.715	0.39
235.932	0.82
236.149	0.49
236.367	0.33
236.584	0.47
236.801	0.57
237.018	0.62
237.236	0.53
237.453	0.31
237.67	0.77
237.887	0.55
238.104	0.42
238.321	0.4
238.538	0.37
238.755	0.68
238.973	0.19
239.19	0.51
239.407	0.6
239.624	0.57
239.841	0.38
240.058	0.36
240.275	0.56
240.492	0.5
240.709	0.38
240.925	0.35
241.142	0.56
241.359	0.31
241.576	0.31
241.793	0.32
242.01	0.54
242.227	0.66
242.444	0.49
242.66	0.62
242.877	0.52
243.094	0.38
243.311	0.43
243.527	0.45
243.744	0.57
243.961	0.49
244.178	0.34
244.394	0.47
244.611	0.62
244.828	0.66
245.044	0.36
245.261	0.31
245.477	0.47
245.694	0.58
245.911	0.3
246.127	0.37
246.344	0.6
246.56	0.6
246.777	0.34
246.993	0.43
247.21	0.49
247.426	0.48
247.643	0.37
247.859	0.28
248.076	0.36
248.292	0.67
248.508	0.3
248.725	0.5
248.941	0.41
249.157	0.56
249.374	0.26
249.59	0.47
249.806	0.49
250.023	0.45
250.239	0.35
250.455	0.34
250.671	0.44
250.888	0.5
251.104	0.54
251.32	0.42
251.536	0.52
251.752	0.34
251.969	0.41
252.185	0.41
252.401	0.63
252.617	0.45
252.833	0.37
253.049	0.33
253.265	0.34
253.481	0.47
253.697	0.38
253.913	0.26
254.129	0.51
254.345	0.42
254.561	0.35
254.777	0.36
254.993	0.5
255.209	0.44
255.425	0.3
255.641	0.28
255.857	0.53
256.073	0.4
256.288	0.27
256.504	0.39
256.72	0.39
256.936	0.55
257.152	0.43
257.367	0.28
257.583	0.43
257.799	0.49
258.015	0.43
258.23	0.3
258.446	0.53
258.662	0.4
258.877	0.32
259.093	0.29
259.309	0.38
259.524	0.44
259.74	0.27
259.955	0.29
260.171	0.46
260.387	0.43
260.602	0.39
260.818	0.43
261.033	0.32
261.249	0.38
261.464	0.35
261.68	0.23
261.895	0.43
262.11	0.43
262.326	0.25
262.541	0.28
262.757	0.43
262.972	0.47
263.187	0.38
263.403	0.36
263.618	0.48
263.833	0.32
264.049	0.27
264.264	0.32
264.479	0.42
264.694	0.54
264.91	0.25
265.125	0.34
265.34	0.46
265.555	0.51
265.77	0.38
265.986	0.23
266.201	0.46
266.416	0.48
266.631	0.3
266.846	0.3
267.061	0.47
267.276	0.45
267.491	0.23
267.706	0.42
267.921	0.41
268.136	0.39
268.351	0.35
268.566	0.27
268.781	0.47
268.996	0.4
269.211	0.28
269.426	0.32
269.641	0.28
269.856	0.52
270.071	0.3
270.285	0.25
270.5	0.38
270.715	0.45
270.93	0.25
271.145	0.36
271.359	0.4
271.574	0.27
271.789	0.32
272.004	0.29
272.218	0.3
272.433	0.33
272.648	0.22
272.862	0.42
273.077	0.37
273.292	0.37
273.506	0.3
273.721	0.29
273.936	0.43
274.15	0.41
274.365	0.25
274.579	0.38
274.794	0.39
275.008	0.45
275.223	0.26
275.437	0.32
275.652	0.42
275.866	0.41
276.081	0.32
276.295	0.36
276.509	0.32
276.724	0.35
276.938	0.31
277.153	0.36
277.367	0.41
277.581	0.3
277.796	0.27
278.01	0.28
278.224	0.38
278.438	0.48
278.653	0.2
278.867	0.22
279.081	0.16
279.295	0.26
279.51	0.33
279.724	0.15
279.938	0.35
280.152	0.31
280.366	0.26
280.58	0.33
280.794	0.45
281.008	0.4
281.222	0.35
281.437	0.46
281.651	0.34
281.865	0.4
282.079	0.25
282.293	0.23
282.507	0.3
282.721	0.28
282.935	0.32
283.148	0.22
283.362	0.29
283.576	0.19
283.79	0.34
284.004	0.25
284.218	0.4
284.432	0.28
284.646	0.29
284.859	0.3
285.073	0.29
285.287	0.35
285.501	0.3
285.714	0.31
285.928	0.32
286.142	0.37
286.356	0.26
286.569	0.25
286.783	0.48
286.997	0.33
287.21	0.28
287.424	0.28
287.637	0.28
287.851	0.24
288.065	0.39
288.278	0.29
288.492	0.29
288.705	0.23
288.919	0.26
289.132	0.15
289.346	0.36
289.559	0.2
289.773	0.26
289.986	0.31
290.2	0.27
290.413	0.38
290.626	0.23
290.84	0.24
291.053	0.26
291.267	0.37
291.48	0.31
291.693	0.24
291.906	0.28
292.12	0.29
292.333	0.25
292.546	0.25
292.76	0.33
292.973	0.29
293.186	0.33
293.399	0.21
293.612	0.34
293.826	0.16
294.039	0.27
294.252	0.21
294.465	0.36
294.678	0.32
294.891	0.29
295.104	0.23
295.317	0.22
295.53	0.25
295.743	0.24
295.956	0.26
296.169	0.39
296.382	0.36
296.595	0.22
296.808	0.25
297.021	0.35
297.234	0.33
297.447	0.27
297.66	0.28
297.873	0.33
298.086	0.35
298.299	0.21
298.511	0.16
298.724	0.26
298.937	0.19
299.15	0.22
299.363	0.25
299.575	0.34
299.788	0.33
300.001	0.25
300.213	0.18
300.426	0.26
300.639	0.24
300.852	0.24
301.064	0.27
301.277	0.35
301.489	0.35
301.702	0.28
301.915	0.26
302.127	0.25
302.34	0.27
302.552	0.25
302.765	0.25
302.977	0.34
303.19	0.2
303.402	0.23
303.615	0.24
303.827	0.26
304.04	0.23
304.252	0.29
304.464	0.26
304.677	0.36
304.889	0.29
305.102	0.24
305.314	0.21
305.526	0.33
305.739	0.34
305.951	0.18
306.163	0.21
306.375	0.33
306.588	0.22
306.8	0.23
307.012	0.16
307.224	0.25
307.436	0.35
307.649	0.18
307.861	0.23
308.073	0.31
308.285	0.25
308.497	0.2
308.709	0.25
308.921	0.25
309.133	0.34
309.346	0.22
309.558	0.23
309.77	0.34
309.982	0.32
310.194	0.33
310.406	0.19
310.617	0.36
310.829	0.27
311.041	0.3
311.253	0.24
311.465	0.28
311.677	0.26
311.889	0.24
312.101	0.24
312.313	0.35
312.524	0.37
312.736	0.22
312.948	0.24
313.16	0.37
313.372	0.29
313.583	0.29
313.795	0.2
314.007	0.26
314.218	0.31
314.43	0.27
314.642	0.18
314.853	0.14
315.065	0.37
315.277	0.23
315.488	0.25
315.7	0.25
315.912	0.31
316.123	0.25
316.335	0.22
316.546	0.37
316.758	0.29
316.969	0.23
317.181	0.21
317.392	0.28
317.604	0.36
317.815	0.21
318.026	0.22
318.238	0.24
318.449	0.29
318.661	0.17
318.872	0.19
319.083	0.24
319.295	0.31
319.506	0.19
319.717	0.26
319.929	0.31
320.14	0.24
320.351	0.21
320.562	0.22
320.774	0.23
320.985	0.26
321.196	0.22
321.407	0.17
321.618	0.3
321.829	0.27
322.041	0.28
322.252	0.24
322.463	0.28
322.674	0.31
322.885	0.15
323.096	0.27
323.307	0.26
323.518	0.28
323.729	0.19
323.94	0.22
324.151	0.28
324.362	0.3
324.573	0.3
324.784	0.25
324.995	0.28
325.206	0.32
325.417	0.27
325.628	0.15
325.838	0.28
326.049	0.32
326.26	0.33
326.471	0.19
326.682	0.28
326.892	0.3
327.103	0.21
327.314	0.2
327.525	0.37
327.735	0.32
327.946	0.23
328.157	0.17
328.368	0.31
328.578	0.29
328.789	0.27
328.999	0.24
329.21	0.25
329.421	0.31
329.631	0.23
329.842	0.21
330.052	0.31
330.263	0.25
330.473	0.26
330.684	0.18
330.894	0.26
331.105	0.32
331.315	0.24
331.526	0.2
331.736	0.36
331.947	0.31
332.157	0.3
332.367	0.15
332.578	0.29
332.788	0.35
332.999	0.29
333.209	0.23
333.419	0.2
333.629	0.27
333.84	0.27
334.05	0.25
334.26	0.36
334.47	0.29
334.681	0.27
334.891	0.27
335.101	0.3
335.311	0.38
335.521	0.22
335.732	0.2
335.942	0.33
336.152	0.28
336.362	0.29
336.572	0.3
336.782	0.32
336.992	0.21
337.202	0.25
337.412	0.22
337.622	0.26
337.832	0.25
338.042	0.26
338.252	0.19
338.462	0.22
338.672	0.25
338.882	0.22
339.092	0.27
339.302	0.32
339.511	0.29
339.721	0.24
339.931	0.17
340.141	0.28
340.351	0.34
340.561	0.28
340.77	0.28
340.98	0.27
341.19	0.26
341.4	0.24
341.609	0.22
341.819	0.23
342.029	0.24
342.238	0.23
342.448	0.24
342.658	0.31
342.867	0.25
343.077	0.26
343.286	0.21
343.496	0.25
343.706	0.35
343.915	0.18
344.125	0.24
344.334	0.27
344.544	0.21
344.753	0.22
344.963	0.21
345.172	0.22
345.381	0.24
345.591	0.23
345.8	0.24
346.01	0.33
346.219	0.35
346.428	0.25
346.638	0.22
346.847	0.25
347.056	0.35
347.266	0.26
347.475	0.24
347.684	0.3
347.893	0.26
348.103	0.28
348.312	0.22
348.521	0.22
348.73	0.24
348.94	0.26
349.149	0.23
349.358	0.24
349.567	0.21
349.776	0.18
349.985	0.22
350.194	0.29
350.403	0.32
350.612	0.14
350.821	0.22
351.03	0.26
351.239	0.18
351.448	0.25
351.657	0.2
351.866	0.34
352.075	0.26
352.284	0.27
352.493	0.21
352.702	0.31
352.911	0.29
353.12	0.24
353.329	0.24
353.538	0.27
353.746	0.26
353.955	0.19
354.164	0.27
354.373	0.2
354.582	0.27
354.79	0.22
354.999	0.3
355.208	0.24
355.416	0.34
355.625	0.17
355.834	0.18
356.042	0.28
356.251	0.21
356.46	0.17
356.668	0.29
356.877	0.32
357.085	0.31
357.294	0.16
357.503	0.26
357.711	0.25
357.92	0.42
358.128	0.27
358.337	0.2
358.545	0.24
358.754	0.25
358.962	0.25
359.17	0.24
359.379	0.27
359.587	0.32
359.796	0.18
360.004	0.33
360.212	0.31
360.421	0.32
360.629	0.18
360.837	0.2
361.046	0.31
361.254	0.46
361.462	0.24
361.67	0.22
361.879	0.31
362.087	0.32
362.295	0.25
362.503	0.21
362.711	0.18
362.92	0.22
363.128	0.22
363.336	0.17
363.544	0.18
363.752	0.23
363.96	0.19
364.168	0.21
364.376	0.23
364.584	0.27
364.792	0.29
365	0.27
365.208	0.26
365.416	0.32
365.624	0.29
365.832	0.19
366.04	0.34
366.248	0.29
366.456	0.26
366.664	0.27
366.872	0.23
367.079	0.24
367.287	0.22
367.495	0.22
367.703	0.21
367.911	0.26
368.118	0.22
368.326	0.26
368.534	0.2
368.742	0.34
368.949	0.19
369.157	0.22
369.365	0.25
369.572	0.25
369.78	0.2
369.988	0.29
370.195	0.26
370.403	0.3
370.61	0.23
370.818	0.26
371.026	0.35
371.233	0.26
371.441	0.25
371.648	0.23
371.856	0.3
372.063	0.3
372.271	0.19
372.478	0.22
372.685	0.23
372.893	0.31
373.1	0.26
373.308	0.2
373.515	0.42
373.722	0.33
373.93	0.23
374.137	0.31
374.344	0.32
374.552	0.32
374.759	0.29
374.966	0.26
375.173	0.26
375.381	0.37
375.588	0.24
375.795	0.2
376.002	0.25
376.209	0.23
376.417	0.22
376.624	0.27
376.831	0.27
377.038	0.25
377.245	0.12
377.452	0.24
377.659	0.27
377.866	0.21
378.073	0.26
378.28	0.2
378.487	0.3
378.694	0.3
378.901	0.25
379.108	0.27
379.315	0.31
379.522	0.39
379.729	0.3
379.936	0.26
380.143	0.28
380.35	0.33
380.557	0.3
380.763	0.23
380.97	0.3
381.177	0.3
381.384	0.25
381.591	0.21
381.797	0.31
382.004	0.32
382.211	0.31
382.418	0.21
382.624	0.32
382.831	0.31
383.038	0.24
383.244	0.29
383.451	0.28
383.658	0.33
383.864	0.24
384.071	0.23
384.277	0.4
384.484	0.24
384.69	0.33
384.897	0.28
385.103	0.28
385.31	0.26
385.516	0.28
385.723	0.24
385.929	0.27
386.136	0.27
386.342	0.31
386.549	0.27
386.755	0.33
386.961	0.34
387.168	0.27
387.374	0.25
387.58	0.35
387.787	0.3
387.993	0.3
388.199	0.29
388.406	0.25
388.612	0.26
388.818	0.26
389.024	0.25
389.231	0.32
389.437	0.39
389.643	0.31
389.849	0.26
390.055	0.33
390.261	0.3
390.467	0.36
390.674	0.23
390.88	0.29
391.086	0.34
391.292	0.24
391.498	0.32
391.704	0.33
391.91	0.25
392.116	0.27
392.322	0.23
392.528	0.38
392.734	0.32
392.94	0.28
393.146	0.29
393.352	0.37
393.557	0.28
393.763	0.3
393.969	0.33
394.175	0.28
394.381	0.32
394.587	0.26
394.792	0.33
394.998	0.36
395.204	0.36
395.41	0.27
395.615	0.32
395.821	0.37
396.027	0.32
396.233	0.29
396.438	0.33
396.644	0.38
396.85	0.36
397.055	0.34
397.261	0.35
397.466	0.38
397.672	0.4
397.878	0.36
398.083	0.38
398.289	0.29
398.494	0.43
398.7	0.35
398.905	0.23
399.111	0.43
399.316	0.3
399.522	0.37
399.727	0.38
399.932	0.37
400.138	0.31
400.343	0.41
400.549	0.31
400.754	0.42
400.959	0.37
401.165	0.31
401.37	0.4
401.575	0.44
401.78	0.41
401.986	0.39
402.191	0.33
402.396	0.39
402.601	0.41
402.807	0.43
403.012	0.4
403.217	0.47
403.422	0.42
403.627	0.39
403.832	0.36
404.037	0.41
404.243	0.44
404.448	0.36
404.653	0.4
404.858	0.5
405.063	0.49
405.268	0.4
405.473	0.36
405.678	0.43
405.883	0.65
406.088	0.52
406.293	0.43
406.498	0.38
406.703	0.53
406.907	0.46
407.112	0.44
407.317	0.53
407.522	0.59
407.727	0.45
407.932	0.51
408.136	0.63
408.341	0.54
408.546	0.57
408.751	0.59
408.956	0.61
409.16	0.65
409.365	0.6
409.57	0.63
409.774	0.56
409.979	0.69
410.184	0.69
410.388	0.6
410.593	0.75
410.798	0.72
411.002	0.69
411.207	0.79
411.411	0.8
411.616	0.8
411.82	0.76
412.025	0.86
412.229	0.79
412.434	0.95
412.638	0.95
412.843	0.84
413.047	0.94
413.252	0.94
413.456	0.98
413.66	1.04
413.865	1.05
414.069	1.14
414.273	1.08
414.478	1.16
414.682	1.14
414.886	1.16
415.091	1.21
415.295	1.15
415.499	1.38
415.703	1.26
415.908	1.46
416.112	1.34
416.316	1.54
416.52	1.57
416.724	1.54
416.929	1.56
417.133	1.86
417.337	1.67
417.541	1.73
417.745	1.81
417.949	1.86
418.153	1.99
418.357	1.96
418.561	2.29
418.765	2.17
418.969	2.37
419.173	2.35
419.377	2.36
419.581	2.55
419.785	2.59
419.989	2.53
420.193	2.76
420.397	2.87
420.601	2.93
420.804	3.02
421.008	3.03
421.212	3.23
421.416	3.18
421.62	3.19
421.823	3.26
422.027	3.46
422.231	3.38
422.435	3.4
422.638	3.5
422.842	3.62
423.046	3.56
423.249	3.89
423.453	3.89
423.657	4.02
423.86	4.15
424.064	4.25
424.268	4.38
424.471	4.37
424.675	4.6
424.878	4.7
425.082	4.74
425.285	5.07
425.489	5.03
425.692	5.1
425.896	5.12
426.099	5.39
426.303	5.46
426.506	5.59
426.71	5.84
426.913	6.1
427.116	6.22
427.32	6.21
427.523	6.32
427.726	6.58
427.93	6.71
428.133	6.93
428.336	7.12
428.54	7.3
428.743	7.51
428.946	7.81
429.149	7.71
429.353	7.73
429.556	7.8
429.759	7.98
429.962	8
430.165	8.2
430.368	7.84
430.571	7.97
430.775	7.88
430.978	7.91
431.181	7.99
431.384	8.05
431.587	8.34
431.79	8.45
431.993	8.61
432.196	8.78
432.399	9.14
432.602	9.33
432.805	9.46
433.008	9.91
433.211	9.86
433.414	10.07
433.616	10.2
433.819	10.12
434.022	10.32
434.225	10.54
434.428	10.37
434.631	10.88
434.833	10.76
435.036	11.07
435.239	11.13
435.442	11.24
435.645	11.22
435.847	11.44
436.05	11.73
436.253	11.96
436.455	12.05
436.658	11.86
436.861	12.18
437.063	12.29
437.266	12.29
437.468	12.62
437.671	12.95
437.874	12.91
438.076	12.77
438.279	13.34
438.481	13.28
438.684	14.01
438.886	13.73
439.089	14.03
439.291	14.02
439.494	14.47
439.696	14.5
439.899	15.11
440.101	15.39
440.303	15.59
440.506	16.38
440.708	16.05
440.91	16.36
441.113	16.55
441.315	16.86
441.517	16.5
441.72	17.07
441.922	16.67
442.124	16.57
442.326	17.09
442.529	17.31
442.731	17.2
442.933	17.77
443.135	17.29
443.337	17.34
443.539	17.83
443.742	17.62
443.944	18.29
444.146	18.02
444.348	18.02
444.55	17.6
444.752	18
444.954	18.14
445.156	17.99
445.358	18.25
445.56	18.54
445.762	18.37
445.964	18.56
446.166	18.55
446.368	18.43
446.57	18.41
446.772	18.11
446.974	17.97
447.175	18.18
447.377	17.77
447.579	18.27
447.781	17.95
447.983	17.82
448.184	17.38
448.386	17.69
448.588	17.2
448.79	17.16
448.991	17.44
449.193	17.43
449.395	16.81
449.597	16.54
449.798	16.49
450	15.88
450.202	15.79
450.403	15.93
450.605	15.8
450.806	15.29
451.008	15.29
451.21	14.91
451.411	14.5
451.613	13.9
451.814	14.19
452.016	14.17
452.217	13.39
452.419	13.45
452.62	12.98
452.821	12.81
453.023	12.78
453.224	12.31
453.426	11.93
453.627	11.12
453.828	11.28
454.03	11.41
454.231	11.37
454.432	11.13
454.634	10.97
454.835	10.59
455.036	10.49
455.238	10.17
455.439	9.95
455.64	9.75
455.841	9.49
456.042	9.59
456.244	9.31
456.445	8.96
456.646	8.76
456.847	8.64
457.048	8.53
457.249	8.62
457.45	8.4
457.651	7.79
457.852	7.74
458.054	7.41
458.255	7.37
458.456	7.47
458.657	7.34
458.858	6.8
459.058	6.65
459.259	6.86
459.46	6.51
459.661	6.51
459.862	6.56
460.063	6.47
460.264	6.35
460.465	6.02
460.666	6.11
460.866	5.83
461.067	5.65
461.268	5.63
461.469	5.59
461.67	5.44
461.87	5.2
462.071	5.3
462.272	5.19
462.473	5.19
462.673	5.41
462.874	5.17
463.075	5.23
463.275	5.16
463.476	5.31
463.676	5.21
463.877	4.95
464.078	5.02
464.278	5.04
464.479	4.9
464.679	4.77
464.88	4.73
465.08	4.7
465.281	4.55
465.481	4.4
465.682	4.18
465.882	4.19
466.083	4.05
466.283	4.04
466.483	3.99
466.684	3.8
466.884	3.66
467.085	3.68
467.285	3.83
467.485	3.64
467.686	3.63
467.886	3.54
468.086	3.43
468.286	3.46
468.487	3.5
468.687	3.31
468.887	3.27
469.087	3.45
469.287	3.32
469.488	3.17
469.688	3.23
469.888	3.22
470.088	3.19
470.288	3.12
470.488	3.11
470.688	2.93
470.888	2.9
471.088	2.74
471.288	2.86
471.488	2.84
471.688	2.83
471.888	2.7
472.088	2.93
472.288	2.79
472.488	2.61
472.688	2.59
472.888	2.69
473.088	2.64
473.288	2.51
473.488	2.47
473.688	2.65
473.887	2.5
474.087	2.44
474.287	2.49
474.487	2.41
474.687	2.45
474.886	2.42
475.086	2.31
475.286	2.34
475.486	2.29
475.685	2.27
475.885	2.26
476.085	2.3
476.284	2.28
476.484	2.3
476.684	2.23
476.883	2.32
477.083	2.19
477.282	2.16
477.482	2.19
477.681	2.14
477.881	2.11
478.08	2.13
478.28	2.1
478.479	2.13
478.679	2.2
478.878	2.06
479.078	2.05
479.277	2.09
479.477	2.1
479.676	2.04
479.875	2.06
480.075	1.98
480.274	2.03
480.473	2.09
480.673	2.07
480.872	2.14
481.071	2.09
481.271	2.09
481.47	2.03
481.669	2.01
481.868	2.01
482.067	1.98
482.267	1.95
482.466	1.95
482.665	1.96
482.864	1.93
483.063	1.94
483.262	2.08
483.461	2.11
483.661	2.09
483.86	1.99
484.059	2.1
484.258	2.1
484.457	2.03
484.656	2.01
484.855	2.14
485.054	1.94
485.253	2
485.452	1.97
485.651	2.05
485.849	2.04
486.048	2.04
486.247	2.06
486.446	2.12
486.645	2.02
486.844	2.07
487.043	2.06
487.241	2.12
487.44	2.09
487.639	2.14
487.838	2.11
488.037	2.13
488.235	2.25
488.434	2.18
488.633	2.04
488.831	2.25
489.03	2.26
489.229	2.24
489.427	2.26
489.626	2.28
489.825	2.33
490.023	2.36
490.222	2.26
490.42	2.36
490.619	2.35
490.817	2.37
491.016	2.33
491.214	2.43
491.413	2.45
491.611	2.39
491.81	2.4
492.008	2.49
492.207	2.56
492.405	2.53
492.604	2.51
492.802	2.51
493	2.63
493.199	2.61
493.397	2.63
493.595	2.71
493.794	2.69
493.992	2.8
494.19	2.72
494.388	2.83
494.587	2.75
494.785	2.8
494.983	2.71
495.181	2.82
495.379	2.91
495.578	2.96
495.776	2.97
495.974	2.98
496.172	2.96
496.37	3.09
496.568	3.11
496.766	3.09
496.964	3.2
497.162	3.2
497.36	3.2
497.558	3.26
497.756	3.27
497.954	3.31
498.152	3.33
498.35	3.45
498.548	3.39
498.746	3.4
498.944	3.44
499.142	3.45
499.34	3.52
499.538	3.6
499.736	3.49
499.933	3.65
500.131	3.64
500.329	3.74
500.527	3.75
500.725	3.87
500.922	3.86
501.12	3.86
501.318	3.95
501.516	3.94
501.713	4.03
501.911	4
502.109	3.96
502.306	4.1
502.504	4.01
